"SPL Horizontal"
"On-Axis"		"10°"		"-10°"		"20°"		"-20°"		"30°"		"-30°"		"40°"		"-40°"		"50°"		"-50°"		"60°"		"-60°"		"70°"		"-70°"		"80°"		"-80°"		"90°"		"-90°"		"100°"		"-100°"		"110°"		"-110°"		"120°"		"-120°"		"130°"		"-130°"		"140°"		"-140°"		"150°"		"-150°"		"160°"		"-160°"		"170°"		"-170°"		"180°"
"Frequency / Hz"	"Sound Pressure Level / dB (re 20 µPa/V)  [2.83  V @ 1. m]"	"Frequency / Hz"	"Sound Pressure Level / dB (re 20 µPa/V)  [2.83  V @ 1. m]"	"Frequency / Hz"	"Sound Pressure Level / dB (re 20 µPa/V)  [2.83  V @ 1. m]"	"Frequency / Hz"	"Sound Pressure Level / dB (re 20 µPa/V)  [2.83  V @ 1. m]"	"Frequency / Hz"	"Sound Pressure Level / dB (re 20 µPa/V)  [2.83  V @ 1. m]"	"Frequency / Hz"	"Sound Pressure Level / dB (re 20 µPa/V)  [2.83  V @ 1. m]"	"Frequency / Hz"	"Sound Pressure Level / dB (re 20 µPa/V)  [2.83  V @ 1. m]"	"Frequency / Hz"	"Sound Pressure Level / dB (re 20 µPa/V)  [2.83  V @ 1. m]"	"Frequency / Hz"	"Sound Pressure Level / dB (re 20 µPa/V)  [2.83  V @ 1. m]"	"Frequency / Hz"	"Sound Pressure Level / dB (re 20 µPa/V)  [2.83  V @ 1. m]"	"Frequency / Hz"	"Sound Pressure Level / dB (re 20 µPa/V)  [2.83  V @ 1. m]"	"Frequency / Hz"	"Sound Pressure Level / dB (re 20 µPa/V)  [2.83  V @ 1. m]"	"Frequency / Hz"	"Sound Pressure Level / dB (re 20 µPa/V)  [2.83  V @ 1. m]"	"Frequency / Hz"	"Sound Pressure Level / dB (re 20 µPa/V)  [2.83  V @ 1. m]"	"Frequency / Hz"	"Sound Pressure Level / dB (re 20 µPa/V)  [2.83  V @ 1. m]"	"Frequency / Hz"	"Sound Pressure Level / dB (re 20 µPa/V)  [2.83  V @ 1. m]"	"Frequency / Hz"	"Sound Pressure Level / dB (re 20 µPa/V)  [2.83  V @ 1. m]"	"Frequency / Hz"	"Sound Pressure Level / dB (re 20 µPa/V)  [2.83  V @ 1. m]"	"Frequency / Hz"	"Sound Pressure Level / dB (re 20 µPa/V)  [2.83  V @ 1. m]"	"Frequency / Hz"	"Sound Pressure Level / dB (re 20 µPa/V)  [2.83  V @ 1. m]"	"Frequency / Hz"	"Sound Pressure Level / dB (re 20 µPa/V)  [2.83  V @ 1. m]"	"Frequency / Hz"	"Sound Pressure Level / dB (re 20 µPa/V)  [2.83  V @ 1. m]"	"Frequency / Hz"	"Sound Pressure Level / dB (re 20 µPa/V)  [2.83  V @ 1. m]"	"Frequency / Hz"	"Sound Pressure Level / dB (re 20 µPa/V)  [2.83  V @ 1. m]"	"Frequency / Hz"	"Sound Pressure Level / dB (re 20 µPa/V)  [2.83  V @ 1. m]"	"Frequency / Hz"	"Sound Pressure Level / dB (re 20 µPa/V)  [2.83  V @ 1. m]"	"Frequency / Hz"	"Sound Pressure Level / dB (re 20 µPa/V)  [2.83  V @ 1. m]"	"Frequency / Hz"	"Sound Pressure Level / dB (re 20 µPa/V)  [2.83  V @ 1. m]"	"Frequency / Hz"	"Sound Pressure Level / dB (re 20 µPa/V)  [2.83  V @ 1. m]"	"Frequency / Hz"	"Sound Pressure Level / dB (re 20 µPa/V)  [2.83  V @ 1. m]"	"Frequency / Hz"	"Sound Pressure Level / dB (re 20 µPa/V)  [2.83  V @ 1. m]"	"Frequency / Hz"	"Sound Pressure Level / dB (re 20 µPa/V)  [2.83  V @ 1. m]"	"Frequency / Hz"	"Sound Pressure Level / dB (re 20 µPa/V)  [2.83  V @ 1. m]"	"Frequency / Hz"	"Sound Pressure Level / dB (re 20 µPa/V)  [2.83  V @ 1. m]"	"Frequency / Hz"	"Sound Pressure Level / dB (re 20 µPa/V)  [2.83  V @ 1. m]"	"Frequency / Hz"	"Sound Pressure Level / dB (re 20 µPa/V)  [2.83  V @ 1. m]"
20.5078	60.6663	20.5078	60.6348	20.5078	60.7083	20.5078	60.6124	20.5078	60.7617	20.5078	60.5987	20.5078	60.8271	20.5078	60.5943	20.5078	60.9039	20.5078	60.6007	20.5078	60.9899	20.5078	60.6195	20.5078	61.0814	20.5078	60.6507	20.5078	61.173	20.5078	60.6925	20.5078	61.2585	20.5078	60.7402	20.5078	61.3313	20.5078	60.788	20.5078	61.3858	20.5078	60.8306	20.5078	61.4181	20.5078	60.8654	20.5078	61.4261	20.5078	60.8929	20.5078	61.4093	20.5078	60.9168	20.5078	61.3697	20.5078	60.9433	20.5078	61.3111	20.5078	60.9787	20.5078	61.2396	20.5078	61.0274	20.5078	61.1631	20.5078	61.09
21.9727	56.8388	21.9727	56.8821	21.9727	56.7996	21.9727	56.9311	21.9727	56.7661	21.9727	56.9903	21.9727	56.7425	21.9727	57.0667	21.9727	56.7343	21.9727	57.1672	21.9727	56.7472	21.9727	57.2963	21.9727	56.7854	21.9727	57.4524	21.9727	56.8506	21.9727	57.6266	21.9727	56.9407	21.9727	57.8035	21.9727	57.0504	21.9727	57.9645	21.9727	57.1721	21.9727	58.0929	21.9727	57.2974	21.9727	58.1775	21.9727	57.4191	21.9727	58.2152	21.9727	57.5319	21.9727	58.2103	21.9727	57.6335	21.9727	58.1723	21.9727	57.7247	21.9727	58.1124	21.9727	57.8081	21.9727	58.0409	21.9727	57.8873	21.9727	57.9648
23.4375	59.8128	23.4375	59.9014	23.4375	59.735	23.4375	59.9979	23.4375	59.6712	23.4375	60.1004	23.4375	59.6252	23.4375	60.2076	23.4375	59.6007	23.4375	60.3188	23.4375	59.6007	23.4375	60.4329	23.4375	59.6269	23.4375	60.5481	23.4375	59.6786	23.4375	60.6605	23.4375	59.7529	23.4375	60.7647	23.4375	59.8452	23.4375	60.8543	23.4375	59.9495	23.4375	60.9231	23.4375	60.06	23.4375	60.9669	23.4375	60.1716	23.4375	60.9837	23.4375	60.2807	23.4375	60.9744	23.4375	60.3851	23.4375	60.9419	23.4375	60.484	23.4375	60.8905	23.4375	60.5776	23.4375	60.8248	23.4375	60.666	23.4375	60.749
24.9023	64.4817	24.9023	64.5338	24.9023	64.4357	24.9023	64.5898	24.9023	64.3976	24.9023	64.6474	24.9023	64.3686	24.9023	64.7042	24.9023	64.3494	24.9023	64.7583	24.9023	64.34	24.9023	64.8079	24.9023	64.3399	24.9023	64.8518	24.9023	64.3486	24.9023	64.889	24.9023	64.3654	24.9023	64.9185	24.9023	64.3895	24.9023	64.9397	24.9023	64.4205	24.9023	64.9519	24.9023	64.4577	24.9023	64.9545	24.9023	64.5002	24.9023	64.947	24.9023	64.5465	24.9023	64.9294	24.9023	64.595	24.9023	64.9027	24.9023	64.644	24.9023	64.8683	24.9023	64.6922	24.9023	64.8284	24.9023	64.7393	24.9023	64.7849
26.3672	66.0288	26.3672	66.0695	26.3672	65.9903	26.3672	66.1115	26.3672	65.9555	26.3672	66.1542	26.3672	65.926	26.3672	66.1973	26.3672	65.9034	26.3672	66.2409	26.3672	65.8895	26.3672	66.2848	26.3672	65.885	26.3672	66.3285	26.3672	65.8902	26.3672	66.3708	26.3672	65.9044	26.3672	66.4097	26.3672	65.9264	26.3672	66.4425	26.3672	65.9548	26.3672	66.4664	26.3672	65.9884	26.3672	66.4792	26.3672	66.0261	26.3672	66.4791	26.3672	66.0672	26.3672	66.4657	26.3672	66.1112	26.3672	66.4397	26.3672	66.1578	26.3672	66.4028	26.3672	66.2067	26.3672	66.358	26.3672	66.2574	26.3672	66.3085
27.832	69.3367	27.832	69.3735	27.832	69.2979	27.832	69.4074	27.832	69.2584	27.832	69.4375	27.832	69.2191	27.832	69.4631	27.832	69.1811	27.832	69.4836	27.832	69.1453	27.832	69.4986	27.832	69.1124	27.832	69.5072	27.832	69.0832	27.832	69.5082	27.832	69.0582	27.832	69.5002	27.832	69.0375	27.832	69.4817	27.832	69.0215	27.832	69.4519	27.832	69.0102	27.832	69.4112	27.832	69.0037	27.832	69.3615	27.832	69.0021	27.832	69.3056	27.832	69.0057	27.832	69.2473	27.832	69.0156	27.832	69.1903	27.832	69.0328	27.832	69.1383	27.832	69.0587	27.832	69.0939
29.2969	71.0552	29.2969	71.041	29.2969	71.0636	29.2969	71.0215	29.2969	71.0655	29.2969	70.9978	29.2969	71.0606	29.2969	70.9707	29.2969	71.049	29.2969	70.9412	29.2969	71.0307	29.2969	70.9102	29.2969	71.0059	29.2969	70.8784	29.2969	70.9749	29.2969	70.8463	29.2969	70.938	29.2969	70.8146	29.2969	70.8958	29.2969	70.7833	29.2969	70.8491	29.2969	70.7524	29.2969	70.7998	29.2969	70.7216	29.2969	70.7501	29.2969	70.691	29.2969	70.7031	29.2969	70.6612	29.2969	70.6617	29.2969	70.6338	29.2969	70.6283	29.2969	70.6109	29.2969	70.6044	29.2969	70.595	29.2969	70.5909	29.2969	70.588
30.7617	74.2712	30.7617	74.2809	30.7617	74.2545	30.7617	74.2839	30.7617	74.2307	30.7617	74.2805	30.7617	74.2	30.7617	74.2714	30.7617	74.1629	30.7617	74.2566	30.7617	74.1203	30.7617	74.2362	30.7617	74.0732	30.7617	74.21	30.7617	74.0232	30.7617	74.1777	30.7617	73.9718	30.7617	74.139	30.7617	73.9208	30.7617	74.0939	30.7617	73.8719	30.7617	74.043	30.7617	73.8268	30.7617	73.9877	30.7617	73.7869	30.7617	73.9303	30.7617	73.7533	30.7617	73.8736	30.7617	73.7271	30.7617	73.821	30.7617	73.7091	30.7617	73.7755	30.7617	73.7004	30.7617	73.7396	30.7617	73.702	30.7617	73.715
32.2266	76.2015	32.2266	76.199	32.2266	76.1976	32.2266	76.1899	32.2266	76.1872	32.2266	76.1744	32.2266	76.1703	32.2266	76.1523	32.2266	76.147	32.2266	76.1237	32.2266	76.1173	32.2266	76.0886	32.2266	76.0813	32.2266	76.0472	32.2266	76.0395	32.2266	75.9998	32.2266	75.992	32.2266	75.9472	32.2266	75.9396	32.2266	75.8904	32.2266	75.8832	32.2266	75.8314	32.2266	75.8242	32.2266	75.7723	32.2266	75.7648	32.2266	75.7157	32.2266	75.7077	32.2266	75.6643	32.2266	75.6559	32.2266	75.6207	32.2266	75.6126	32.2266	75.5869	32.2266	75.5804	32.2266	75.5649	32.2266	75.5612	32.2266	75.556
33.6914	78.3797	33.6914	78.378	33.6914	78.3744	33.6914	78.3692	33.6914	78.3621	33.6914	78.3535	33.6914	78.3432	33.6914	78.331	33.6914	78.3177	33.6914	78.302	33.6914	78.286	33.6914	78.2671	33.6914	78.2484	33.6914	78.2266	33.6914	78.2056	33.6914	78.1815	33.6914	78.1582	33.6914	78.1325	33.6914	78.1073	33.6914	78.0808	33.6914	78.0546	33.6914	78.0278	33.6914	78.0015	33.6914	77.9752	33.6914	77.9503	33.6914	77.9248	33.6914	77.9029	33.6914	77.8791	33.6914	77.8612	33.6914	77.8402	33.6914	77.8269	33.6914	77.8102	33.6914	77.8017	33.6914	77.7908	33.6914	77.7867	33.6914	77.7829
35.1562	80.438	35.1562	80.4324	35.1562	80.4351	35.1562	80.4185	35.1562	80.4237	35.1562	80.3966	35.1562	80.4037	35.1562	80.3673	35.1562	80.3754	35.1562	80.3314	35.1562	80.3391	35.1562	80.2898	35.1562	80.2953	35.1562	80.2436	35.1562	80.2449	35.1562	80.1941	35.1562	80.1889	35.1562	80.1425	35.1562	80.1291	35.1562	80.0901	35.1562	80.0674	35.1562	80.038	35.1562	80.0064	35.1562	79.9873	35.1562	79.9487	35.1562	79.9391	35.1562	79.8967	35.1562	79.8946	35.1562	79.8528	35.1562	79.8553	35.1562	79.8188	35.1562	79.8231	35.1562	79.7961	35.1562	79.7998	35.1562	79.7854	35.1562	79.7868
36.6211	82.2852	36.6211	82.2825	36.6211	82.2781	36.6211	82.2699	36.6211	82.2614	36.6211	82.2477	36.6211	82.2354	36.6211	82.2163	36.6211	82.2005	36.6211	82.1765	36.6211	82.1573	36.6211	82.1295	36.6211	82.1068	36.6211	82.0765	36.6211	82.0497	36.6211	82.0192	36.6211	81.9877	36.6211	81.9591	36.6211	81.9222	36.6211	81.898	36.6211	81.8555	36.6211	81.8371	36.6211	81.7899	36.6211	81.778	36.6211	81.7278	36.6211	81.7221	36.6211	81.6719	36.6211	81.671	36.6211	81.6245	36.6211	81.6265	36.6211	81.5875	36.6211	81.5906	36.6211	81.5625	36.6211	81.565	36.6211	81.5503	36.6211	81.5513
38.0859	84.1334	38.0859	84.1315	38.0859	84.1246	38.0859	84.119	38.0859	84.1054	38.0859	84.0964	38.0859	84.0759	38.0859	84.064	38.0859	84.0365	38.0859	84.0228	38.0859	83.9879	38.0859	83.9735	38.0859	83.9309	38.0859	83.9177	38.0859	83.8668	38.0859	83.8565	38.0859	83.797	38.0859	83.7915	38.0859	83.7234	38.0859	83.7243	38.0859	83.6485	38.0859	83.6564	38.0859	83.5749	38.0859	83.5895	38.0859	83.5057	38.0859	83.5253	38.0859	83.4438	38.0859	83.466	38.0859	83.392	38.0859	83.4137	38.0859	83.3526	38.0859	83.3708	38.0859	83.3272	38.0859	83.3392	38.0859	83.3166	38.0859	83.3208
39.5508	85.8731	39.5508	85.8679	39.5508	85.8677	39.5508	85.8522	39.5508	85.8518	39.5508	85.8266	39.5508	85.8255	39.5508	85.7916	39.5508	85.7892	39.5508	85.7483	39.5508	85.7434	39.5508	85.6978	39.5508	85.6889	39.5508	85.6416	39.5508	85.6268	39.5508	85.5814	39.5508	85.5586	39.5508	85.5188	39.5508	85.4861	39.5508	85.4554	39.5508	85.4117	39.5508	85.3927	39.5508	85.338	39.5508	85.3317	39.5508	85.2682	39.5508	85.2738	39.5508	85.2056	39.5508	85.2201	39.5508	85.1533	39.5508	85.1723	39.5508	85.1137	39.5508	85.1323	39.5508	85.0887	39.5508	85.102	39.5508	85.0788	39.5508	85.0836
41.0156	87.3912	41.0156	87.3713	41.0156	87.3981	41.0156	87.3389	41.0156	87.3921	41.0156	87.2947	41.0156	87.3734	41.0156	87.2398	41.0156	87.3424	41.0156	87.1763	41.0156	87.2998	41.0156	87.1065	41.0156	87.2465	41.0156	87.0333	41.0156	87.1835	41.0156	86.9598	41.0156	87.1124	41.0156	86.8887	41.0156	87.0349	41.0156	86.8219	41.0156	86.9532	41.0156	86.7605	41.0156	86.8699	41.0156	86.7046	41.0156	86.7882	41.0156	86.6539	41.0156	86.7115	41.0156	86.6087	41.0156	86.6433	41.0156	86.5697	41.0156	86.5871	41.0156	86.5388	41.0156	86.5455	41.0156	86.5185	41.0156	86.5202	41.0156	86.5116
42.4805	88.8285	42.4805	88.8334	42.4805	88.8166	42.4805	88.8307	42.4805	88.7981	42.4805	88.8205	42.4805	88.7741	42.4805	88.8031	42.4805	88.7456	42.4805	88.7791	42.4805	88.7137	42.4805	88.7497	42.4805	88.6796	42.4805	88.7161	42.4805	88.6443	42.4805	88.6799	42.4805	88.609	42.4805	88.6425	42.4805	88.5746	42.4805	88.6056	42.4805	88.5419	42.4805	88.5702	42.4805	88.5116	42.4805	88.5373	42.4805	88.4843	42.4805	88.5074	42.4805	88.4607	42.4805	88.481	42.4805	88.4414	42.4805	88.4584	42.4805	88.4272	42.4805	88.4401	42.4805	88.4185	42.4805	88.4267	42.4805	88.4156	42.4805	88.4184
43.9453	89.8266	43.9453	89.8284	43.9453	89.8136	43.9453	89.8187	43.9453	89.7897	43.9453	89.7978	43.9453	89.7557	43.9453	89.7662	43.9453	89.7126	43.9453	89.7249	43.9453	89.6615	43.9453	89.6752	43.9453	89.604	43.9453	89.6186	43.9453	89.5418	43.9453	89.5571	43.9453	89.4768	43.9453	89.4925	43.9453	89.4109	43.9453	89.427	43.9453	89.3464	43.9453	89.3626	43.9453	89.285	43.9453	89.3011	43.9453	89.2289	43.9453	89.2443	43.9453	89.1795	43.9453	89.1937	43.9453	89.1386	43.9453	89.1508	43.9453	89.1073	43.9453	89.1168	43.9453	89.0867	43.9453	89.0927	43.9453	89.0773	43.9453	89.0794
45.4102	90.7957	45.4102	90.7951	45.4102	90.7848	45.4102	90.7832	45.4102	90.7628	45.4102	90.7603	45.4102	90.7302	45.4102	90.7272	45.4102	90.6879	45.4102	90.6847	45.4102	90.6371	45.4102	90.6343	45.4102	90.5793	45.4102	90.5775	45.4102	90.5164	45.4102	90.5162	45.4102	90.4503	45.4102	90.4521	45.4102	90.3832	45.4102	90.3874	45.4102	90.3173	45.4102	90.3239	45.4102	90.2547	45.4102	90.2635	45.4102	90.1974	45.4102	90.2079	45.4102	90.1473	45.4102	90.1584	45.4102	90.1059	45.4102	90.1166	45.4102	90.0745	45.4102	90.0834	45.4102	90.0539	45.4102	90.0599	45.4102	90.0447	45.4102	90.0468
46.875	91.694	46.875	91.6915	46.875	91.6848	46.875	91.6775	46.875	91.6642	46.875	91.6526	46.875	91.6327	46.875	91.6176	46.875	91.5912	46.875	91.5735	46.875	91.5408	46.875	91.5219	46.875	91.4832	46.875	91.4642	46.875	91.4203	46.875	91.4023	46.875	91.3542	46.875	91.338	46.875	91.2871	46.875	91.273	46.875	91.2214	46.875	91.2093	46.875	91.159	46.875	91.1486	46.875	91.1018	46.875	91.0929	46.875	91.0514	46.875	91.0437	46.875	91.0091	46.875	91.0028	46.875	90.9761	46.875	90.9714	46.875	90.9532	46.875	90.9503	46.875	90.9411	46.875	90.9401
48.3398	92.4164	48.3398	92.4098	48.3398	92.4114	48.3398	92.3917	48.3398	92.3947	48.3398	92.3627	48.3398	92.3668	48.3398	92.3237	48.3398	92.3284	48.3398	92.2758	48.3398	92.2808	48.3398	92.2204	48.3398	92.2254	48.3398	92.1591	48.3398	92.1641	48.3398	92.0937	48.3398	92.0989	48.3398	92.0261	48.3398	92.0322	48.3398	91.9585	48.3398	91.9662	48.3398	91.8932	48.3398	91.9031	48.3398	91.8324	48.3398	91.8446	48.3398	91.7783	48.3398	91.7923	48.3398	91.7327	48.3398	91.7471	48.3398	91.6971	48.3398	91.7102	48.3398	91.6723	48.3398	91.6822	48.3398	91.6586	48.3398	91.6639	48.3398	91.6559
51.2695	93.6468	51.2695	93.6452	51.2695	93.6327	51.2695	93.6283	51.2695	93.6034	51.2695	93.5967	51.2695	93.5595	51.2695	93.5514	51.2695	93.5024	51.2695	93.494	51.2695	93.4339	51.2695	93.4266	51.2695	93.3561	51.2695	93.3514	51.2695	93.2717	51.2695	93.271	51.2695	93.1838	51.2695	93.1884	51.2695	93.0954	51.2695	93.1061	51.2695	93.0098	51.2695	93.0266	51.2695	92.9301	51.2695	92.9522	51.2695	92.8588	51.2695	92.8845	51.2695	92.7982	51.2695	92.825	51.2695	92.7498	51.2695	92.7747	51.2695	92.7144	51.2695	92.7348	51.2695	92.6926	51.2695	92.7059	51.2695	92.6842	51.2695	92.6888
52.7344	94.0642	52.7344	94.0553	52.7344	94.0574	52.7344	94.0311	52.7344	94.035	52.7344	93.9926	52.7344	93.9974	52.7344	93.941	52.7344	93.9457	52.7344	93.878	52.7344	93.8814	52.7344	93.8056	52.7344	93.8069	52.7344	93.7262	52.7344	93.7246	52.7344	93.6425	52.7344	93.6377	52.7344	93.5571	52.7344	93.5494	52.7344	93.473	52.7344	93.4629	52.7344	93.3927	52.7344	93.3813	52.7344	93.3186	52.7344	93.3071	52.7344	93.2529	52.7344	93.2423	52.7344	93.1972	52.7344	93.1883	52.7344	93.1526	52.7344	93.146	52.7344	93.1201	52.7344	93.1159	52.7344	93.1002	52.7344	93.0981	52.7344	93.0928
54.1992	94.4524	54.1992	94.4432	54.1992	94.4465	54.1992	94.4191	54.1992	94.4255	54.1992	94.3807	54.1992	94.3901	54.1992	94.3292	54.1992	94.341	54.1992	94.2659	54.1992	94.2798	54.1992	94.1926	54.1992	94.2081	54.1992	94.1116	54.1992	94.1281	54.1992	94.0254	54.1992	94.0424	54.1992	93.9369	54.1992	93.954	54.1992	93.849	54.1992	93.8658	54.1992	93.7645	54.1992	93.781	54.1992	93.6863	54.1992	93.7023	54.1992	93.6168	54.1992	93.6321	54.1992	93.558	54.1992	93.5721	54.1992	93.5117	54.1992	93.5237	54.1992	93.4788	54.1992	93.4878	54.1992	93.46	54.1992	93.4649	54.1992	93.4555
55.6641	94.696	55.6641	94.6959	55.6641	94.6819	55.6641	94.6816	55.6641	94.6534	55.6641	94.6541	55.6641	94.6114	55.6641	94.6144	55.6641	94.5568	55.6641	94.5641	55.6641	94.4912	55.6641	94.5047	55.6641	94.4166	55.6641	94.4385	55.6641	94.3355	55.6641	94.3673	55.6641	94.2505	55.6641	94.2933	55.6641	94.1647	55.6641	94.2184	55.6641	94.0813	55.6641	94.1444	55.6641	94.0032	55.6641	94.0729	55.6641	93.933	55.6641	94.0053	55.6641	93.8732	55.6641	93.943	55.6641	93.8256	55.6641	93.8875	55.6641	93.7917	55.6641	93.8405	55.6641	93.7725	55.6641	93.8037	55.6641	93.7685	55.6641	93.7792
58.5938	95.1243	58.5938	95.1113	58.5938	95.1222	58.5938	95.0836	58.5938	95.1052	58.5938	95.0422	58.5938	95.0739	58.5938	94.9886	58.5938	95.0295	58.5938	94.9248	58.5938	94.9735	58.5938	94.8531	58.5938	94.908	58.5938	94.7763	58.5938	94.8355	58.5938	94.6972	58.5938	94.7585	58.5938	94.6186	58.5938	94.6797	58.5938	94.543	58.5938	94.6021	58.5938	94.473	58.5938	94.5279	58.5938	94.4102	58.5938	94.4596	58.5938	94.3565	58.5938	94.3989	58.5938	94.3127	58.5938	94.3473	58.5938	94.2795	58.5938	94.3056	58.5938	94.2572	58.5938	94.2746	58.5938	94.2455	58.5938	94.2542	58.5938	94.2445
60.0586	95.3014	60.0586	95.2937	60.0586	95.2937	60.0586	95.2711	60.0586	95.271	60.0586	95.2344	60.0586	95.2337	60.0586	95.185	60.0586	95.1834	60.0586	95.1248	60.0586	95.1216	60.0586	95.0557	60.0586	95.0505	60.0586	94.9805	60.0586	94.9729	60.0586	94.9016	60.0586	94.8914	60.0586	94.8217	60.0586	94.8091	60.0586	94.7435	60.0586	94.7289	60.0586	94.6693	60.0586	94.6534	60.0586	94.6012	60.0586	94.5851	60.0586	94.5409	60.0586	94.5256	60.0586	94.4898	60.0586	94.4763	60.0586	94.4489	60.0586	94.438	60.0586	94.4187	60.0586	94.4111	60.0586	94.3997	60.0586	94.3958	60.0586	94.3921
62.9883	95.4165	62.9883	95.4085	62.9883	95.4094	62.9883	95.3857	62.9883	95.3874	62.9883	95.3491	62.9883	95.3511	62.9883	95.3003	62.9883	95.302	62.9883	95.2413	62.9883	95.2418	62.9883	95.1745	62.9883	95.173	62.9883	95.1028	62.9883	95.098	62.9883	95.0288	62.9883	95.0199	62.9883	94.9555	62.9883	94.9418	62.9883	94.8853	62.9883	94.8668	62.9883	94.8202	62.9883	94.7974	62.9883	94.7618	62.9883	94.736	62.9883	94.7109	62.9883	94.684	62.9883	94.6682	62.9883	94.6426	62.9883	94.6337	62.9883	94.6118	62.9883	94.6076	62.9883	94.5916	62.9883	94.5901	62.9883	94.5816	62.9883	94.5813
64.4531	95.4361	64.4531	95.423	64.4531	95.4333	64.4531	95.3945	64.4531	95.4146	64.4531	95.3516	64.4531	95.3808	64.4531	95.2961	64.4531	95.3331	64.4531	95.23	64.4531	95.2733	64.4531	95.156	64.4531	95.2037	64.4531	95.077	64.4531	95.127	64.4531	94.9959	64.4531	95.0462	64.4531	94.9159	64.4531	94.9646	64.4531	94.8399	64.4531	94.8853	64.4531	94.7701	64.4531	94.8112	64.4531	94.7087	64.4531	94.7448	64.4531	94.657	64.4531	94.6876	64.4531	94.6157	64.4531	94.6406	64.4531	94.5849	64.4531	94.6039	64.4531	94.5644	64.4531	94.5772	64.4531	94.5537	64.4531	94.5601	64.4531	94.5523
67.3828	95.4606	67.3828	95.4447	67.3828	95.4604	67.3828	95.4132	67.3828	95.4444	67.3828	95.3671	67.3828	95.4133	67.3828	95.3083	67.3828	95.3688	67.3828	95.2392	67.3828	95.3129	67.3828	95.1626	67.3828	95.248	67.3828	95.0819	67.3828	95.177	67.3828	95.0006	67.3828	95.1026	67.3828	94.922	67.3828	95.028	67.3828	94.8493	67.3828	94.9557	67.3828	94.7851	67.3828	94.8883	67.3828	94.7312	67.3828	94.8276	67.3828	94.6886	67.3828	94.7748	67.3828	94.6575	67.3828	94.7304	67.3828	94.6374	67.3828	94.6943	67.3828	94.6272	67.3828	94.6663	67.3828	94.6257	67.3828	94.6456	67.3828	94.6321
