"SPL Horizontal"
"On-Axis"		"10°"		"-10°"		"20°"		"-20°"		"30°"		"-30°"		"40°"		"-40°"		"50°"		"-50°"		"60°"		"-60°"		"70°"		"-70°"		"80°"		"-80°"		"90°"		"-90°"		"100°"		"-100°"		"110°"		"-110°"		"120°"		"-120°"		"130°"		"-130°"		"140°"		"-140°"		"150°"		"-150°"		"160°"		"-160°"		"170°"		"-170°"		"180°"
"Frequency / Hz"	"Sound Pressure Level / dB (re 20 µPa/V)  [2.83  V @ 1. m]"	"Frequency / Hz"	"Sound Pressure Level / dB (re 20 µPa/V)  [2.83  V @ 1. m]"	"Frequency / Hz"	"Sound Pressure Level / dB (re 20 µPa/V)  [2.83  V @ 1. m]"	"Frequency / Hz"	"Sound Pressure Level / dB (re 20 µPa/V)  [2.83  V @ 1. m]"	"Frequency / Hz"	"Sound Pressure Level / dB (re 20 µPa/V)  [2.83  V @ 1. m]"	"Frequency / Hz"	"Sound Pressure Level / dB (re 20 µPa/V)  [2.83  V @ 1. m]"	"Frequency / Hz"	"Sound Pressure Level / dB (re 20 µPa/V)  [2.83  V @ 1. m]"	"Frequency / Hz"	"Sound Pressure Level / dB (re 20 µPa/V)  [2.83  V @ 1. m]"	"Frequency / Hz"	"Sound Pressure Level / dB (re 20 µPa/V)  [2.83  V @ 1. m]"	"Frequency / Hz"	"Sound Pressure Level / dB (re 20 µPa/V)  [2.83  V @ 1. m]"	"Frequency / Hz"	"Sound Pressure Level / dB (re 20 µPa/V)  [2.83  V @ 1. m]"	"Frequency / Hz"	"Sound Pressure Level / dB (re 20 µPa/V)  [2.83  V @ 1. m]"	"Frequency / Hz"	"Sound Pressure Level / dB (re 20 µPa/V)  [2.83  V @ 1. m]"	"Frequency / Hz"	"Sound Pressure Level / dB (re 20 µPa/V)  [2.83  V @ 1. m]"	"Frequency / Hz"	"Sound Pressure Level / dB (re 20 µPa/V)  [2.83  V @ 1. m]"	"Frequency / Hz"	"Sound Pressure Level / dB (re 20 µPa/V)  [2.83  V @ 1. m]"	"Frequency / Hz"	"Sound Pressure Level / dB (re 20 µPa/V)  [2.83  V @ 1. m]"	"Frequency / Hz"	"Sound Pressure Level / dB (re 20 µPa/V)  [2.83  V @ 1. m]"	"Frequency / Hz"	"Sound Pressure Level / dB (re 20 µPa/V)  [2.83  V @ 1. m]"	"Frequency / Hz"	"Sound Pressure Level / dB (re 20 µPa/V)  [2.83  V @ 1. m]"	"Frequency / Hz"	"Sound Pressure Level / dB (re 20 µPa/V)  [2.83  V @ 1. m]"	"Frequency / Hz"	"Sound Pressure Level / dB (re 20 µPa/V)  [2.83  V @ 1. m]"	"Frequency / Hz"	"Sound Pressure Level / dB (re 20 µPa/V)  [2.83  V @ 1. m]"	"Frequency / Hz"	"Sound Pressure Level / dB (re 20 µPa/V)  [2.83  V @ 1. m]"	"Frequency / Hz"	"Sound Pressure Level / dB (re 20 µPa/V)  [2.83  V @ 1. m]"	"Frequency / Hz"	"Sound Pressure Level / dB (re 20 µPa/V)  [2.83  V @ 1. m]"	"Frequency / Hz"	"Sound Pressure Level / dB (re 20 µPa/V)  [2.83  V @ 1. m]"	"Frequency / Hz"	"Sound Pressure Level / dB (re 20 µPa/V)  [2.83  V @ 1. m]"	"Frequency / Hz"	"Sound Pressure Level / dB (re 20 µPa/V)  [2.83  V @ 1. m]"	"Frequency / Hz"	"Sound Pressure Level / dB (re 20 µPa/V)  [2.83  V @ 1. m]"	"Frequency / Hz"	"Sound Pressure Level / dB (re 20 µPa/V)  [2.83  V @ 1. m]"	"Frequency / Hz"	"Sound Pressure Level / dB (re 20 µPa/V)  [2.83  V @ 1. m]"	"Frequency / Hz"	"Sound Pressure Level / dB (re 20 µPa/V)  [2.83  V @ 1. m]"	"Frequency / Hz"	"Sound Pressure Level / dB (re 20 µPa/V)  [2.83  V @ 1. m]"	"Frequency / Hz"	"Sound Pressure Level / dB (re 20 µPa/V)  [2.83  V @ 1. m]"	"Frequency / Hz"	"Sound Pressure Level / dB (re 20 µPa/V)  [2.83  V @ 1. m]"
20.5078	63.3146	20.5078	63.3156	20.5078	63.3265	20.5078	63.3285	20.5078	63.3507	20.5078	63.3508	20.5078	63.3845	20.5078	63.3784	20.5078	63.4237	20.5078	63.4064	20.5078	63.4627	20.5078	63.4293	20.5078	63.496	20.5078	63.442	20.5078	63.5182	20.5078	63.4402	20.5078	63.5258	20.5078	63.4218	20.5078	63.5169	20.5078	63.387	20.5078	63.4921	20.5078	63.3391	20.5078	63.4537	20.5078	63.2833	20.5078	63.4053	20.5078	63.2265	20.5078	63.3507	20.5078	63.1755	20.5078	63.2939	20.5078	63.1364	20.5078	63.2388	20.5078	63.1132	20.5078	63.189	20.5078	63.1079	20.5078	63.1483	20.5078	63.1203
21.9727	61.4638	21.9727	61.4997	21.9727	61.4279	21.9727	61.5335	21.9727	61.3922	21.9727	61.5607	21.9727	61.3551	21.9727	61.5757	21.9727	61.3129	21.9727	61.5715	21.9727	61.2609	21.9727	61.5413	21.9727	61.1938	21.9727	61.4792	21.9727	61.1072	21.9727	61.3818	21.9727	60.9983	21.9727	61.2485	21.9727	60.868	21.9727	61.0832	21.9727	60.7202	21.9727	60.8935	21.9727	60.5624	21.9727	60.6907	21.9727	60.4042	21.9727	60.4886	21.9727	60.2554	21.9727	60.3013	21.9727	60.1247	21.9727	60.1414	21.9727	60.019	21.9727	60.0184	21.9727	59.9435	21.9727	59.9372	21.9727	59.9023	21.9727	59.8991
23.4375	64.4758	23.4375	64.4652	23.4375	64.4883	23.4375	64.4559	23.4375	64.5013	23.4375	64.4455	23.4375	64.5117	23.4375	64.4303	23.4375	64.5149	23.4375	64.4053	23.4375	64.5054	23.4375	64.3653	23.4375	64.4772	23.4375	64.3056	23.4375	64.4254	23.4375	64.2229	23.4375	64.3466	23.4375	64.1162	23.4375	64.2401	23.4375	63.9876	23.4375	64.1081	23.4375	63.8423	23.4375	63.9561	23.4375	63.6881	23.4375	63.7922	23.4375	63.5348	23.4375	63.6266	23.4375	63.393	23.4375	63.4698	23.4375	63.2728	23.4375	63.3325	23.4375	63.183	23.4375	63.2239	23.4375	63.1306	23.4375	63.1514	23.4375	63.1196
24.9023	65.4354	24.9023	65.4265	24.9023	65.4443	24.9023	65.4172	24.9023	65.452	24.9023	65.4057	24.9023	65.4555	24.9023	65.3884	24.9023	65.451	24.9023	65.3608	24.9023	65.4335	24.9023	65.3182	24.9023	65.3981	24.9023	65.256	24.9023	65.3404	24.9023	65.171	24.9023	65.2573	24.9023	65.0624	24.9023	65.1483	24.9023	64.9322	24.9023	65.0153	24.9023	64.7854	24.9023	64.8636	24.9023	64.6298	24.9023	64.7008	24.9023	64.4748	24.9023	64.5367	24.9023	64.3308	24.9023	64.382	24.9023	64.2079	24.9023	64.2472	24.9023	64.1151	24.9023	64.1416	24.9023	64.0592	24.9023	64.0725	24.9023	64.0445
26.3672	66.1195	26.3672	66.1253	26.3672	66.1142	26.3672	66.13	26.3672	66.1093	26.3672	66.1307	26.3672	66.1032	26.3672	66.1234	26.3672	66.0925	26.3672	66.103	26.3672	66.0728	26.3672	66.0646	26.3672	66.0388	26.3672	66.0036	26.3672	65.9853	26.3672	65.917	26.3672	65.9085	26.3672	65.8042	26.3672	65.8069	26.3672	65.6677	26.3672	65.6816	26.3672	65.5131	26.3672	65.5371	26.3672	65.3487	26.3672	65.3807	26.3672	65.185	26.3672	65.2216	26.3672	65.0333	26.3672	65.0704	26.3672	64.9042	26.3672	64.9374	26.3672	64.8072	26.3672	64.8322	26.3672	64.7492	26.3672	64.7626	26.3672	64.7341
27.832	67.4127	27.832	67.3994	27.832	67.4223	27.832	67.3823	27.832	67.427	27.832	67.3597	27.832	67.4245	27.832	67.3288	27.832	67.4112	27.832	67.2862	27.832	67.3829	27.832	67.2276	27.832	67.3352	27.832	67.1494	27.832	67.2643	27.832	67.0492	27.832	67.1675	27.832	66.9265	27.832	67.0448	27.832	66.7836	27.832	66.8987	27.832	66.6254	27.832	66.7345	27.832	66.4599	27.832	66.5603	27.832	66.2967	27.832	66.3857	27.832	66.1463	27.832	66.2216	27.832	66.0192	27.832	66.0783	27.832	65.9245	27.832	65.9653	27.832	65.869	27.832	65.8899	27.832	65.8572
29.2969	67.8166	29.2969	67.8184	29.2969	67.8096	29.2969	67.814	29.2969	67.7972	29.2969	67.8015	29.2969	67.778	29.2969	67.7778	29.2969	67.7496	29.2969	67.7393	29.2969	67.7089	29.2969	67.682	29.2969	67.6524	29.2969	67.6027	29.2969	67.5768	29.2969	67.4991	29.2969	67.4799	29.2969	67.3713	29.2969	67.3612	29.2969	67.2223	29.2969	67.2225	29.2969	67.0576	29.2969	67.0685	29.2969	66.8857	29.2969	66.9058	29.2969	66.7165	29.2969	66.7432	29.2969	66.5609	29.2969	66.5904	29.2969	66.4294	29.2969	66.4571	29.2969	66.3308	29.2969	66.3523	29.2969	66.2716	29.2969	66.2834	29.2969	66.2557
30.7617	68.6161	30.7617	68.6126	30.7617	68.6132	30.7617	68.6019	30.7617	68.6036	30.7617	68.5822	30.7617	68.5861	30.7617	68.551	30.7617	68.5585	30.7617	68.5052	30.7617	68.5179	30.7617	68.4414	30.7617	68.4607	30.7617	68.3568	30.7617	68.3839	30.7617	68.2497	30.7617	68.2851	30.7617	68.1204	30.7617	68.1639	30.7617	67.9717	30.7617	68.0223	30.7617	67.809	30.7617	67.865	30.7617	67.6404	30.7617	67.6989	30.7617	67.4753	30.7617	67.5331	30.7617	67.3242	30.7617	67.3773	30.7617	67.197	30.7617	67.2414	30.7617	67.1023	30.7617	67.1343	30.7617	67.0465	30.7617	67.0633	30.7617	67.0332
32.2266	69.322	32.2266	69.3215	32.2266	69.3151	32.2266	69.3128	32.2266	69.3006	32.2266	69.2941	32.2266	69.2775	32.2266	69.2632	32.2266	69.244	32.2266	69.2171	32.2266	69.1972	32.2266	69.1523	32.2266	69.1339	32.2266	69.0662	32.2266	69.0512	32.2266	68.9567	32.2266	68.9468	32.2266	68.824	32.2266	68.8201	32.2266	68.6707	32.2266	68.6732	32.2266	68.5019	32.2266	68.5104	32.2266	68.3257	32.2266	68.339	32.2266	68.1516	32.2266	68.1682	32.2266	67.9906	32.2266	68.0081	32.2266	67.8532	32.2266	67.8692	32.2266	67.7488	32.2266	67.761	32.2266	67.6846	32.2266	67.6912	32.2266	67.6651
33.6914	69.8733	33.6914	69.8758	33.6914	69.8618	33.6914	69.8687	33.6914	69.8417	33.6914	69.8506	33.6914	69.8122	33.6914	69.8194	33.6914	69.7723	33.6914	69.7727	33.6914	69.72	33.6914	69.7078	33.6914	69.6532	33.6914	69.6222	33.6914	69.5694	33.6914	69.5146	33.6914	69.467	33.6914	69.3851	33.6914	69.3456	33.6914	69.2364	33.6914	69.2069	33.6914	69.0735	33.6914	69.0548	33.6914	68.904	33.6914	68.8957	33.6914	68.7371	33.6914	68.7376	33.6914	68.5832	33.6914	68.5897	33.6914	68.4521	33.6914	68.4613	33.6914	68.3528	33.6914	68.3613	33.6914	68.2917	33.6914	68.2968	33.6914	68.2728
35.1562	70.4438	35.1562	70.446	35.1562	70.4331	35.1562	70.4389	35.1562	70.4141	35.1562	70.4214	35.1562	70.3864	35.1562	70.3918	35.1562	70.349	35.1562	70.3481	35.1562	70.3004	35.1562	70.288	35.1562	70.2385	35.1562	70.2094	35.1562	70.1611	35.1562	70.111	35.1562	70.0666	35.1562	69.9929	35.1562	69.9546	35.1562	69.8575	35.1562	69.8265	35.1562	69.7091	35.1562	69.686	35.1562	69.5546	35.1562	69.5391	35.1562	69.4023	35.1562	69.3934	35.1562	69.2615	35.1562	69.2576	35.1562	69.141	35.1562	69.1404	35.1562	69.049	35.1562	69.0498	35.1562	68.9915	35.1562	68.9923	35.1562	68.9723
36.6211	71.1983	36.6211	71.2015	36.6211	71.1886	36.6211	71.1976	36.6211	71.1725	36.6211	71.1857	36.6211	71.1498	36.6211	71.1644	36.6211	71.1196	36.6211	71.132	36.6211	71.0803	36.6211	71.0863	36.6211	71.0298	36.6211	71.0253	36.6211	70.9659	36.6211	70.9475	36.6211	70.8868	36.6211	70.8525	36.6211	70.7921	36.6211	70.7419	36.6211	70.6829	36.6211	70.6192	36.6211	70.5629	36.6211	70.4896	36.6211	70.4373	36.6211	70.3602	36.6211	70.3132	36.6211	70.2386	36.6211	70.1984	36.6211	70.1326	36.6211	70.1008	36.6211	70.0493	36.6211	70.0272	36.6211	69.9944	36.6211	69.9831	36.6211	69.9719
38.0859	71.5609	38.0859	71.5651	38.0859	71.5525	38.0859	71.565	38.0859	71.5399	38.0859	71.56	38.0859	71.523	38.0859	71.5494	38.0859	71.5014	38.0859	71.5318	38.0859	71.474	38.0859	71.5053	38.0859	71.4396	38.0859	71.4679	38.0859	71.3964	38.0859	71.4177	38.0859	71.3429	38.0859	71.3537	38.0859	71.2784	38.0859	71.2767	38.0859	71.2034	38.0859	71.189	38.0859	71.1202	38.0859	71.0948	38.0859	71.0324	38.0859	70.9995	38.0859	70.9452	38.0859	70.9092	38.0859	70.8642	38.0859	70.8298	38.0859	70.7953	38.0859	70.767	38.0859	70.7435	38.0859	70.725	38.0859	70.7131	38.0859	70.7066
39.5508	72.0524	39.5508	72.0587	39.5508	72.0446	39.5508	72.0631	39.5508	72.0352	39.5508	72.0653	39.5508	72.0243	39.5508	72.0645	39.5508	72.0117	39.5508	72.0596	39.5508	71.9966	39.5508	72.0487	39.5508	71.9777	39.5508	72.0296	39.5508	71.9532	39.5508	72.0005	39.5508	71.9212	39.5508	71.96	39.5508	71.8805	39.5508	71.9081	39.5508	71.8311	39.5508	71.8465	39.5508	71.7741	39.5508	71.7781	39.5508	71.7123	39.5508	71.7073	39.5508	71.6498	39.5508	71.6389	39.5508	71.591	39.5508	71.5778	39.5508	71.5408	39.5508	71.5286	39.5508	71.5033	39.5508	71.4949	39.5508	71.482	39.5508	71.479
41.0156	72.6991	41.0156	72.709	41.0156	72.6897	41.0156	72.7192	41.0156	72.681	41.0156	72.7295	41.0156	72.6729	41.0156	72.7392	41.0156	72.6653	41.0156	72.7471	41.0156	72.6575	41.0156	72.7513	41.0156	72.6481	41.0156	72.7495	41.0156	72.6353	41.0156	72.7394	41.0156	72.6172	41.0156	72.7189	41.0156	72.5924	41.0156	72.6876	41.0156	72.5605	41.0156	72.6459	41.0156	72.5223	41.0156	72.5962	41.0156	72.4802	41.0156	72.5417	41.0156	72.4374	41.0156	72.4866	41.0156	72.3978	41.0156	72.435	41.0156	72.3651	41.0156	72.391	41.0156	72.3428	41.0156	72.358	41.0156	72.3334	41.0156	72.3384
42.4805	73.0528	42.4805	73.0639	42.4805	73.0441	42.4805	73.0771	42.4805	73.0382	42.4805	73.0921	42.4805	73.0352	42.4805	73.1082	42.4805	73.035	42.4805	73.1241	42.4805	73.037	42.4805	73.1379	42.4805	73.0401	42.4805	73.1475	42.4805	73.0422	42.4805	73.1505	42.4805	73.0415	42.4805	73.1452	42.4805	73.036	42.4805	73.1308	42.4805	73.025	42.4805	73.108	42.4805	73.0086	42.4805	73.0784	42.4805	72.9882	42.4805	73.0446	42.4805	72.9658	42.4805	73.0095	42.4805	72.9442	42.4805	72.9764	42.4805	72.926	42.4805	72.9479	42.4805	72.9137	42.4805	72.9264	42.4805	72.909	42.4805	72.9132
43.9453	73.6816	43.9453	73.6968	43.9453	73.6686	43.9453	73.7136	43.9453	73.6582	43.9453	73.7318	43.9453	73.6509	43.9453	73.7507	43.9453	73.6471	43.9453	73.7693	43.9453	73.6463	43.9453	73.7859	43.9453	73.6478	43.9453	73.7984	43.9453	73.6496	43.9453	73.8044	43.9453	73.6499	43.9453	73.8021	43.9453	73.6469	43.9453	73.7906	43.9453	73.6395	43.9453	73.7701	43.9453	73.6277	43.9453	73.7422	43.9453	73.6125	43.9453	73.7092	43.9453	73.5957	43.9453	73.674	43.9453	73.5798	43.9453	73.6398	43.9453	73.567	43.9453	73.6093	43.9453	73.5598	43.9453	73.5849	43.9453	73.5599	43.9453	73.5682
45.4102	74.3957	45.4102	74.4081	45.4102	74.3845	45.4102	74.4216	45.4102	74.375	45.4102	74.4361	45.4102	74.3677	45.4102	74.4511	45.4102	74.3629	45.4102	74.4661	45.4102	74.3606	45.4102	74.4796	45.4102	74.36	45.4102	74.4899	45.4102	74.3598	45.4102	74.4949	45.4102	74.3586	45.4102	74.4929	45.4102	74.3548	45.4102	74.483	45.4102	74.3476	45.4102	74.4656	45.4102	74.3371	45.4102	74.4417	45.4102	74.3242	45.4102	74.4135	45.4102	74.3104	45.4102	74.3834	45.4102	74.2975	45.4102	74.354	45.4102	74.2877	45.4102	74.3276	45.4102	74.2825	45.4102	74.3064	45.4102	74.2835	45.4102	74.2914
46.875	75.0332	46.875	75.0405	46.875	75.0258	46.875	75.0478	46.875	75.0187	46.875	75.055	46.875	75.0125	46.875	75.0626	46.875	75.0078	46.875	75.0702	46.875	75.0049	46.875	75.0772	46.875	75.0033	46.875	75.0822	46.875	75.0022	46.875	75.0839	46.875	75.0004	46.875	75.0808	46.875	74.9966	46.875	75.0723	46.875	74.9899	46.875	75.0582	46.875	74.9804	46.875	75.0397	46.875	74.9687	46.875	75.0182	46.875	74.956	46.875	74.9956	46.875	74.9439	46.875	74.9739	46.875	74.934	46.875	74.9549	46.875	74.9277	46.875	74.94	46.875	74.9262	46.875	74.9303
48.3398	75.6184	48.3398	75.6252	48.3398	75.6101	48.3398	75.6303	48.3398	75.6007	48.3398	75.6344	48.3398	75.591	48.3398	75.6378	48.3398	75.582	48.3398	75.6407	48.3398	75.5744	48.3398	75.6429	48.3398	75.5686	48.3398	75.6435	48.3398	75.5642	48.3398	75.6414	48.3398	75.5603	48.3398	75.6356	48.3398	75.5559	48.3398	75.6256	48.3398	75.5503	48.3398	75.6117	48.3398	75.5431	48.3398	75.5946	48.3398	75.5346	48.3398	75.5757	48.3398	75.5254	48.3398	75.5565	48.3398	75.5165	48.3398	75.5386	48.3398	75.5089	48.3398	75.5234	48.3398	75.5038	48.3398	75.5119	48.3398	75.5022	48.3398	75.5048
51.2695	76.754	51.2695	76.7674	51.2695	76.7362	51.2695	76.7763	51.2695	76.7147	51.2695	76.7813	51.2695	76.6911	51.2695	76.7834	51.2695	76.6673	51.2695	76.7835	51.2695	76.645	51.2695	76.782	51.2695	76.6255	51.2695	76.7788	51.2695	76.6095	51.2695	76.7735	51.2695	76.5969	51.2695	76.7655	51.2695	76.5874	51.2695	76.7543	51.2695	76.5804	51.2695	76.7401	51.2695	76.5757	51.2695	76.7231	51.2695	76.5731	51.2695	76.7043	51.2695	76.5729	51.2695	76.6843	51.2695	76.575	51.2695	76.6641	51.2695	76.5798	51.2695	76.6447	51.2695	76.5873	51.2695	76.6267	51.2695	76.5977	51.2695	76.6109
52.7344	77.3546	52.7344	77.3645	52.7344	77.338	52.7344	77.368	52.7344	77.3157	52.7344	77.366	52.7344	77.2893	52.7344	77.3598	52.7344	77.261	52.7344	77.3509	52.7344	77.2329	52.7344	77.3405	52.7344	77.2068	52.7344	77.3291	52.7344	77.1836	52.7344	77.3168	52.7344	77.1639	52.7344	77.3032	52.7344	77.1475	52.7344	77.2883	52.7344	77.1343	52.7344	77.2719	52.7344	77.1245	52.7344	77.2543	52.7344	77.118	52.7344	77.236	52.7344	77.115	52.7344	77.2173	52.7344	77.1155	52.7344	77.1988	52.7344	77.1195	52.7344	77.181	52.7344	77.1267	52.7344	77.1645	52.7344	77.1368	52.7344	77.1496
54.1992	78.0883	54.1992	78.0909	54.1992	78.0771	54.1992	78.0853	54.1992	78.058	54.1992	78.0728	54.1992	78.0329	54.1992	78.0551	54.1992	78.004	54.1992	78.0344	54.1992	77.9738	54.1992	78.0124	54.1992	77.9441	54.1992	77.9904	54.1992	77.9166	54.1992	77.969	54.1992	77.8918	54.1992	77.9485	54.1992	77.8702	54.1992	77.9291	54.1992	77.8518	54.1992	77.9109	54.1992	77.8368	54.1992	77.8942	54.1992	77.8254	54.1992	77.879	54.1992	77.8176	54.1992	77.8653	54.1992	77.8133	54.1992	77.8532	54.1992	77.8124	54.1992	77.8424	54.1992	77.8143	54.1992	77.833	54.1992	77.8187	54.1992	77.825
55.6641	78.7552	55.6641	78.7534	55.6641	78.7463	55.6641	78.7413	55.6641	78.7273	55.6641	78.7206	55.6641	78.7	55.6641	78.6936	55.6641	78.667	55.6641	78.663	55.6641	78.6311	55.6641	78.631	55.6641	78.5947	55.6641	78.5992	55.6641	78.5598	55.6641	78.5687	55.6641	78.5274	55.6641	78.54	55.6641	78.498	55.6641	78.5132	55.6641	78.472	55.6641	78.4886	55.6641	78.4493	55.6641	78.4664	55.6641	78.4302	55.6641	78.4467	55.6641	78.4147	55.6641	78.4296	55.6641	78.4028	55.6641	78.4154	55.6641	78.3945	55.6641	78.404	55.6641	78.3897	55.6641	78.3956	55.6641	78.3883	55.6641	78.3903
58.5938	80.506	58.5938	80.5009	58.5938	80.496	58.5938	80.4815	58.5938	80.4718	58.5938	80.4502	58.5938	80.4359	58.5938	80.4105	58.5938	80.392	58.5938	80.3665	58.5938	80.3443	58.5938	80.3221	58.5938	80.2971	58.5938	80.2803	58.5938	80.2535	58.5938	80.2434	58.5938	80.2159	58.5938	80.2128	58.5938	80.1857	58.5938	80.1889	58.5938	80.1634	58.5938	80.1718	58.5938	80.1486	58.5938	80.161	58.5938	80.1406	58.5938	80.1552	58.5938	80.138	58.5938	80.153	58.5938	80.1392	58.5938	80.1528	58.5938	80.1424	58.5938	80.1533	58.5938	80.1463	58.5938	80.1532	58.5938	80.1498	58.5938	80.1521
60.0586	81.1374	60.0586	81.1286	60.0586	81.1293	60.0586	81.1037	60.0586	81.1052	60.0586	81.0656	60.0586	81.0676	60.0586	81.0182	60.0586	81.0205	60.0586	80.9661	60.0586	80.9686	60.0586	80.9138	60.0586	80.9164	60.0586	80.865	60.0586	80.8676	60.0586	80.8224	60.0586	80.8251	60.0586	80.7877	60.0586	80.7906	60.0586	80.7616	60.0586	80.7649	60.0586	80.744	60.0586	80.7477	60.0586	80.7343	60.0586	80.7383	60.0586	80.7308	60.0586	80.7351	60.0586	80.7319	60.0586	80.7359	60.0586	80.7354	60.0586	80.7389	60.0586	80.7395	60.0586	80.7421	60.0586	80.7428	60.0586	80.7442	60.0586	80.7445
62.9883	82.5532	62.9883	82.5426	62.9883	82.5425	62.9883	82.5118	62.9883	82.5115	62.9883	82.4641	62.9883	82.4633	62.9883	82.4045	62.9883	82.4027	62.9883	82.3385	62.9883	82.3356	62.9883	82.2721	62.9883	82.2677	62.9883	82.2102	62.9883	82.2042	62.9883	82.1568	62.9883	82.1491	62.9883	82.1144	62.9883	82.1052	62.9883	82.0842	62.9883	82.0739	62.9883	82.0662	62.9883	82.0551	62.9883	82.0589	62.9883	82.0476	62.9883	82.0601	62.9883	82.0493	62.9883	82.0666	62.9883	82.057	62.9883	82.0753	62.9883	82.0675	62.9883	82.0833	62.9883	82.0778	62.9883	82.0884	62.9883	82.0855	62.9883	82.0893
64.4531	83.2564	64.4531	83.243	64.4531	83.2463	64.4531	83.2075	64.4531	83.2139	64.4531	83.1534	64.4531	83.1627	64.4531	83.0862	64.4531	83.0978	64.4531	83.0122	64.4531	83.0258	64.4531	82.938	64.4531	82.9531	64.4531	82.8695	64.4531	82.8857	64.4531	82.8113	64.4531	82.8281	64.4531	82.7666	64.4531	82.7835	64.4531	82.7369	64.4531	82.7534	64.4531	82.722	64.4531	82.7376	64.4531	82.7204	64.4531	82.7346	64.4531	82.729	64.4531	82.7413	64.4531	82.7439	64.4531	82.7541	64.4531	82.761	64.4531	82.7688	64.4531	82.7766	64.4531	82.7818	64.4531	82.7876	64.4531	82.7903	64.4531	82.7924
67.3828	84.7899	67.3828	84.7701	67.3828	84.781	67.3828	84.7234	67.3828	84.7449	67.3828	84.6539	67.3828	84.6853	67.3828	84.568	67.3828	84.6082	67.3828	84.4734	67.3828	84.5213	67.3828	84.3782	67.3828	84.4323	67.3828	84.2898	67.3828	84.3485	67.3828	84.2144	67.3828	84.276	67.3828	84.1563	67.3828	84.2192	67.3828	84.118	67.3828	84.1804	67.3828	84.0996	67.3828	84.1598	67.3828	84.0993	67.3828	84.1554	67.3828	84.1133	67.3828	84.1636	67.3828	84.1365	67.3828	84.1792	67.3828	84.1632	67.3828	84.1968	67.3828	84.1884	67.3828	84.2116	67.3828	84.2077	67.3828	84.2196	67.3828	84.2185
