"SPL Vertical"
"On-Axis"		"10°"		"-10°"		"20°"		"-20°"		"30°"		"-30°"		"40°"		"-40°"		"50°"		"-50°"		"60°"		"-60°"		"70°"		"-70°"		"80°"		"-80°"		"90°"		"-90°"		"100°"		"-100°"		"110°"		"-110°"		"120°"		"-120°"		"130°"		"-130°"		"140°"		"-140°"		"150°"		"-150°"		"160°"		"-160°"		"170°"		"-170°"		"180°"
"Frequency / Hz"	"Sound Pressure Level / dB (re 20 µPa/V)  [2.83  V @ 1. m]"	"Frequency / Hz"	"Sound Pressure Level / dB (re 20 µPa/V)  [2.83  V @ 1. m]"	"Frequency / Hz"	"Sound Pressure Level / dB (re 20 µPa/V)  [2.83  V @ 1. m]"	"Frequency / Hz"	"Sound Pressure Level / dB (re 20 µPa/V)  [2.83  V @ 1. m]"	"Frequency / Hz"	"Sound Pressure Level / dB (re 20 µPa/V)  [2.83  V @ 1. m]"	"Frequency / Hz"	"Sound Pressure Level / dB (re 20 µPa/V)  [2.83  V @ 1. m]"	"Frequency / Hz"	"Sound Pressure Level / dB (re 20 µPa/V)  [2.83  V @ 1. m]"	"Frequency / Hz"	"Sound Pressure Level / dB (re 20 µPa/V)  [2.83  V @ 1. m]"	"Frequency / Hz"	"Sound Pressure Level / dB (re 20 µPa/V)  [2.83  V @ 1. m]"	"Frequency / Hz"	"Sound Pressure Level / dB (re 20 µPa/V)  [2.83  V @ 1. m]"	"Frequency / Hz"	"Sound Pressure Level / dB (re 20 µPa/V)  [2.83  V @ 1. m]"	"Frequency / Hz"	"Sound Pressure Level / dB (re 20 µPa/V)  [2.83  V @ 1. m]"	"Frequency / Hz"	"Sound Pressure Level / dB (re 20 µPa/V)  [2.83  V @ 1. m]"	"Frequency / Hz"	"Sound Pressure Level / dB (re 20 µPa/V)  [2.83  V @ 1. m]"	"Frequency / Hz"	"Sound Pressure Level / dB (re 20 µPa/V)  [2.83  V @ 1. m]"	"Frequency / Hz"	"Sound Pressure Level / dB (re 20 µPa/V)  [2.83  V @ 1. m]"	"Frequency / Hz"	"Sound Pressure Level / dB (re 20 µPa/V)  [2.83  V @ 1. m]"	"Frequency / Hz"	"Sound Pressure Level / dB (re 20 µPa/V)  [2.83  V @ 1. m]"	"Frequency / Hz"	"Sound Pressure Level / dB (re 20 µPa/V)  [2.83  V @ 1. m]"	"Frequency / Hz"	"Sound Pressure Level / dB (re 20 µPa/V)  [2.83  V @ 1. m]"	"Frequency / Hz"	"Sound Pressure Level / dB (re 20 µPa/V)  [2.83  V @ 1. m]"	"Frequency / Hz"	"Sound Pressure Level / dB (re 20 µPa/V)  [2.83  V @ 1. m]"	"Frequency / Hz"	"Sound Pressure Level / dB (re 20 µPa/V)  [2.83  V @ 1. m]"	"Frequency / Hz"	"Sound Pressure Level / dB (re 20 µPa/V)  [2.83  V @ 1. m]"	"Frequency / Hz"	"Sound Pressure Level / dB (re 20 µPa/V)  [2.83  V @ 1. m]"	"Frequency / Hz"	"Sound Pressure Level / dB (re 20 µPa/V)  [2.83  V @ 1. m]"	"Frequency / Hz"	"Sound Pressure Level / dB (re 20 µPa/V)  [2.83  V @ 1. m]"	"Frequency / Hz"	"Sound Pressure Level / dB (re 20 µPa/V)  [2.83  V @ 1. m]"	"Frequency / Hz"	"Sound Pressure Level / dB (re 20 µPa/V)  [2.83  V @ 1. m]"	"Frequency / Hz"	"Sound Pressure Level / dB (re 20 µPa/V)  [2.83  V @ 1. m]"	"Frequency / Hz"	"Sound Pressure Level / dB (re 20 µPa/V)  [2.83  V @ 1. m]"	"Frequency / Hz"	"Sound Pressure Level / dB (re 20 µPa/V)  [2.83  V @ 1. m]"	"Frequency / Hz"	"Sound Pressure Level / dB (re 20 µPa/V)  [2.83  V @ 1. m]"	"Frequency / Hz"	"Sound Pressure Level / dB (re 20 µPa/V)  [2.83  V @ 1. m]"	"Frequency / Hz"	"Sound Pressure Level / dB (re 20 µPa/V)  [2.83  V @ 1. m]"	"Frequency / Hz"	"Sound Pressure Level / dB (re 20 µPa/V)  [2.83  V @ 1. m]"
20.5078	63.3146	20.5078	63.2968	20.5078	63.3312	20.5078	63.2779	20.5078	63.3466	20.5078	63.2576	20.5078	63.3602	20.5078	63.2358	20.5078	63.3715	20.5078	63.2125	20.5078	63.3796	20.5078	63.1879	20.5078	63.3838	20.5078	63.1626	20.5078	63.3833	20.5078	63.1376	20.5078	63.3774	20.5078	63.1142	20.5078	63.366	20.5078	63.0936	20.5078	63.3489	20.5078	63.0772	20.5078	63.3267	20.5078	63.0662	20.5078	63.3001	20.5078	63.0611	20.5078	63.2702	20.5078	63.0621	20.5078	63.2383	20.5078	63.069	20.5078	63.2061	20.5078	63.0813	20.5078	63.1749	20.5078	63.0986	20.5078	63.146	20.5078	63.1203
21.9727	61.4638	21.9727	61.4016	21.9727	61.5053	21.9727	61.3189	21.9727	61.5262	21.9727	61.2163	21.9727	61.5266	21.9727	61.0946	21.9727	61.5066	21.9727	60.956	21.9727	61.4665	21.9727	60.8034	21.9727	61.4066	21.9727	60.6411	21.9727	61.3278	21.9727	60.4747	21.9727	61.2309	21.9727	60.3107	21.9727	61.1175	21.9727	60.1566	21.9727	60.9897	21.9727	60.02	21.9727	60.8501	21.9727	59.9075	21.9727	60.7022	21.9727	59.8248	21.9727	60.5501	21.9727	59.7749	21.9727	60.3986	21.9727	59.759	21.9727	60.2528	21.9727	59.7761	21.9727	60.1177	21.9727	59.8238	21.9727	59.9984	21.9727	59.8991
23.4375	64.4758	23.4375	64.4368	23.4375	64.4989	23.4375	64.382	23.4375	64.5063	23.4375	64.3115	23.4375	64.4979	23.4375	64.226	23.4375	64.4741	23.4375	64.1265	23.4375	64.4349	23.4375	64.0146	23.4375	64.3807	23.4375	63.8928	23.4375	64.3119	23.4375	63.7641	23.4375	64.2292	23.4375	63.6326	23.4375	64.1335	23.4375	63.5027	23.4375	64.0262	23.4375	63.3798	23.4375	63.9091	23.4375	63.2693	23.4375	63.7846	23.4375	63.1768	23.4375	63.6561	23.4375	63.1074	23.4375	63.5276	23.4375	63.0652	23.4375	63.404	23.4375	63.053	23.4375	63.291	23.4375	63.0715	23.4375	63.1943	23.4375	63.1196
24.9023	65.4354	24.9023	65.3898	24.9023	65.4641	24.9023	65.3278	24.9023	65.4759	24.9023	65.2499	24.9023	65.4708	24.9023	65.157	24.9023	65.4488	24.9023	65.0506	24.9023	65.4103	24.9023	64.9325	24.9023	65.3558	24.9023	64.8054	24.9023	65.2858	24.9023	64.6724	24.9023	65.201	24.9023	64.5375	24.9023	65.1027	24.9023	64.4053	24.9023	64.9922	24.9023	64.281	24.9023	64.8715	24.9023	64.1703	24.9023	64.743	24.9023	64.0788	24.9023	64.61	24.9023	64.0117	24.9023	64.4766	24.9023	63.9731	24.9023	64.3476	24.9023	63.9657	24.9023	64.2286	24.9023	63.99	24.9023	64.1257	24.9023	64.0445
26.3672	66.1195	26.3672	66.0682	26.3672	66.1551	26.3672	66.0017	26.3672	66.175	26.3672	65.9202	26.3672	66.1787	26.3672	65.8245	26.3672	66.1661	26.3672	65.7157	26.3672	66.1369	26.3672	65.5953	26.3672	66.0911	26.3672	65.4657	26.3672	66.0288	26.3672	65.33	26.3672	65.9503	26.3672	65.1922	26.3672	65.8563	26.3672	65.0574	26.3672	65.7479	26.3672	64.9312	26.3672	65.6267	26.3672	64.8197	26.3672	65.4951	26.3672	64.7292	26.3672	65.3563	26.3672	64.6652	26.3672	65.2145	26.3672	64.6323	26.3672	65.0751	26.3672	64.633	26.3672	64.944	26.3672	64.6676	26.3672	64.8282	26.3672	64.7341
27.832	67.4127	27.832	67.3603	27.832	67.4465	27.832	67.2896	27.832	67.4618	27.832	67.201	27.832	67.4586	27.832	67.0953	27.832	67.4371	27.832	66.974	27.832	67.3976	27.832	66.8392	27.832	67.3403	27.832	66.6938	27.832	67.2658	27.832	66.5415	27.832	67.1748	27.832	66.3871	27.832	67.068	27.832	66.2361	27.832	66.9469	27.832	66.0948	27.832	66.8134	27.832	65.9698	27.832	66.6698	27.832	65.868	27.832	66.5196	27.832	65.7953	27.832	66.3672	27.832	65.7563	27.832	66.2181	27.832	65.7539	27.832	66.0787	27.832	65.7883	27.832	65.956	27.832	65.8572
29.2969	67.8166	29.2969	67.7516	29.2969	67.8624	29.2969	67.6677	29.2969	67.8889	29.2969	67.5658	29.2969	67.8959	29.2969	67.4469	29.2969	67.8836	29.2969	67.3131	29.2969	67.8521	29.2969	67.1669	29.2969	67.8017	29.2969	67.0116	29.2969	67.7327	29.2969	66.8517	29.2969	67.6455	29.2969	66.6923	29.2969	67.5411	29.2969	66.5394	29.2969	67.4205	29.2969	66.3998	29.2969	67.2854	29.2969	66.2803	29.2969	67.1381	29.2969	66.1874	29.2969	66.982	29.2969	66.1269	29.2969	66.8212	29.2969	66.1029	29.2969	66.6613	29.2969	66.1172	29.2969	66.5089	29.2969	66.1692	29.2969	66.3712	29.2969	66.2557
30.7617	68.6161	30.7617	68.5486	30.7617	68.6645	30.7617	68.4622	30.7617	68.6934	30.7617	68.3576	30.7617	68.7028	30.7617	68.236	30.7617	68.6926	30.7617	68.0992	30.7617	68.663	30.7617	67.9496	30.7617	68.6141	30.7617	67.7907	30.7617	68.5461	30.7617	67.6268	30.7617	68.4595	30.7617	67.4634	30.7617	68.3552	30.7617	67.3066	30.7617	68.2341	30.7617	67.1635	30.7617	68.0979	30.7617	67.0412	30.7617	67.9487	30.7617	66.9468	30.7617	67.7896	30.7617	66.8864	30.7617	67.6248	30.7617	66.8644	30.7617	67.4596	30.7617	66.8825	30.7617	67.3008	30.7617	66.9401	30.7617	67.156	30.7617	67.0332
32.2266	69.322	32.2266	69.2558	32.2266	69.3687	32.2266	69.1705	32.2266	69.3957	32.2266	69.0667	32.2266	69.4029	32.2266	68.9456	32.2266	69.3903	32.2266	68.8088	32.2266	69.3579	32.2266	68.6589	32.2266	69.3057	32.2266	68.499	32.2266	69.2338	32.2266	68.3333	32.2266	69.1426	32.2266	68.167	32.2266	69.0328	32.2266	68.0061	32.2266	68.9053	32.2266	67.8572	32.2266	68.7617	32.2266	67.7275	32.2266	68.6046	32.2266	67.6242	32.2266	68.4374	32.2266	67.5535	32.2266	68.265	32.2266	67.5207	32.2266	68.0937	32.2266	67.5287	32.2266	67.931	32.2266	67.5777	32.2266	67.7853	32.2266	67.6651
33.6914	69.8733	33.6914	69.8048	33.6914	69.9225	33.6914	69.7177	33.6914	69.9521	33.6914	69.6127	33.6914	69.9621	33.6914	69.4913	33.6914	69.9523	33.6914	69.3555	33.6914	69.9227	33.6914	69.2079	33.6914	69.8735	33.6914	69.0522	33.6914	69.8046	33.6914	68.8924	33.6914	69.7166	33.6914	68.7335	33.6914	69.6099	33.6914	68.5812	33.6914	69.4855	33.6914	68.4415	33.6914	69.3452	33.6914	68.3207	33.6914	69.1913	33.6914	68.2251	33.6914	69.0274	33.6914	68.1602	33.6914	68.8585	33.6914	68.1309	33.6914	68.6907	33.6914	68.1399	33.6914	68.5317	33.6914	68.188	33.6914	68.3897	33.6914	68.2728
35.1562	70.4438	35.1562	70.3827	35.1562	70.4876	35.1562	70.305	35.1562	70.5134	35.1562	70.2118	35.1562	70.5209	35.1562	70.1046	35.1562	70.5099	35.1562	69.9853	35.1562	70.4802	35.1562	69.8565	35.1562	70.4319	35.1562	69.7211	35.1562	70.3649	35.1562	69.5825	35.1562	70.2798	35.1562	69.4447	35.1562	70.1773	35.1562	69.3119	35.1562	70.0585	35.1562	69.1886	35.1562	69.9254	35.1562	69.0796	35.1562	69.7808	35.1562	68.9898	35.1562	69.6287	35.1562	68.924	35.1562	69.4743	35.1562	68.8866	35.1562	69.324	35.1562	68.8812	35.1562	69.1853	35.1562	68.9098	35.1562	69.0658	35.1562	68.9723
36.6211	71.1983	36.6211	71.156	36.6211	71.227	36.6211	71.101	36.6211	71.2414	36.6211	71.0345	36.6211	71.2408	36.6211	70.9576	36.6211	71.2249	36.6211	70.8718	36.6211	71.1934	36.6211	70.7788	36.6211	71.1462	36.6211	70.6802	36.6211	71.0834	36.6211	70.5781	36.6211	71.0056	36.6211	70.4746	36.6211	70.9136	36.6211	70.372	36.6211	70.8089	36.6211	70.273	36.6211	70.6936	36.6211	70.1803	36.6211	70.5709	36.6211	70.0976	36.6211	70.445	36.6211	70.0285	36.6211	70.3212	36.6211	69.9775	36.6211	70.2057	36.6211	69.9488	36.6211	70.1052	36.6211	69.9462	36.6211	70.0257	36.6211	69.9719
38.0859	71.5609	38.0859	71.5385	38.0859	71.5742	38.0859	71.5078	38.0859	71.578	38.0859	71.4695	38.0859	71.5716	38.0859	71.4245	38.0859	71.5547	38.0859	71.3738	38.0859	71.5271	38.0859	71.3182	38.0859	71.4888	38.0859	71.2586	38.0859	71.4399	38.0859	71.1959	38.0859	71.3808	38.0859	71.131	38.0859	71.3122	38.0859	71.0648	38.0859	71.2355	38.0859	70.9982	38.0859	71.1527	38.0859	70.9326	38.0859	71.0664	38.0859	70.8698	38.0859	70.9801	38.0859	70.8125	38.0859	70.8983	38.0859	70.7637	38.0859	70.8258	38.0859	70.7274	38.0859	70.7673	38.0859	70.7074	38.0859	70.7267	38.0859	70.7066
39.5508	72.0524	39.5508	72.055	39.5508	72.0449	39.5508	72.0526	39.5508	72.0321	39.5508	72.0453	39.5508	72.0141	39.5508	72.0333	39.5508	71.9907	39.5508	72.0164	39.5508	71.9619	39.5508	71.9948	39.5508	71.9275	39.5508	71.9683	39.5508	71.8877	39.5508	71.9367	39.5508	71.8428	39.5508	71.9	39.5508	71.7932	39.5508	71.858	39.5508	71.7402	39.5508	71.8109	39.5508	71.6851	39.5508	71.7592	39.5508	71.6301	39.5508	71.7043	39.5508	71.5782	39.5508	71.648	39.5508	71.5327	39.5508	71.5935	39.5508	71.4972	39.5508	71.5446	39.5508	71.475	39.5508	71.5052	39.5508	71.4687	39.5508	71.479
41.0156	72.6991	41.0156	72.7187	41.0156	72.677	41.0156	72.7354	41.0156	72.6527	41.0156	72.7487	41.0156	72.6264	41.0156	72.7583	41.0156	72.5984	41.0156	72.7636	41.0156	72.5689	41.0156	72.7641	41.0156	72.5381	41.0156	72.7589	41.0156	72.5061	41.0156	72.7475	41.0156	72.4731	41.0156	72.7291	41.0156	72.4397	41.0156	72.7034	41.0156	72.4064	41.0156	72.67	41.0156	72.3742	41.0156	72.6293	41.0156	72.3447	41.0156	72.5822	41.0156	72.3198	41.0156	72.5305	41.0156	72.3018	41.0156	72.4768	41.0156	72.2931	41.0156	72.4245	41.0156	72.2957	41.0156	72.3772	41.0156	72.3108	41.0156	72.3384
42.4805	73.0528	42.4805	73.0824	42.4805	73.0236	42.4805	73.1117	42.4805	72.9953	42.4805	73.1399	42.4805	72.9683	42.4805	73.166	42.4805	72.9429	42.4805	73.189	42.4805	72.9193	42.4805	73.2078	42.4805	72.8976	42.4805	73.2213	42.4805	72.8778	42.4805	73.2283	42.4805	72.86	42.4805	73.2279	42.4805	72.8444	42.4805	73.2191	42.4805	72.8311	42.4805	73.2016	42.4805	72.8207	42.4805	73.1752	42.4805	72.8139	42.4805	73.1406	42.4805	72.812	42.4805	73.099	42.4805	72.8161	42.4805	73.0526	42.4805	72.8276	42.4805	73.0041	42.4805	72.8476	42.4805	72.9566	42.4805	72.8763	42.4805	72.9132
43.9453	73.6816	43.9453	73.7206	43.9453	73.6435	43.9453	73.7592	43.9453	73.6071	43.9453	73.7964	43.9453	73.5732	43.9453	73.8309	43.9453	73.5424	43.9453	73.8613	43.9453	73.5149	43.9453	73.8861	43.9453	73.4912	43.9453	73.9041	43.9453	73.4712	43.9453	73.914	43.9453	73.455	43.9453	73.9148	43.9453	73.4427	43.9453	73.9057	43.9453	73.4342	43.9453	73.8864	43.9453	73.4297	43.9453	73.8571	43.9453	73.4298	43.9453	73.8188	43.9453	73.435	43.9453	73.773	43.9453	73.4464	43.9453	73.7221	43.9453	73.4649	43.9453	73.6689	43.9453	73.4913	43.9453	73.6166	43.9453	73.5259	43.9453	73.5682
45.4102	74.3957	45.4102	74.4373	45.4102	74.3547	45.4102	74.4784	45.4102	74.3156	45.4102	74.5175	45.4102	74.2791	45.4102	74.5532	45.4102	74.2462	45.4102	74.5842	45.4102	74.2174	45.4102	74.609	45.4102	74.1932	45.4102	74.6264	45.4102	74.1736	45.4102	74.6352	45.4102	74.1588	45.4102	74.6346	45.4102	74.1486	45.4102	74.6241	45.4102	74.143	45.4102	74.6036	45.4102	74.1419	45.4102	74.5735	45.4102	74.1455	45.4102	74.535	45.4102	74.154	45.4102	74.4897	45.4102	74.1682	45.4102	74.44	45.4102	74.1886	45.4102	74.3886	45.4102	74.2159	45.4102	74.3382	45.4102	74.2503	45.4102	74.2914
46.875	75.0332	46.875	75.0765	46.875	74.9902	46.875	75.1188	46.875	74.9488	46.875	75.1587	46.875	74.91	46.875	75.1948	46.875	74.8748	46.875	75.2257	46.875	74.8441	46.875	75.2501	46.875	74.8183	46.875	75.2668	46.875	74.7978	46.875	75.2748	46.875	74.7828	46.875	75.2733	46.875	74.773	46.875	75.262	46.875	74.7685	46.875	75.2409	46.875	74.7691	46.875	75.2105	46.875	74.7747	46.875	75.1719	46.875	74.7856	46.875	75.127	46.875	74.802	46.875	75.0778	46.875	74.8244	46.875	75.0269	46.875	74.8532	46.875	74.977	46.875	74.8887	46.875	74.9303
48.3398	75.6184	48.3398	75.6583	48.3398	75.5784	48.3398	75.6966	48.3398	75.5394	48.3398	75.7319	48.3398	75.5028	48.3398	75.7631	48.3398	75.4696	48.3398	75.7888	48.3398	75.4406	48.3398	75.808	48.3398	75.4165	48.3398	75.8196	48.3398	75.3977	48.3398	75.823	48.3398	75.3843	48.3398	75.8177	48.3398	75.376	48.3398	75.8036	48.3398	75.3726	48.3398	75.781	48.3398	75.3737	48.3398	75.7507	48.3398	75.379	48.3398	75.7141	48.3398	75.3883	48.3398	75.6729	48.3398	75.4019	48.3398	75.6292	48.3398	75.4199	48.3398	75.5853	48.3398	75.4429	48.3398	75.5432	48.3398	75.4712	48.3398	75.5048
51.2695	76.754	51.2695	76.7922	51.2695	76.7151	51.2695	76.8282	51.2695	76.677	51.2695	76.8607	51.2695	76.641	51.2695	76.8882	51.2695	76.6084	51.2695	76.9095	51.2695	76.5801	51.2695	76.9236	51.2695	76.5567	51.2695	76.9297	51.2695	76.5387	51.2695	76.9273	51.2695	76.526	51.2695	76.9162	51.2695	76.5185	51.2695	76.8967	51.2695	76.5154	51.2695	76.8695	51.2695	76.5163	51.2695	76.8359	51.2695	76.5204	51.2695	76.7977	51.2695	76.5273	51.2695	76.7569	51.2695	76.5368	51.2695	76.716	51.2695	76.5493	51.2695	76.6769	51.2695	76.5653	51.2695	76.6415	51.2695	76.5856	51.2695	76.6109
52.7344	77.3546	52.7344	77.3997	52.7344	77.3076	52.7344	77.4413	52.7344	77.2607	52.7344	77.4778	52.7344	77.2155	52.7344	77.5077	52.7344	77.1735	52.7344	77.5298	52.7344	77.1361	52.7344	77.543	52.7344	77.1042	52.7344	77.5466	52.7344	77.0786	52.7344	77.5402	52.7344	77.0594	52.7344	77.5238	52.7344	77.0465	52.7344	77.4979	52.7344	77.0395	52.7344	77.4635	52.7344	77.0377	52.7344	77.422	52.7344	77.0405	52.7344	77.3755	52.7344	77.0475	52.7344	77.3263	52.7344	77.0584	52.7344	77.2769	52.7344	77.0734	52.7344	77.2298	52.7344	77.0932	52.7344	77.1869	52.7344	77.1183	52.7344	77.1496
54.1992	78.0883	54.1992	78.131	54.1992	78.0427	54.1992	78.1692	54.1992	77.9958	54.1992	78.2016	54.1992	77.9492	54.1992	78.2269	54.1992	77.9045	54.1992	78.2439	54.1992	77.8631	54.1992	78.2519	54.1992	77.8262	54.1992	78.2502	54.1992	77.7947	54.1992	78.2386	54.1992	77.7693	54.1992	78.2172	54.1992	77.75	54.1992	78.1868	54.1992	77.7368	54.1992	78.1483	54.1992	77.7294	54.1992	78.1036	54.1992	77.7274	54.1992	78.0546	54.1992	77.7304	54.1992	78.0036	54.1992	77.7383	54.1992	77.9531	54.1992	77.7513	54.1992	77.9054	54.1992	77.7697	54.1992	77.8623	54.1992	77.7942	54.1992	77.825
55.6641	78.7552	55.6641	78.7935	55.6641	78.7133	55.6641	78.8267	55.6641	78.6692	55.6641	78.8532	55.6641	78.6246	55.6641	78.8719	55.6641	78.5809	55.6641	78.8815	55.6641	78.5392	55.6641	78.8813	55.6641	78.5008	55.6641	78.8707	55.6641	78.4662	55.6641	78.8496	55.6641	78.436	55.6641	78.8184	55.6641	78.4104	55.6641	78.778	55.6641	78.3892	55.6641	78.73	55.6641	78.3722	55.6641	78.6764	55.6641	78.3594	55.6641	78.62	55.6641	78.3506	55.6641	78.5636	55.6641	78.3461	55.6641	78.5101	55.6641	78.3468	55.6641	78.4622	55.6641	78.3536	55.6641	78.4219	55.6641	78.3678	55.6641	78.3903
58.5938	80.506	58.5938	80.5311	58.5938	80.4766	58.5938	80.5506	58.5938	80.4442	58.5938	80.5635	58.5938	80.4103	58.5938	80.5688	58.5938	80.3762	58.5938	80.5659	58.5938	80.3431	58.5938	80.5546	58.5938	80.312	58.5938	80.5349	58.5938	80.2836	58.5938	80.5072	58.5938	80.2583	58.5938	80.4725	58.5938	80.2361	58.5938	80.4319	58.5938	80.2169	58.5938	80.3874	58.5938	80.2003	58.5938	80.3411	58.5938	80.1857	58.5938	80.2955	58.5938	80.1729	58.5938	80.2531	58.5938	80.1618	58.5938	80.2162	58.5938	80.153	58.5938	80.1865	58.5938	80.1475	58.5938	80.1652	58.5938	80.1467	58.5938	80.1521
60.0586	81.1374	60.0586	81.1592	60.0586	81.1107	60.0586	81.1749	60.0586	81.0804	60.0586	81.1834	60.0586	81.0478	60.0586	81.1842	60.0586	81.0143	60.0586	81.1765	60.0586	80.981	60.0586	81.1603	60.0586	80.949	60.0586	81.1357	60.0586	80.919	60.0586	81.1032	60.0586	80.8916	60.0586	81.064	60.0586	80.8668	60.0586	81.0196	60.0586	80.8445	60.0586	80.9719	60.0586	80.8243	60.0586	80.9233	60.0586	80.8058	60.0586	80.8765	60.0586	80.7888	60.0586	80.8341	60.0586	80.7733	60.0586	80.7985	60.0586	80.7598	60.0586	80.7713	60.0586	80.7494	60.0586	80.7534	60.0586	80.7437	60.0586	80.7445
62.9883	82.5532	62.9883	82.568	62.9883	82.5321	62.9883	82.5754	62.9883	82.5059	62.9883	82.5745	62.9883	82.4761	62.9883	82.5647	62.9883	82.4439	62.9883	82.546	62.9883	82.4107	62.9883	82.5184	62.9883	82.3776	62.9883	82.4826	62.9883	82.3454	62.9883	82.4397	62.9883	82.3148	62.9883	82.3912	62.9883	82.2858	62.9883	82.3391	62.9883	82.2585	62.9883	82.2859	62.9883	82.2323	62.9883	82.2343	62.9883	82.2071	62.9883	82.1873	62.9883	82.1824	62.9883	82.1474	62.9883	82.1584	62.9883	82.1168	62.9883	82.1355	62.9883	82.097	62.9883	82.1152	62.9883	82.0881	62.9883	82.099	62.9883	82.0893
64.4531	83.2564	64.4531	83.2663	64.4531	83.2398	64.4531	83.2684	64.4531	83.2176	64.4531	83.2621	64.4531	83.1913	64.4531	83.2469	64.4531	83.1621	64.4531	83.2229	64.4531	83.1315	64.4531	83.1904	64.4531	83.1006	64.4531	83.1504	64.4531	83.0702	64.4531	83.1042	64.4531	83.0409	64.4531	83.0536	64.4531	83.0128	64.4531	83.0009	64.4531	82.9859	64.4531	82.9485	64.4531	82.9597	64.4531	82.8995	64.4531	82.9338	64.4531	82.8565	64.4531	82.9077	64.4531	82.8221	64.4531	82.8813	64.4531	82.7982	64.4531	82.8551	64.4531	82.7855	64.4531	82.8302	64.4531	82.784	64.4531	82.8086	64.4531	82.7924
67.3828	84.7899	67.3828	84.7916	67.3828	84.7795	67.3828	84.7837	67.3828	84.7618	67.3828	84.7657	67.3828	84.7381	67.3828	84.7373	67.3828	84.71	67.3828	84.6988	67.3828	84.6787	67.3828	84.651	67.3828	84.6456	67.3828	84.5953	67.3828	84.6117	67.3828	84.5338	67.3828	84.5776	67.3828	84.4688	67.3828	84.5436	67.3828	84.4035	67.3828	84.5096	67.3828	84.3413	67.3828	84.4752	67.3828	84.2858	67.3828	84.4397	67.3828	84.2403	67.3828	84.4028	67.3828	84.2075	67.3828	84.3644	67.3828	84.1892	67.3828	84.325	67.3828	84.1858	67.3828	84.2859	67.3828	84.1963	67.3828	84.2494	67.3828	84.2185
