"SPL Vertical"
"On-Axis"		"10°"		"-10°"		"20°"		"-20°"		"30°"		"-30°"		"40°"		"-40°"		"50°"		"-50°"		"60°"		"-60°"		"70°"		"-70°"		"80°"		"-80°"		"90°"		"-90°"		"100°"		"-100°"		"110°"		"-110°"		"120°"		"-120°"		"130°"		"-130°"		"140°"		"-140°"		"150°"		"-150°"		"160°"		"-160°"		"170°"		"-170°"		"180°"
"Frequency [Hz]"	"Sound Pessure Level [dB]  / [2.83V 1m] "	"Frequency [Hz]"	"Sound Pessure Level [dB]  / [2.83V 1m] "	"Frequency [Hz]"	"Sound Pessure Level [dB]  / [2.83V 1m] "	"Frequency [Hz]"	"Sound Pessure Level [dB]  / [2.83V 1m] "	"Frequency [Hz]"	"Sound Pessure Level [dB]  / [2.83V 1m] "	"Frequency [Hz]"	"Sound Pessure Level [dB]  / [2.83V 1m] "	"Frequency [Hz]"	"Sound Pessure Level [dB]  / [2.83V 1m] "	"Frequency [Hz]"	"Sound Pessure Level [dB]  / [2.83V 1m] "	"Frequency [Hz]"	"Sound Pessure Level [dB]  / [2.83V 1m] "	"Frequency [Hz]"	"Sound Pessure Level [dB]  / [2.83V 1m] "	"Frequency [Hz]"	"Sound Pessure Level [dB]  / [2.83V 1m] "	"Frequency [Hz]"	"Sound Pessure Level [dB]  / [2.83V 1m] "	"Frequency [Hz]"	"Sound Pessure Level [dB]  / [2.83V 1m] "	"Frequency [Hz]"	"Sound Pessure Level [dB]  / [2.83V 1m] "	"Frequency [Hz]"	"Sound Pessure Level [dB]  / [2.83V 1m] "	"Frequency [Hz]"	"Sound Pessure Level [dB]  / [2.83V 1m] "	"Frequency [Hz]"	"Sound Pessure Level [dB]  / [2.83V 1m] "	"Frequency [Hz]"	"Sound Pessure Level [dB]  / [2.83V 1m] "	"Frequency [Hz]"	"Sound Pessure Level [dB]  / [2.83V 1m] "	"Frequency [Hz]"	"Sound Pessure Level [dB]  / [2.83V 1m] "	"Frequency [Hz]"	"Sound Pessure Level [dB]  / [2.83V 1m] "	"Frequency [Hz]"	"Sound Pessure Level [dB]  / [2.83V 1m] "	"Frequency [Hz]"	"Sound Pessure Level [dB]  / [2.83V 1m] "	"Frequency [Hz]"	"Sound Pessure Level [dB]  / [2.83V 1m] "	"Frequency [Hz]"	"Sound Pessure Level [dB]  / [2.83V 1m] "	"Frequency [Hz]"	"Sound Pessure Level [dB]  / [2.83V 1m] "	"Frequency [Hz]"	"Sound Pessure Level [dB]  / [2.83V 1m] "	"Frequency [Hz]"	"Sound Pessure Level [dB]  / [2.83V 1m] "	"Frequency [Hz]"	"Sound Pessure Level [dB]  / [2.83V 1m] "	"Frequency [Hz]"	"Sound Pessure Level [dB]  / [2.83V 1m] "	"Frequency [Hz]"	"Sound Pessure Level [dB]  / [2.83V 1m] "	"Frequency [Hz]"	"Sound Pessure Level [dB]  / [2.83V 1m] "	"Frequency [Hz]"	"Sound Pessure Level [dB]  / [2.83V 1m] "	"Frequency [Hz]"	"Sound Pessure Level [dB]  / [2.83V 1m] "	"Frequency [Hz]"	"Sound Pessure Level [dB]  / [2.83V 1m] "	"Frequency [Hz]"	"Sound Pessure Level [dB]  / [2.83V 1m] "
20.5078	56.8705	20.5078	56.7494	20.5078	56.9858	20.5078	56.6264	20.5078	57.0913	20.5078	56.5058	20.5078	57.1834	20.5078	56.3916	20.5078	57.2588	20.5078	56.2878	20.5078	57.3148	20.5078	56.1977	20.5078	57.3495	20.5078	56.1245	20.5078	57.362	20.5078	56.0706	20.5078	57.3529	20.5078	56.038	20.5078	57.324	20.5078	56.0276	20.5078	57.2781	20.5078	56.0398	20.5078	57.2187	20.5078	56.074	20.5078	57.149	20.5078	56.1286	20.5078	57.0714	20.5078	56.2011	20.5078	56.9873	20.5078	56.2882	20.5078	56.8973	20.5078	56.3859	20.5078	56.8016	20.5078	56.4899	20.5078	56.7007	20.5078	56.596
21.9727	58.717	21.9727	58.5842	21.9727	58.8405	21.9727	58.447	21.9727	58.95	21.9727	58.3095	21.9727	59.0408	21.9727	58.1758	21.9727	59.1083	21.9727	58.0492	21.9727	59.149	21.9727	57.9327	21.9727	59.1601	21.9727	57.8288	21.9727	59.1403	21.9727	57.7396	21.9727	59.0898	21.9727	57.6668	21.9727	59.0107	21.9727	57.6116	21.9727	58.9064	21.9727	57.5749	21.9727	58.782	21.9727	57.5572	21.9727	58.6436	21.9727	57.5587	21.9727	58.4977	21.9727	57.5793	21.9727	58.3504	21.9727	57.6186	21.9727	58.2074	21.9727	57.6762	21.9727	58.0732	21.9727	57.7513	21.9727	57.9511	21.9727	57.8433
23.4375	59.5829	23.4375	59.4671	23.4375	59.6895	23.4375	59.3458	23.4375	59.7829	23.4375	59.2229	23.4375	59.8595	23.4375	59.1018	23.4375	59.9157	23.4375	58.9858	23.4375	59.9486	23.4375	58.8778	23.4375	59.9562	23.4375	58.7802	23.4375	59.9372	23.4375	58.6953	23.4375	59.8921	23.4375	58.625	23.4375	59.8224	23.4375	58.5706	23.4375	59.7313	23.4375	58.5336	23.4375	59.6228	23.4375	58.5145	23.4375	59.5019	23.4375	58.5139	23.4375	59.3737	23.4375	58.5318	23.4375	59.2432	23.4375	58.5681	23.4375	59.115	23.4375	58.6222	23.4375	58.993	23.4375	58.6931	23.4375	58.8803	23.4375	58.7797
24.9023	60.4099	24.9023	60.29	24.9023	60.5185	24.9023	60.163	24.9023	60.6116	24.9023	60.033	24.9023	60.6853	24.9023	59.9039	24.9023	60.7361	24.9023	59.779	24.9023	60.7611	24.9023	59.6615	24.9023	60.7584	24.9023	59.5539	24.9023	60.7272	24.9023	59.4587	24.9023	60.6681	24.9023	59.3777	24.9023	60.583	24.9023	59.3125	24.9023	60.4753	24.9023	59.2643	24.9023	60.35	24.9023	59.2342	24.9023	60.2127	24.9023	59.2227	24.9023	60.0695	24.9023	59.2301	24.9023	59.9266	24.9023	59.2567	24.9023	59.7892	24.9023	59.3021	24.9023	59.6616	24.9023	59.3662	24.9023	59.5471	24.9023	59.4482
26.3672	60.8139	26.3672	60.7005	26.3672	60.9245	26.3672	60.5871	26.3672	61.029	26.3672	60.4763	26.3672	61.1238	26.3672	60.3706	26.3672	61.2049	26.3672	60.2721	26.3672	61.2681	26.3672	60.1829	26.3672	61.3095	26.3672	60.105	26.3672	61.326	26.3672	60.0401	26.3672	61.3156	26.3672	59.9898	26.3672	61.2781	26.3672	59.9553	26.3672	61.215	26.3672	59.9378	26.3672	61.1294	26.3672	59.9378	26.3672	61.0257	26.3672	59.9557	26.3672	60.909	26.3672	59.9915	26.3672	60.7845	26.3672	60.045	26.3672	60.6571	26.3672	60.1151	26.3672	60.5314	26.3672	60.2008	26.3672	60.4114	26.3672	60.3003
27.832	62.4352	27.832	62.3265	27.832	62.5392	27.832	62.2167	27.832	62.6351	27.832	62.1091	27.832	62.7189	27.832	62.0064	27.832	62.7872	27.832	61.9113	27.832	62.8367	27.832	61.8259	27.832	62.8649	27.832	61.7521	27.832	62.87	27.832	61.6914	27.832	62.8515	27.832	61.6452	27.832	62.8101	27.832	61.6143	27.832	62.7478	27.832	61.5994	27.832	62.6677	27.832	61.6009	27.832	62.5737	27.832	61.6189	27.832	62.4697	27.832	61.653	27.832	62.36	27.832	61.7027	27.832	62.2483	27.832	61.767	27.832	62.1381	27.832	61.8446	27.832	62.0323	27.832	61.9337
29.2969	63.1287	29.2969	63.016	29.2969	63.2326	29.2969	62.8982	29.2969	63.3238	29.2969	62.779	29.2969	63.3987	29.2969	62.6617	29.2969	63.4537	29.2969	62.5494	29.2969	63.4861	29.2969	62.4448	29.2969	63.4935	29.2969	62.3502	29.2969	63.4748	29.2969	62.2678	29.2969	63.43	29.2969	62.1992	29.2969	63.3606	29.2969	62.1459	29.2969	63.2694	29.2969	62.1091	29.2969	63.1609	29.2969	62.0896	29.2969	63.0401	29.2969	62.0878	29.2969	62.9127	29.2969	62.1038	29.2969	62.7841	29.2969	62.1374	29.2969	62.6588	29.2969	62.188	29.2969	62.5408	29.2969	62.2549	29.2969	62.4327	29.2969	62.3369
30.7617	63.9131	30.7617	63.8065	30.7617	64.0135	30.7617	63.6972	30.7617	64.1044	30.7617	63.5883	30.7617	64.182	30.7617	63.4825	30.7617	64.2427	30.7617	63.3825	30.7617	64.2831	30.7617	63.2906	30.7617	64.3004	30.7617	63.2087	30.7617	64.2925	30.7617	63.1385	30.7617	64.2588	30.7617	63.0813	30.7617	64.2001	30.7617	63.0383	30.7617	64.119	30.7617	63.0102	30.7617	64.0194	30.7617	62.9974	30.7617	63.9067	30.7617	63.0002	30.7617	63.7865	30.7617	63.0186	30.7617	63.6644	30.7617	63.0522	30.7617	63.5454	30.7617	63.1009	30.7617	63.4334	30.7617	63.1641	30.7617	63.3313	30.7617	63.2411
32.2266	64.5335	32.2266	64.4243	32.2266	64.6366	32.2266	64.3125	32.2266	64.7298	32.2266	64.2016	32.2266	64.8095	32.2266	64.0945	32.2266	64.8725	32.2266	63.9941	32.2266	64.9157	32.2266	63.9029	32.2266	64.937	32.2266	63.8229	32.2266	64.9349	32.2266	63.7558	32.2266	64.909	32.2266	63.7031	32.2266	64.8604	32.2266	63.6659	32.2266	64.7911	32.2266	63.6448	32.2266	64.7042	32.2266	63.6403	32.2266	64.6037	32.2266	63.6526	32.2266	64.494	32.2266	63.6814	32.2266	64.3793	32.2266	63.7262	32.2266	64.2639	32.2266	63.7862	32.2266	64.1514	32.2266	63.8604	32.2266	64.045	32.2266	63.9473
33.6914	65.1716	33.6914	65.0605	33.6914	65.2758	33.6914	64.9461	33.6914	65.3693	33.6914	64.8318	33.6914	65.4486	33.6914	64.7211	33.6914	65.5105	33.6914	64.6167	33.6914	65.552	33.6914	64.5214	33.6914	65.5712	33.6914	64.4375	33.6914	65.5667	33.6914	64.3668	33.6914	65.5384	33.6914	64.3111	33.6914	65.4873	33.6914	64.2714	33.6914	65.4158	33.6914	64.2486	33.6914	65.327	33.6914	64.2434	33.6914	65.2249	33.6914	64.2557	33.6914	65.1138	33.6914	64.2854	33.6914	64.9979	33.6914	64.3317	33.6914	64.8811	33.6914	64.3937	33.6914	64.7671	33.6914	64.4701	33.6914	64.6589	33.6914	64.5592
35.1562	65.7677	35.1562	65.6615	35.1562	65.8673	35.1562	65.5519	35.1562	65.9567	35.1562	65.4423	35.1562	66.0329	35.1562	65.3357	35.1562	66.0926	35.1562	65.2349	35.1562	66.1334	35.1562	65.1426	35.1562	66.1529	35.1562	65.0611	35.1562	66.1499	35.1562	64.9921	35.1562	66.1239	35.1562	64.9373	35.1562	66.0757	35.1562	64.8979	35.1562	66.0073	35.1562	64.8748	35.1562	65.9216	35.1562	64.8685	35.1562	65.8225	35.1562	64.8793	35.1562	65.7142	35.1562	64.9069	35.1562	65.6008	35.1562	64.951	35.1562	65.4865	35.1562	65.0105	35.1562	65.3747	35.1562	65.0845	35.1562	65.2687	35.1562	65.1712
36.6211	66.3675	36.6211	66.2591	36.6211	66.4691	36.6211	66.1474	36.6211	66.5602	36.6211	66.0356	36.6211	66.6374	36.6211	65.927	36.6211	66.6973	36.6211	65.8243	36.6211	66.7371	36.6211	65.7302	36.6211	66.7545	36.6211	65.6468	36.6211	66.7481	36.6211	65.5762	36.6211	66.7179	36.6211	65.5198	36.6211	66.6648	36.6211	65.4788	36.6211	66.5912	36.6211	65.4542	36.6211	66.5005	36.6211	65.4464	36.6211	66.3969	36.6211	65.4556	36.6211	66.285	36.6211	65.4817	36.6211	66.1691	36.6211	65.524	36.6211	66.0532	36.6211	65.5818	36.6211	65.9411	36.6211	65.654	36.6211	65.8355	36.6211	65.7392
38.0859	66.9343	38.0859	66.8252	38.0859	67.0366	38.0859	66.7131	38.0859	67.1287	38.0859	66.6012	38.0859	67.2068	38.0859	66.4924	38.0859	67.2675	38.0859	66.3897	38.0859	67.3078	38.0859	66.2954	38.0859	67.3254	38.0859	66.2116	38.0859	67.3189	38.0859	66.1403	38.0859	67.288	38.0859	66.0829	38.0859	67.2339	38.0859	66.0406	38.0859	67.159	38.0859	66.0144	38.0859	67.0665	38.0859	66.0048	38.0859	66.9608	38.0859	66.0122	38.0859	66.8464	38.0859	66.0364	38.0859	66.728	38.0859	66.0772	38.0859	66.6097	38.0859	66.1339	38.0859	66.4954	38.0859	66.2056	38.0859	66.3883	38.0859	66.291
39.5508	67.3921	39.5508	67.2816	39.5508	67.4953	39.5508	67.1677	39.5508	67.5878	39.5508	67.0538	39.5508	67.6659	39.5508	66.9431	39.5508	67.7263	39.5508	66.8387	39.5508	67.7662	39.5508	66.743	39.5508	67.7836	39.5508	66.6584	39.5508	67.777	39.5508	66.5865	39.5508	67.7463	39.5508	66.529	39.5508	67.6926	39.5508	66.4869	39.5508	67.6179	39.5508	66.4611	39.5508	67.5255	39.5508	66.4519	39.5508	67.4196	39.5508	66.4598	39.5508	67.3045	39.5508	66.4845	39.5508	67.185	39.5508	66.5258	39.5508	67.0653	39.5508	66.5832	39.5508	66.9495	39.5508	66.6558	39.5508	66.8408	39.5508	66.7422
41.0156	68.0486	41.0156	67.9304	41.0156	68.1635	41.0156	67.8127	41.0156	68.271	41.0156	67.699	41.0156	68.3673	41.0156	67.5927	41.0156	68.4486	41.0156	67.4966	41.0156	68.5116	41.0156	67.4134	41.0156	68.5536	41.0156	67.345	41.0156	68.5728	41.0156	67.2931	41.0156	68.5686	41.0156	67.2588	41.0156	68.5416	41.0156	67.2429	41.0156	68.4935	41.0156	67.2456	41.0156	68.4271	41.0156	67.2666	41.0156	68.3453	41.0156	67.3055	41.0156	68.2518	41.0156	67.361	41.0156	68.1496	41.0156	67.4315	41.0156	68.0417	41.0156	67.5152	41.0156	67.9311	41.0156	67.6096	41.0156	67.8203	41.0156	67.7123
42.4805	68.8008	42.4805	68.6859	42.4805	68.9079	42.4805	68.5668	42.4805	69.0033	42.4805	68.4475	42.4805	69.0836	42.4805	68.3314	42.4805	69.1456	42.4805	68.2218	42.4805	69.1868	42.4805	68.1218	42.4805	69.2055	42.4805	68.0341	42.4805	69.2009	42.4805	67.9608	42.4805	69.1732	42.4805	67.904	42.4805	69.1237	42.4805	67.8649	42.4805	69.0549	42.4805	67.8446	42.4805	68.9698	42.4805	67.8436	42.4805	68.8719	42.4805	67.8619	42.4805	68.7649	42.4805	67.8989	42.4805	68.652	42.4805	67.9535	42.4805	68.5367	42.4805	68.0241	42.4805	68.4218	42.4805	68.1088	42.4805	68.3104	42.4805	68.2051
43.9453	69.0903	43.9453	68.9708	43.9453	69.2004	43.9453	68.8458	43.9453	69.2968	43.9453	68.7195	43.9453	69.376	43.9453	68.5956	43.9453	69.4346	43.9453	68.4777	43.9453	69.4699	43.9453	68.369	43.9453	69.4803	43.9453	68.2722	43.9453	69.465	43.9453	68.1897	43.9453	69.4243	43.9453	68.1234	43.9453	69.3601	43.9453	68.0747	43.9453	69.2753	43.9453	68.0447	43.9453	69.1736	43.9453	68.0339	43.9453	69.0594	43.9453	68.0425	43.9453	68.9375	43.9453	68.07	43.9453	68.8122	43.9453	68.1158	43.9453	68.6876	43.9453	68.1786	43.9453	68.5669	43.9453	68.257	43.9453	68.4533	43.9453	68.3493
45.4102	69.5872	45.4102	69.4736	45.4102	69.6929	45.4102	69.3557	45.4102	69.7867	45.4102	69.2373	45.4102	69.865	45.4102	69.1217	45.4102	69.9244	45.4102	69.0119	45.4102	69.9622	45.4102	68.9108	45.4102	69.9762	45.4102	68.8205	45.4102	69.9653	45.4102	68.7431	45.4102	69.9296	45.4102	68.6803	45.4102	69.8702	45.4102	68.6332	45.4102	69.7896	45.4102	68.603	45.4102	69.6915	45.4102	68.5903	45.4102	69.5801	45.4102	68.5954	45.4102	69.4601	45.4102	68.6184	45.4102	69.336	45.4102	68.6592	45.4102	69.2122	45.4102	68.7169	45.4102	69.0927	45.4102	68.7908	45.4102	68.9808	45.4102	68.8794
46.875	69.8865	46.875	69.7815	46.875	69.9866	46.875	69.675	46.875	70.0783	46.875	69.5698	46.875	70.1579	46.875	69.4685	46.875	70.2218	46.875	69.3737	46.875	70.2665	46.875	69.2872	46.875	70.2895	46.875	69.2109	46.875	70.2886	46.875	69.1463	46.875	70.2633	46.875	69.0946	46.875	70.2143	46.875	69.0568	46.875	70.1437	46.875	69.0336	46.875	70.0548	46.875	69.0256	46.875	69.9519	46.875	69.0329	46.875	69.8398	46.875	69.0559	46.875	69.7234	46.875	69.0942	46.875	69.6072	46.875	69.1477	46.875	69.4954	46.875	69.2157	46.875	69.3912	46.875	69.2974
48.3398	70.7003	48.3398	70.5922	48.3398	70.8005	48.3398	70.4796	48.3398	70.8891	48.3398	70.3657	48.3398	70.9627	48.3398	70.2534	48.3398	71.0177	48.3398	70.1456	48.3398	71.051	48.3398	70.0448	48.3398	71.0602	48.3398	69.9534	48.3398	71.0442	48.3398	69.8734	48.3398	71.0028	48.3398	69.8065	48.3398	70.9374	48.3398	69.7541	48.3398	70.8509	48.3398	69.7174	48.3398	70.747	48.3398	69.6971	48.3398	70.6305	48.3398	69.6937	48.3398	70.5063	48.3398	69.7077	48.3398	70.3796	48.3398	69.7389	48.3398	70.2551	48.3398	69.7873	48.3398	70.137	48.3398	69.8524	48.3398	70.0289	48.3398	69.9333
51.2695	71.1958	51.2695	71.0803	51.2695	71.3028	51.2695	70.9605	51.2695	71.3976	51.2695	70.8403	51.2695	71.4763	51.2695	70.7236	51.2695	71.536	51.2695	70.6138	51.2695	71.5742	51.2695	70.5141	51.2695	71.5894	51.2695	70.4269	51.2695	71.581	51.2695	70.3545	51.2695	71.5494	51.2695	70.2984	51.2695	71.4961	51.2695	70.2597	51.2695	71.4233	51.2695	70.2389	51.2695	71.3342	51.2695	70.2362	51.2695	71.2324	51.2695	70.2514	51.2695	71.1218	51.2695	70.2839	51.2695	71.0063	51.2695	70.3328	51.2695	70.8897	51.2695	70.3971	51.2695	70.7754	51.2695	70.4752	51.2695	70.6665	51.2695	70.5656
52.7344	71.5746	52.7344	71.4686	52.7344	71.6742	52.7344	71.3597	52.7344	71.764	52.7344	71.2515	52.7344	71.8407	52.7344	71.1472	52.7344	71.9015	52.7344	71.0499	52.7344	71.9442	52.7344	70.9623	52.7344	71.9672	52.7344	70.8869	52.7344	71.9695	52.7344	70.8253	52.7344	71.951	52.7344	70.779	52.7344	71.9127	52.7344	70.7489	52.7344	71.8559	52.7344	70.7356	52.7344	71.783	52.7344	70.7391	52.7344	71.6966	52.7344	70.7591	52.7344	71.5999	52.7344	70.7952	52.7344	71.4962	52.7344	70.8466	52.7344	71.3889	52.7344	70.9121	52.7344	71.2816	52.7344	70.9903	52.7344	71.1775	52.7344	71.0795
54.1992	72.0163	54.1992	71.9158	54.1992	72.1101	54.1992	71.812	54.1992	72.194	54.1992	71.7081	54.1992	72.2651	54.1992	71.6075	54.1992	72.3208	54.1992	71.5133	54.1992	72.3591	54.1992	71.4283	54.1992	72.3784	54.1992	71.3549	54.1992	72.3781	54.1992	71.2949	54.1992	72.3583	54.1992	71.2499	54.1992	72.3197	54.1992	71.2208	54.1992	72.2643	54.1992	71.2081	54.1992	72.1943	54.1992	71.2117	54.1992	72.1125	54.1992	71.2314	54.1992	72.0218	54.1992	71.2666	54.1992	71.9253	54.1992	71.3161	54.1992	71.8258	54.1992	71.3788	54.1992	71.7261	54.1992	71.4531	54.1992	71.6291	54.1992	71.5373
55.6641	72.5817	55.6641	72.4754	55.6641	72.6792	55.6641	72.3638	55.6641	72.7641	55.6641	72.2509	55.6641	72.8333	55.6641	72.1402	55.6641	72.8839	55.6641	72.0352	55.6641	72.9137	55.6641	71.9391	55.6641	72.9214	55.6641	71.8547	55.6641	72.9066	55.6641	71.7842	55.6641	72.8704	55.6641	71.7295	55.6641	72.8147	55.6641	71.6918	55.6641	72.7426	55.6641	71.6719	55.6641	72.6579	55.6641	71.6697	55.6641	72.5645	55.6641	71.6851	55.6641	72.4657	55.6641	71.717	55.6641	72.3647	55.6641	71.7642	55.6641	72.2638	55.6641	71.825	55.6641	72.1647	55.6641	71.8976	55.6641	72.0695	55.6641	71.9797
58.5938	73.156	58.5938	73.041	58.5938	73.2594	58.5938	72.9182	58.5938	73.3475	58.5938	72.7913	58.5938	73.4166	58.5938	72.664	58.5938	73.4638	58.5938	72.5401	58.5938	73.4866	58.5938	72.4228	58.5938	73.4832	58.5938	72.3155	58.5938	73.4535	58.5938	72.2211	58.5938	73.3984	58.5938	72.142	58.5938	73.3205	58.5938	72.0806	58.5938	73.2236	58.5938	72.0383	58.5938	73.1124	58.5938	72.0163	58.5938	72.9918	58.5938	72.015	58.5938	72.8667	58.5938	72.0342	58.5938	72.7411	58.5938	72.073	58.5938	72.6183	58.5938	72.13	58.5938	72.5008	58.5938	72.2034	58.5938	72.3911	58.5938	72.2912
60.0586	73.5831	60.0586	73.4597	60.0586	73.6934	60.0586	73.3276	60.0586	73.7865	60.0586	73.1908	60.0586	73.8584	60.0586	73.0532	60.0586	73.9055	60.0586	72.9184	60.0586	73.9248	60.0586	72.7897	60.0586	73.9146	60.0586	72.67	60.0586	73.8741	60.0586	72.5619	60.0586	73.8042	60.0586	72.4679	60.0586	73.7074	60.0586	72.3902	60.0586	73.588	60.0586	72.3304	60.0586	73.4513	60.0586	72.2902	60.0586	73.3036	60.0586	72.2707	60.0586	73.1513	60.0586	72.2728	60.0586	73	60.0586	72.2966	60.0586	72.8551	60.0586	72.3421	60.0586	72.7205	60.0586	72.4086	60.0586	72.5996	60.0586	72.4949
62.9883	74.4167	62.9883	74.307	62.9883	74.5177	62.9883	74.1919	62.9883	74.6063	62.9883	74.0747	62.9883	74.6787	62.9883	73.9585	62.9883	74.7313	62.9883	73.8458	62.9883	74.7611	62.9883	73.7392	62.9883	74.7654	62.9883	73.6407	62.9883	74.743	62.9883	73.5522	62.9883	74.6935	62.9883	73.4754	62.9883	74.6184	62.9883	73.4117	62.9883	74.5205	62.9883	73.3624	62.9883	74.4037	62.9883	73.3289	62.9883	74.2731	62.9883	73.3123	62.9883	74.1345	62.9883	73.3137	62.9883	73.9937	62.9883	73.3341	62.9883	73.8565	62.9883	73.3743	62.9883	73.7282	62.9883	73.4345	62.9883	73.6131	62.9883	73.5145
64.4531	74.6595	64.4531	74.5493	64.4531	74.7618	64.4531	74.4351	64.4531	74.8527	64.4531	74.3201	64.4531	74.9284	64.4531	74.2077	64.4531	74.9855	64.4531	74.1008	64.4531	75.0212	64.4531	74.0019	64.4531	75.0334	64.4531	73.9133	64.4531	75.0209	64.4531	73.8368	64.4531	74.9837	64.4531	73.7739	64.4531	74.9233	64.4531	73.7257	64.4531	74.8419	64.4531	73.6931	64.4531	74.7431	64.4531	73.6767	64.4531	74.6309	64.4531	73.677	64.4531	74.51	64.4531	73.6944	64.4531	74.3851	64.4531	73.729	64.4531	74.2609	64.4531	73.7807	64.4531	74.1418	64.4531	73.8491	64.4531	74.0315	64.4531	73.9332
67.3828	74.9098	67.3828	74.796	67.3828	75.019	67.3828	74.6812	67.3828	75.1196	67.3828	74.5692	67.3828	75.2084	67.3828	74.4639	67.3828	75.2821	67.3828	74.3685	67.3828	75.3384	67.3828	74.286	67.3828	75.3752	67.3828	74.2188	67.3828	75.3915	67.3828	74.1688	67.3828	75.3871	67.3828	74.1371	67.3828	75.3626	67.3828	74.1242	67.3828	75.3193	67.3828	74.1301	67.3828	75.2593	67.3828	74.1539	67.3828	75.185	67.3828	74.1947	67.3828	75.099	67.3828	74.2509	67.3828	75.0042	67.3828	74.3207	67.3828	74.9032	67.3828	74.4022	67.3828	74.7989	67.3828	74.4931	67.3828	74.694	67.3828	74.5912
68.8477	75.2483	68.8477	75.1347	68.8477	75.3573	68.8477	75.0203	68.8477	75.4581	68.8477	74.9089	68.8477	75.5471	68.8477	74.8041	68.8477	75.6214	68.8477	74.7093	68.8477	75.6784	68.8477	74.6275	68.8477	75.7163	68.8477	74.5614	68.8477	75.7343	68.8477	74.5127	68.8477	75.7321	68.8477	74.4827	68.8477	75.7107	68.8477	74.4721	68.8477	75.6712	68.8477	74.4807	68.8477	75.6156	68.8477	74.5078	68.8477	75.5459	68.8477	74.5522	68.8477	75.4643	68.8477	74.6121	68.8477	75.3731	68.8477	74.6856	68.8477	75.2749	68.8477	74.7704	68.8477	75.1722	68.8477	74.8641	68.8477	75.0677	68.8477	74.9641
