"SPL Horizontal"
"On-Axis"		"10°"		"-10°"		"20°"		"-20°"		"30°"		"-30°"		"40°"		"-40°"		"50°"		"-50°"		"60°"		"-60°"		"70°"		"-70°"		"80°"		"-80°"		"90°"		"-90°"		"100°"		"-100°"		"110°"		"-110°"		"120°"		"-120°"		"130°"		"-130°"		"140°"		"-140°"		"150°"		"-150°"		"160°"		"-160°"		"170°"		"-170°"		"180°"
"Frequency / Hz"	"Sound Pressure Level / dB (re 20 µPa/V)  [2.83  V @ 1. m]"	"Frequency / Hz"	"Sound Pressure Level / dB (re 20 µPa/V)  [2.83  V @ 1. m]"	"Frequency / Hz"	"Sound Pressure Level / dB (re 20 µPa/V)  [2.83  V @ 1. m]"	"Frequency / Hz"	"Sound Pressure Level / dB (re 20 µPa/V)  [2.83  V @ 1. m]"	"Frequency / Hz"	"Sound Pressure Level / dB (re 20 µPa/V)  [2.83  V @ 1. m]"	"Frequency / Hz"	"Sound Pressure Level / dB (re 20 µPa/V)  [2.83  V @ 1. m]"	"Frequency / Hz"	"Sound Pressure Level / dB (re 20 µPa/V)  [2.83  V @ 1. m]"	"Frequency / Hz"	"Sound Pressure Level / dB (re 20 µPa/V)  [2.83  V @ 1. m]"	"Frequency / Hz"	"Sound Pressure Level / dB (re 20 µPa/V)  [2.83  V @ 1. m]"	"Frequency / Hz"	"Sound Pressure Level / dB (re 20 µPa/V)  [2.83  V @ 1. m]"	"Frequency / Hz"	"Sound Pressure Level / dB (re 20 µPa/V)  [2.83  V @ 1. m]"	"Frequency / Hz"	"Sound Pressure Level / dB (re 20 µPa/V)  [2.83  V @ 1. m]"	"Frequency / Hz"	"Sound Pressure Level / dB (re 20 µPa/V)  [2.83  V @ 1. m]"	"Frequency / Hz"	"Sound Pressure Level / dB (re 20 µPa/V)  [2.83  V @ 1. m]"	"Frequency / Hz"	"Sound Pressure Level / dB (re 20 µPa/V)  [2.83  V @ 1. m]"	"Frequency / Hz"	"Sound Pressure Level / dB (re 20 µPa/V)  [2.83  V @ 1. m]"	"Frequency / Hz"	"Sound Pressure Level / dB (re 20 µPa/V)  [2.83  V @ 1. m]"	"Frequency / Hz"	"Sound Pressure Level / dB (re 20 µPa/V)  [2.83  V @ 1. m]"	"Frequency / Hz"	"Sound Pressure Level / dB (re 20 µPa/V)  [2.83  V @ 1. m]"	"Frequency / Hz"	"Sound Pressure Level / dB (re 20 µPa/V)  [2.83  V @ 1. m]"	"Frequency / Hz"	"Sound Pressure Level / dB (re 20 µPa/V)  [2.83  V @ 1. m]"	"Frequency / Hz"	"Sound Pressure Level / dB (re 20 µPa/V)  [2.83  V @ 1. m]"	"Frequency / Hz"	"Sound Pressure Level / dB (re 20 µPa/V)  [2.83  V @ 1. m]"	"Frequency / Hz"	"Sound Pressure Level / dB (re 20 µPa/V)  [2.83  V @ 1. m]"	"Frequency / Hz"	"Sound Pressure Level / dB (re 20 µPa/V)  [2.83  V @ 1. m]"	"Frequency / Hz"	"Sound Pressure Level / dB (re 20 µPa/V)  [2.83  V @ 1. m]"	"Frequency / Hz"	"Sound Pressure Level / dB (re 20 µPa/V)  [2.83  V @ 1. m]"	"Frequency / Hz"	"Sound Pressure Level / dB (re 20 µPa/V)  [2.83  V @ 1. m]"	"Frequency / Hz"	"Sound Pressure Level / dB (re 20 µPa/V)  [2.83  V @ 1. m]"	"Frequency / Hz"	"Sound Pressure Level / dB (re 20 µPa/V)  [2.83  V @ 1. m]"	"Frequency / Hz"	"Sound Pressure Level / dB (re 20 µPa/V)  [2.83  V @ 1. m]"	"Frequency / Hz"	"Sound Pressure Level / dB (re 20 µPa/V)  [2.83  V @ 1. m]"	"Frequency / Hz"	"Sound Pressure Level / dB (re 20 µPa/V)  [2.83  V @ 1. m]"	"Frequency / Hz"	"Sound Pressure Level / dB (re 20 µPa/V)  [2.83  V @ 1. m]"	"Frequency / Hz"	"Sound Pressure Level / dB (re 20 µPa/V)  [2.83  V @ 1. m]"	"Frequency / Hz"	"Sound Pressure Level / dB (re 20 µPa/V)  [2.83  V @ 1. m]"
20.5078	44.3272	20.5078	44.4023	20.5078	44.409	20.5078	44.6116	20.5078	44.6561	20.5078	44.9237	20.5078	45.0579	20.5078	45.3043	20.5078	45.5849	20.5078	45.7188	20.5078	46.1943	20.5078	46.1351	20.5078	46.8381	20.5078	46.5245	20.5078	47.4703	20.5078	46.8645	20.5078	48.0528	20.5078	47.1406	20.5078	48.5569	20.5078	47.3486	20.5078	48.963	20.5078	47.4955	20.5078	49.2599	20.5078	47.5988	20.5078	49.4427	20.5078	47.6842	20.5078	49.512	20.5078	47.7802	20.5078	49.4741	20.5078	47.912	20.5078	49.3415	20.5078	48.0943	20.5078	49.1332	20.5078	48.3271	20.5078	48.8746	20.5078	48.5957
21.9727	38.7763	21.9727	38.8517	21.9727	38.6529	21.9727	38.8899	21.9727	38.4831	21.9727	38.9065	21.9727	38.2896	21.9727	38.9165	21.9727	38.1202	21.9727	38.9319	21.9727	38.0389	21.9727	38.9601	21.9727	38.0985	21.9727	39.0034	21.9727	38.3076	21.9727	39.0581	21.9727	38.6206	21.9727	39.1144	21.9727	38.962	21.9727	39.1576	21.9727	39.2599	21.9727	39.1715	21.9727	39.4642	21.9727	39.1419	21.9727	39.5496	21.9727	39.0611	21.9727	39.5112	21.9727	38.9328	21.9727	39.3627	21.9727	38.7759	21.9727	39.1367	21.9727	38.6273	21.9727	38.8845	21.9727	38.5355	21.9727	38.6685	21.9727	38.544
23.4375	45.4079	23.4375	45.1674	23.4375	45.683	23.4375	44.9622	23.4375	45.9867	23.4375	44.7898	23.4375	46.3075	23.4375	44.6463	23.4375	46.6281	23.4375	44.5275	23.4375	46.9268	23.4375	44.4319	23.4375	47.1806	23.4375	44.3609	23.4375	47.3688	23.4375	44.3199	23.4375	47.4757	23.4375	44.3161	23.4375	47.4934	23.4375	44.3556	23.4375	47.423	23.4375	44.4402	23.4375	47.2741	23.4375	44.5654	23.4375	47.0643	23.4375	44.7214	23.4375	46.8154	23.4375	44.8956	23.4375	46.5507	23.4375	45.0768	23.4375	46.2899	23.4375	45.2583	23.4375	46.0467	23.4375	45.4397	23.4375	45.8262	23.4375	45.6263
24.9023	49.2762	24.9023	49.1168	24.9023	49.4656	24.9023	48.9904	24.9023	49.6807	24.9023	48.8983	24.9023	49.9143	24.9023	48.8401	24.9023	50.1558	24.9023	48.8133	24.9023	50.3915	24.9023	48.8133	24.9023	50.6065	24.9023	48.8344	24.9023	50.7873	24.9023	48.8722	24.9023	50.9239	24.9023	48.9241	24.9023	51.0108	24.9023	48.9898	24.9023	51.0474	24.9023	49.0704	24.9023	51.0358	24.9023	49.1671	24.9023	50.9804	24.9023	49.28	24.9023	50.8861	24.9023	49.4087	24.9023	50.7587	24.9023	49.5525	24.9023	50.6045	24.9023	49.7104	24.9023	50.4313	24.9023	49.8811	24.9023	50.2477	24.9023	50.0619
26.3672	46.5768	26.3672	46.3475	26.3672	46.8634	26.3672	46.1779	26.3672	47.1995	26.3672	46.0664	26.3672	47.5707	26.3672	46.0086	26.3672	47.9564	26.3672	45.9975	26.3672	48.3315	26.3672	46.0248	26.3672	48.6702	26.3672	46.0824	26.3672	48.951	26.3672	46.1636	26.3672	49.1591	26.3672	46.2646	26.3672	49.2882	26.3672	46.3838	26.3672	49.3399	26.3672	46.521	26.3672	49.3212	26.3672	46.6765	26.3672	49.242	26.3672	46.8506	26.3672	49.1121	26.3672	47.0439	26.3672	48.9403	26.3672	47.2566	26.3672	48.7342	26.3672	47.4879	26.3672	48.5015	26.3672	47.7351	26.3672	48.251	26.3672	47.9922
27.832	46.8579	27.832	46.6356	27.832	47.1158	27.832	46.4523	27.832	47.4045	27.832	46.3112	27.832	47.7162	27.832	46.2143	27.832	48.0385	27.832	46.162	27.832	48.355	27.832	46.1522	27.832	48.6476	27.832	46.181	27.832	48.8997	27.832	46.2445	27.832	49.0994	27.832	46.3401	27.832	49.2407	27.832	46.4671	27.832	49.3235	27.832	46.6256	27.832	49.3511	27.832	46.815	27.832	49.3282	27.832	47.0332	27.832	49.2591	27.832	47.2754	27.832	49.147	27.832	47.5353	27.832	48.9945	27.832	47.8049	27.832	48.8054	27.832	48.0756	27.832	48.5844	27.832	48.3384
29.2969	49.1509	29.2969	49.1147	29.2969	49.2029	29.2969	49.0877	29.2969	49.2754	29.2969	49.0634	29.2969	49.3705	29.2969	49.0367	29.2969	49.4857	29.2969	49.0045	29.2969	49.6148	29.2969	48.9661	29.2969	49.748	29.2969	48.9234	29.2969	49.8737	29.2969	48.8802	29.2969	49.9803	29.2969	48.8422	29.2969	50.0579	29.2969	48.8159	29.2969	50.0997	29.2969	48.8075	29.2969	50.1022	29.2969	48.8215	29.2969	50.0658	29.2969	48.8601	29.2969	49.994	29.2969	48.9228	29.2969	49.893	29.2969	49.0073	29.2969	49.7707	29.2969	49.1103	29.2969	49.6357	29.2969	49.2286	29.2969	49.496	29.2969	49.3585
30.7617	52.4022	30.7617	52.3206	30.7617	52.4944	30.7617	52.2489	30.7617	52.5964	30.7617	52.1856	30.7617	52.7056	30.7617	52.1286	30.7617	52.817	30.7617	52.0758	30.7617	52.9238	30.7617	52.0251	30.7617	53.0177	30.7617	51.9755	30.7617	53.0912	30.7617	51.9272	30.7617	53.1379	30.7617	51.882	30.7617	53.1542	30.7617	51.8438	30.7617	53.1393	30.7617	51.8172	30.7617	53.0944	30.7617	51.8078	30.7617	53.0223	30.7617	51.8203	30.7617	52.9265	30.7617	51.8581	30.7617	52.8111	30.7617	51.9225	30.7617	52.6804	30.7617	52.0127	30.7617	52.5399	30.7617	52.1254	30.7617	52.3959	30.7617	52.2553
32.2266	52.4934	32.2266	52.474	32.2266	52.529	32.2266	52.4693	32.2266	52.581	32.2266	52.4774	32.2266	52.6485	32.2266	52.4955	32.2266	52.729	32.2266	52.5206	32.2266	52.819	32.2266	52.5497	32.2266	52.9139	32.2266	52.5806	32.2266	53.0089	32.2266	52.6121	32.2266	53.0999	32.2266	52.6446	32.2266	53.183	32.2266	52.6798	32.2266	53.2552	32.2266	52.7205	32.2266	53.3138	32.2266	52.769	32.2266	53.3562	32.2266	52.8271	32.2266	53.3802	32.2266	52.8947	32.2266	53.3841	32.2266	52.9703	32.2266	53.3673	32.2266	53.0508	32.2266	53.3307	32.2266	53.1319	32.2266	53.2767	32.2266	53.2089
33.6914	51.066	33.6914	51.0684	33.6914	51.0773	33.6914	51.0797	33.6914	51.1058	33.6914	51.0946	33.6914	51.1524	33.6914	51.1077	33.6914	51.2157	33.6914	51.1151	33.6914	51.2912	33.6914	51.1138	33.6914	51.3726	33.6914	51.1027	33.6914	51.4525	33.6914	51.0827	33.6914	51.5236	33.6914	51.0563	33.6914	51.5791	33.6914	51.0277	33.6914	51.6142	33.6914	51.002	33.6914	51.6255	33.6914	50.9843	33.6914	51.6122	33.6914	50.9792	33.6914	51.5753	33.6914	50.9898	33.6914	51.5179	33.6914	51.0175	33.6914	51.4451	33.6914	51.0624	33.6914	51.3628	33.6914	51.1228	33.6914	51.2777	33.6914	51.1959
35.1562	53.4839	35.1562	53.4686	35.1562	53.5026	35.1562	53.4564	35.1562	53.5249	35.1562	53.4468	35.1562	53.5506	35.1562	53.4395	35.1562	53.5784	35.1562	53.4333	35.1562	53.6062	35.1562	53.4268	35.1562	53.6311	35.1562	53.4186	35.1562	53.6505	35.1562	53.4076	35.1562	53.6627	35.1562	53.3939	35.1562	53.6671	35.1562	53.3785	35.1562	53.6641	35.1562	53.3638	35.1562	53.6547	35.1562	53.3524	35.1562	53.6397	35.1562	53.3472	35.1562	53.6191	35.1562	53.3502	35.1562	53.5932	35.1562	53.3625	35.1562	53.5618	35.1562	53.3839	35.1562	53.526	35.1562	53.4135	35.1562	53.4875	35.1562	53.449
36.6211	55.3477	36.6211	55.3187	36.6211	55.3724	36.6211	55.2848	36.6211	55.3932	36.6211	55.2454	36.6211	55.4103	36.6211	55.1995	36.6211	55.4238	36.6211	55.1465	36.6211	55.4329	36.6211	55.0857	36.6211	55.4366	36.6211	55.0178	36.6211	55.433	36.6211	54.9444	36.6211	55.4205	36.6211	54.8687	36.6211	55.3972	36.6211	54.7952	36.6211	55.3623	36.6211	54.7294	36.6211	55.3152	36.6211	54.6764	36.6211	55.2563	36.6211	54.6409	36.6211	55.1866	36.6211	54.626	36.6211	55.1081	36.6211	54.633	36.6211	55.0236	36.6211	54.6618	36.6211	54.9368	36.6211	54.7103	36.6211	54.8524	36.6211	54.7753
38.0859	55.6426	38.0859	55.6553	38.0859	55.622	38.0859	55.6589	38.0859	55.5955	38.0859	55.6528	38.0859	55.5651	38.0859	55.6372	38.0859	55.5327	38.0859	55.6129	38.0859	55.4998	38.0859	55.5809	38.0859	55.4671	38.0859	55.5425	38.0859	55.4348	38.0859	55.4993	38.0859	55.4022	38.0859	55.4528	38.0859	55.3684	38.0859	55.4048	38.0859	55.3327	38.0859	55.3566	38.0859	55.295	38.0859	55.3093	38.0859	55.256	38.0859	55.2642	38.0859	55.2174	38.0859	55.2224	38.0859	55.1817	38.0859	55.1853	38.0859	55.1519	38.0859	55.1547	38.0859	55.1306	38.0859	55.1326	38.0859	55.1199	38.0859	55.1206
39.5508	56.3965	39.5508	56.3884	39.5508	56.4074	39.5508	56.3821	39.5508	56.4215	39.5508	56.376	39.5508	56.4384	39.5508	56.3685	39.5508	56.4567	39.5508	56.3584	39.5508	56.4743	39.5508	56.3447	39.5508	56.4885	39.5508	56.3271	39.5508	56.4967	39.5508	56.3063	39.5508	56.4972	39.5508	56.2831	39.5508	56.4887	39.5508	56.2591	39.5508	56.4715	39.5508	56.2355	39.5508	56.4463	39.5508	56.2137	39.5508	56.4148	39.5508	56.195	39.5508	56.3789	39.5508	56.181	39.5508	56.3403	39.5508	56.1735	39.5508	56.3013	39.5508	56.1742	39.5508	56.2638	39.5508	56.184	39.5508	56.2303	39.5508	56.2031
41.0156	56.5611	41.0156	56.5644	41.0156	56.555	41.0156	56.5647	41.0156	56.547	41.0156	56.5618	41.0156	56.538	41.0156	56.556	41.0156	56.5281	41.0156	56.5476	41.0156	56.5171	41.0156	56.5368	41.0156	56.504	41.0156	56.5232	41.0156	56.4873	41.0156	56.5064	41.0156	56.4659	41.0156	56.4858	41.0156	56.4394	41.0156	56.4611	41.0156	56.4084	41.0156	56.432	41.0156	56.3741	41.0156	56.3992	41.0156	56.3388	41.0156	56.3636	41.0156	56.3048	41.0156	56.3275	41.0156	56.2744	41.0156	56.2932	41.0156	56.2499	41.0156	56.2637	41.0156	56.2332	41.0156	56.2416	41.0156	56.2258	41.0156	56.2286
42.4805	57.8303	42.4805	57.8295	42.4805	57.8264	42.4805	57.8245	42.4805	57.8171	42.4805	57.8155	42.4805	57.8015	42.4805	57.802	42.4805	57.7788	42.4805	57.7835	42.4805	57.7483	42.4805	57.7589	42.4805	57.7094	42.4805	57.7279	42.4805	57.6617	42.4805	57.6905	42.4805	57.606	42.4805	57.6473	42.4805	57.5438	42.4805	57.5994	42.4805	57.4778	42.4805	57.5479	42.4805	57.4115	42.4805	57.494	42.4805	57.3489	42.4805	57.4389	42.4805	57.2938	42.4805	57.3843	42.4805	57.2495	42.4805	57.332	42.4805	57.2188	42.4805	57.2849	42.4805	57.2031	42.4805	57.2458	42.4805	57.2029	42.4805	57.2177
43.9453	57.9831	43.9453	57.9579	43.9453	58.0062	43.9453	57.9321	43.9453	58.026	43.9453	57.907	43.9453	58.0411	43.9453	57.8834	43.9453	58.0509	43.9453	57.8622	43.9453	58.0547	43.9453	57.8437	43.9453	58.0524	43.9453	57.8282	43.9453	58.0442	43.9453	57.816	43.9453	58.0303	43.9453	57.8069	43.9453	58.0112	43.9453	57.8008	43.9453	57.9879	43.9453	57.797	43.9453	57.9618	43.9453	57.7951	43.9453	57.9344	43.9453	57.7943	43.9453	57.9073	43.9453	57.7944	43.9453	57.8818	43.9453	57.7955	43.9453	57.8589	43.9453	57.7982	43.9453	57.8394	43.9453	57.8033	43.9453	57.8235	43.9453	57.8116
45.4102	58.7606	45.4102	58.7229	45.4102	58.7951	45.4102	58.6831	45.4102	58.8248	45.4102	58.6423	45.4102	58.8483	45.4102	58.6013	45.4102	58.8645	45.4102	58.5608	45.4102	58.8721	45.4102	58.5212	45.4102	58.8705	45.4102	58.483	45.4102	58.8593	45.4102	58.4468	45.4102	58.8383	45.4102	58.413	45.4102	58.808	45.4102	58.3825	45.4102	58.7695	45.4102	58.3561	45.4102	58.724	45.4102	58.3348	45.4102	58.6735	45.4102	58.3197	45.4102	58.6197	45.4102	58.312	45.4102	58.5648	45.4102	58.313	45.4102	58.5106	45.4102	58.3235	45.4102	58.4595	45.4102	58.3441	45.4102	58.4134	45.4102	58.3744
46.875	59.6249	46.875	59.6139	46.875	59.6289	46.875	59.5967	46.875	59.6252	46.875	59.5739	46.875	59.6137	46.875	59.5464	46.875	59.5943	46.875	59.5149	46.875	59.5678	46.875	59.4799	46.875	59.535	46.875	59.4421	46.875	59.4974	46.875	59.4024	46.875	59.4565	46.875	59.3617	46.875	59.4141	46.875	59.3211	46.875	59.3718	46.875	59.2819	46.875	59.3309	46.875	59.2456	46.875	59.2927	46.875	59.2135	46.875	59.2578	46.875	59.1871	46.875	59.2271	46.875	59.1676	46.875	59.2008	46.875	59.1554	46.875	59.1795	46.875	59.151	46.875	59.1636	46.875	59.1539
48.3398	59.9637	48.3398	59.9328	48.3398	59.9856	48.3398	59.8936	48.3398	59.9977	48.3398	59.847	48.3398	59.9992	48.3398	59.7939	48.3398	59.9895	48.3398	59.7352	48.3398	59.9681	48.3398	59.672	48.3398	59.9342	48.3398	59.6056	48.3398	59.8875	48.3398	59.5375	48.3398	59.8279	48.3398	59.4693	48.3398	59.7563	48.3398	59.4029	48.3398	59.6747	48.3398	59.3401	48.3398	59.5865	48.3398	59.2826	48.3398	59.496	48.3398	59.2322	48.3398	59.4081	48.3398	59.1905	48.3398	59.3275	48.3398	59.1589	48.3398	59.2581	48.3398	59.139	48.3398	59.2028	48.3398	59.1322	48.3398	59.1633	48.3398	59.1399
51.2695	60.8361	51.2695	60.8314	51.2695	60.8316	51.2695	60.818	51.2695	60.8175	51.2695	60.7968	51.2695	60.7938	51.2695	60.7686	51.2695	60.7611	51.2695	60.734	51.2695	60.7206	51.2695	60.6934	51.2695	60.6734	51.2695	60.6472	51.2695	60.6209	51.2695	60.5958	51.2695	60.5647	51.2695	60.5399	51.2695	60.506	51.2695	60.4805	51.2695	60.4462	51.2695	60.4192	51.2695	60.3871	51.2695	60.3582	51.2695	60.3302	51.2695	60.3001	51.2695	60.2775	51.2695	60.2476	51.2695	60.2309	51.2695	60.2034	51.2695	60.1923	51.2695	60.1699	51.2695	60.1635	51.2695	60.1488	51.2695	60.1459	51.2695	60.1408
52.7344	61.3754	52.7344	61.3851	52.7344	61.3548	52.7344	61.3848	52.7344	61.3232	52.7344	61.375	52.7344	61.2808	52.7344	61.3565	52.7344	61.2288	52.7344	61.3298	52.7344	61.1687	52.7344	61.2951	52.7344	61.1028	52.7344	61.2526	52.7344	61.0333	52.7344	61.2022	52.7344	60.9625	52.7344	61.1442	52.7344	60.8923	52.7344	61.0795	52.7344	60.8248	52.7344	61.0093	52.7344	60.762	52.7344	60.936	52.7344	60.7058	52.7344	60.8625	52.7344	60.6584	52.7344	60.792	52.7344	60.6214	52.7344	60.728	52.7344	60.5963	52.7344	60.6735	52.7344	60.5841	52.7344	60.6307	52.7344	60.5856	52.7344	60.6012
54.1992	62.0598	54.1992	62.0653	54.1992	62.0471	54.1992	62.0642	54.1992	62.027	54.1992	62.057	54.1992	61.9991	54.1992	62.044	54.1992	61.9641	54.1992	62.0255	54.1992	61.9226	54.1992	62.0016	54.1992	61.8761	54.1992	61.9726	54.1992	61.8261	54.1992	61.9388	54.1992	61.7745	54.1992	61.9007	54.1992	61.7231	54.1992	61.8589	54.1992	61.6737	54.1992	61.8141	54.1992	61.6283	54.1992	61.7676	54.1992	61.5885	54.1992	61.7206	54.1992	61.556	54.1992	61.6746	54.1992	61.5322	54.1992	61.6315	54.1992	61.5181	54.1992	61.593	54.1992	61.5142	54.1992	61.5607	54.1992	61.5203	54.1992	61.5361
55.6641	62.4812	55.6641	62.4584	55.6641	62.4951	55.6641	62.4277	55.6641	62.4993	55.6641	62.3903	55.6641	62.4931	55.6641	62.3473	55.6641	62.4765	55.6641	62.2999	55.6641	62.4496	55.6641	62.2497	55.6641	62.4136	55.6641	62.1984	55.6641	62.3697	55.6641	62.1479	55.6641	62.3199	55.6641	62.0999	55.6641	62.2665	55.6641	62.0559	55.6641	62.2118	55.6641	62.0171	55.6641	62.1577	55.6641	61.9841	55.6641	62.1062	55.6641	61.9573	55.6641	62.0588	55.6641	61.9367	55.6641	62.0168	55.6641	61.9225	55.6641	61.9814	55.6641	61.9147	55.6641	61.9531	55.6641	61.9135	55.6641	61.9325	55.6641	61.9193
58.5938	63.7304	58.5938	63.7263	58.5938	63.714	58.5938	63.7027	58.5938	63.6766	58.5938	63.6617	58.5938	63.6192	58.5938	63.6055	58.5938	63.5434	58.5938	63.5369	58.5938	63.452	58.5938	63.4584	58.5938	63.3485	58.5938	63.3723	58.5938	63.2365	58.5938	63.2808	58.5938	63.12	58.5938	63.1855	58.5938	63.0027	58.5938	63.0883	58.5938	62.8884	58.5938	62.9908	58.5938	62.781	58.5938	62.895	58.5938	62.6844	58.5938	62.8031	58.5938	62.6022	58.5938	62.7173	58.5938	62.5377	58.5938	62.6402	58.5938	62.4933	58.5938	62.5742	58.5938	62.47	58.5938	62.5219	58.5938	62.4678	58.5938	62.4857
60.0586	63.9577	60.0586	63.9402	60.0586	63.9581	60.0586	63.9068	60.0586	63.9405	60.0586	63.8593	60.0586	63.9046	60.0586	63.7994	60.0586	63.8508	60.0586	63.729	60.0586	63.7803	60.0586	63.65	60.0586	63.6951	60.0586	63.5647	60.0586	63.598	60.0586	63.4751	60.0586	63.4924	60.0586	63.3837	60.0586	63.3824	60.0586	63.2926	60.0586	63.2719	60.0586	63.2042	60.0586	63.1653	60.0586	63.1202	60.0586	63.0666	60.0586	63.0424	60.0586	62.9796	60.0586	62.9725	60.0586	62.9077	60.0586	62.9121	60.0586	62.8536	60.0586	62.8629	60.0586	62.8186	60.0586	62.827	60.0586	62.8031	60.0586	62.8064
62.9883	64.6129	62.9883	64.6208	62.9883	64.5879	62.9883	64.6122	62.9883	64.5459	62.9883	64.5875	62.9883	64.4872	62.9883	64.5475	62.9883	64.4131	62.9883	64.4932	62.9883	64.3255	62.9883	64.4258	62.9883	64.227	62.9883	64.3471	62.9883	64.121	62.9883	64.2595	62.9883	64.0112	62.9883	64.1658	62.9883	63.9014	62.9883	64.0688	62.9883	63.7954	62.9883	63.9716	62.9883	63.6972	62.9883	63.8767	62.9883	63.6105	62.9883	63.7862	62.9883	63.5386	62.9883	63.7021	62.9883	63.4844	62.9883	63.6261	62.9883	63.4498	62.9883	63.5598	62.9883	63.4355	62.9883	63.5053	62.9883	63.441	62.9883	63.4649
64.4531	64.7512	64.4531	64.7538	64.4531	64.7357	64.4531	64.7445	64.4531	64.7064	64.4531	64.7246	64.4531	64.6633	64.4531	64.6953	64.4531	64.607	64.4531	64.6576	64.4531	64.5394	64.4531	64.613	64.4531	64.4636	64.4531	64.5629	64.4531	64.3833	64.4531	64.5089	64.4531	64.3025	64.4531	64.4526	64.4531	64.2249	64.4531	64.3956	64.4531	64.1536	64.4531	64.3389	64.4531	64.0908	64.4531	64.2832	64.4531	64.0384	64.4531	64.2289	64.4531	63.9979	64.4531	64.1762	64.4531	63.9706	64.4531	64.1256	64.4531	63.9575	64.4531	64.0782	64.4531	63.9587	64.4531	64.0355	64.4531	63.9734	64.4531	63.9997
67.3828	65.7287	67.3828	65.7081	67.3828	65.7375	67.3828	65.6767	67.3828	65.7338	67.3828	65.6356	67.3828	65.7176	67.3828	65.586	67.3828	65.6891	67.3828	65.5293	67.3828	65.6491	67.3828	65.4671	67.3828	65.5993	67.3828	65.4015	67.3828	65.5415	67.3828	65.3348	67.3828	65.4782	67.3828	65.2698	67.3828	65.412	67.3828	65.2092	67.3828	65.3456	67.3828	65.1553	67.3828	65.2816	67.3828	65.11	67.3828	65.2221	67.3828	65.0743	67.3828	65.169	67.3828	65.0482	67.3828	65.1237	67.3828	65.0312	67.3828	65.0868	67.3828	65.0223	67.3828	65.0585	67.3828	65.0207	67.3828	65.0385	67.3828	65.026
