"SPL Horizontal"
"On-Axis"		"10°"		"-10°"		"20°"		"-20°"		"30°"		"-30°"		"40°"		"-40°"		"50°"		"-50°"		"60°"		"-60°"		"70°"		"-70°"		"80°"		"-80°"		"90°"		"-90°"		"100°"		"-100°"		"110°"		"-110°"		"120°"		"-120°"		"130°"		"-130°"		"140°"		"-140°"		"150°"		"-150°"		"160°"		"-160°"		"170°"		"-170°"		"180°"
"Frequency / Hz"	"Sound Pressure Level / dB (re 20 µPa/V)  [2.83  V @ 1. m]"	"Frequency / Hz"	"Sound Pressure Level / dB (re 20 µPa/V)  [2.83  V @ 1. m]"	"Frequency / Hz"	"Sound Pressure Level / dB (re 20 µPa/V)  [2.83  V @ 1. m]"	"Frequency / Hz"	"Sound Pressure Level / dB (re 20 µPa/V)  [2.83  V @ 1. m]"	"Frequency / Hz"	"Sound Pressure Level / dB (re 20 µPa/V)  [2.83  V @ 1. m]"	"Frequency / Hz"	"Sound Pressure Level / dB (re 20 µPa/V)  [2.83  V @ 1. m]"	"Frequency / Hz"	"Sound Pressure Level / dB (re 20 µPa/V)  [2.83  V @ 1. m]"	"Frequency / Hz"	"Sound Pressure Level / dB (re 20 µPa/V)  [2.83  V @ 1. m]"	"Frequency / Hz"	"Sound Pressure Level / dB (re 20 µPa/V)  [2.83  V @ 1. m]"	"Frequency / Hz"	"Sound Pressure Level / dB (re 20 µPa/V)  [2.83  V @ 1. m]"	"Frequency / Hz"	"Sound Pressure Level / dB (re 20 µPa/V)  [2.83  V @ 1. m]"	"Frequency / Hz"	"Sound Pressure Level / dB (re 20 µPa/V)  [2.83  V @ 1. m]"	"Frequency / Hz"	"Sound Pressure Level / dB (re 20 µPa/V)  [2.83  V @ 1. m]"	"Frequency / Hz"	"Sound Pressure Level / dB (re 20 µPa/V)  [2.83  V @ 1. m]"	"Frequency / Hz"	"Sound Pressure Level / dB (re 20 µPa/V)  [2.83  V @ 1. m]"	"Frequency / Hz"	"Sound Pressure Level / dB (re 20 µPa/V)  [2.83  V @ 1. m]"	"Frequency / Hz"	"Sound Pressure Level / dB (re 20 µPa/V)  [2.83  V @ 1. m]"	"Frequency / Hz"	"Sound Pressure Level / dB (re 20 µPa/V)  [2.83  V @ 1. m]"	"Frequency / Hz"	"Sound Pressure Level / dB (re 20 µPa/V)  [2.83  V @ 1. m]"	"Frequency / Hz"	"Sound Pressure Level / dB (re 20 µPa/V)  [2.83  V @ 1. m]"	"Frequency / Hz"	"Sound Pressure Level / dB (re 20 µPa/V)  [2.83  V @ 1. m]"	"Frequency / Hz"	"Sound Pressure Level / dB (re 20 µPa/V)  [2.83  V @ 1. m]"	"Frequency / Hz"	"Sound Pressure Level / dB (re 20 µPa/V)  [2.83  V @ 1. m]"	"Frequency / Hz"	"Sound Pressure Level / dB (re 20 µPa/V)  [2.83  V @ 1. m]"	"Frequency / Hz"	"Sound Pressure Level / dB (re 20 µPa/V)  [2.83  V @ 1. m]"	"Frequency / Hz"	"Sound Pressure Level / dB (re 20 µPa/V)  [2.83  V @ 1. m]"	"Frequency / Hz"	"Sound Pressure Level / dB (re 20 µPa/V)  [2.83  V @ 1. m]"	"Frequency / Hz"	"Sound Pressure Level / dB (re 20 µPa/V)  [2.83  V @ 1. m]"	"Frequency / Hz"	"Sound Pressure Level / dB (re 20 µPa/V)  [2.83  V @ 1. m]"	"Frequency / Hz"	"Sound Pressure Level / dB (re 20 µPa/V)  [2.83  V @ 1. m]"	"Frequency / Hz"	"Sound Pressure Level / dB (re 20 µPa/V)  [2.83  V @ 1. m]"	"Frequency / Hz"	"Sound Pressure Level / dB (re 20 µPa/V)  [2.83  V @ 1. m]"	"Frequency / Hz"	"Sound Pressure Level / dB (re 20 µPa/V)  [2.83  V @ 1. m]"	"Frequency / Hz"	"Sound Pressure Level / dB (re 20 µPa/V)  [2.83  V @ 1. m]"	"Frequency / Hz"	"Sound Pressure Level / dB (re 20 µPa/V)  [2.83  V @ 1. m]"	"Frequency / Hz"	"Sound Pressure Level / dB (re 20 µPa/V)  [2.83  V @ 1. m]"
20.5078	60.5117	20.5078	60.5218	20.5078	60.5193	20.5078	60.5514	20.5078	60.542	20.5078	60.6011	20.5078	60.5774	20.5078	60.6702	20.5078	60.624	20.5078	60.7559	20.5078	60.6815	20.5078	60.8547	20.5078	60.7516	20.5078	60.9626	20.5078	60.8369	20.5078	61.0765	20.5078	60.9395	20.5078	61.1946	20.5078	61.0595	20.5078	61.3153	20.5078	61.1926	20.5078	61.4361	20.5078	61.3304	20.5078	61.5523	20.5078	61.4617	20.5078	61.6564	20.5078	61.5756	20.5078	61.7404	20.5078	61.6656	20.5078	61.7982	20.5078	61.7309	20.5078	61.8289	20.5078	61.7758	20.5078	61.8362	20.5078	61.8066	20.5078	61.827
21.9727	63.9375	21.9727	63.9324	21.9727	63.9234	21.9727	63.9095	21.9727	63.8884	21.9727	63.8704	21.9727	63.8309	21.9727	63.8164	21.9727	63.7495	21.9727	63.7484	21.9727	63.6425	21.9727	63.667	21.9727	63.5085	21.9727	63.5724	21.9727	63.3465	21.9727	63.4645	21.9727	63.1568	21.9727	63.3427	21.9727	62.9424	21.9727	63.2067	21.9727	62.71	21.9727	63.0563	21.9727	62.4716	21.9727	62.8924	21.9727	62.244	21.9727	62.7175	21.9727	62.0463	21.9727	62.5363	21.9727	61.8966	21.9727	62.3553	21.9727	61.8071	21.9727	62.183	21.9727	61.7819	21.9727	62.0287	21.9727	61.817	21.9727	61.903
23.4375	69.2981	23.4375	69.2972	23.4375	69.2948	23.4375	69.293	23.4375	69.2867	23.4375	69.2862	23.4375	69.2733	23.4375	69.2775	23.4375	69.2544	23.4375	69.2674	23.4375	69.2306	23.4375	69.2562	23.4375	69.2028	23.4375	69.2444	23.4375	69.1729	23.4375	69.2327	23.4375	69.143	23.4375	69.2223	23.4375	69.1154	23.4375	69.2143	23.4375	69.0923	23.4375	69.2098	23.4375	69.0755	23.4375	69.2089	23.4375	69.0662	23.4375	69.2103	23.4375	69.0654	23.4375	69.2113	23.4375	69.0731	23.4375	69.2088	23.4375	69.0888	23.4375	69.2002	23.4375	69.1109	23.4375	69.1844	23.4375	69.1366	23.4375	69.1623
24.9023	70.9254	24.9023	70.9202	24.9023	70.929	24.9023	70.9138	24.9023	70.9305	24.9023	70.9062	24.9023	70.9293	24.9023	70.8972	24.9023	70.9247	24.9023	70.8865	24.9023	70.9162	24.9023	70.8736	24.9023	70.9036	24.9023	70.8579	24.9023	70.8869	24.9023	70.8391	24.9023	70.8665	24.9023	70.8174	24.9023	70.843	24.9023	70.7933	24.9023	70.8172	24.9023	70.768	24.9023	70.7899	24.9023	70.7426	24.9023	70.7622	24.9023	70.7185	24.9023	70.735	24.9023	70.6969	24.9023	70.7097	24.9023	70.6787	24.9023	70.6877	24.9023	70.6649	24.9023	70.6704	24.9023	70.6566	24.9023	70.659	24.9023	70.6544
26.3672	72.0932	26.3672	72.0635	26.3672	72.1239	26.3672	72.0358	26.3672	72.1546	26.3672	72.0111	26.3672	72.1845	26.3672	71.9903	26.3672	72.2128	26.3672	71.9744	26.3672	72.239	26.3672	71.9636	26.3672	72.2626	26.3672	71.9583	26.3672	72.283	26.3672	71.9582	26.3672	72.2998	26.3672	71.9632	26.3672	72.3122	26.3672	71.973	26.3672	72.3193	26.3672	71.9872	26.3672	72.3202	26.3672	72.005	26.3672	72.314	26.3672	72.026	26.3672	72.3004	26.3672	72.0493	26.3672	72.2796	26.3672	72.0744	26.3672	72.2532	26.3672	72.1011	26.3672	72.223	26.3672	72.1296	26.3672	72.1912	26.3672	72.1597
27.832	72.7791	27.832	72.7637	27.832	72.7907	27.832	72.7444	27.832	72.7983	27.832	72.7212	27.832	72.8018	27.832	72.6941	27.832	72.8009	27.832	72.6629	27.832	72.7954	27.832	72.6277	27.832	72.7848	27.832	72.5891	27.832	72.7687	27.832	72.5478	27.832	72.7471	27.832	72.5052	27.832	72.7198	27.832	72.4632	27.832	72.6871	27.832	72.4238	27.832	72.6497	27.832	72.3896	27.832	72.6084	27.832	72.3627	27.832	72.5647	27.832	72.3447	27.832	72.5202	27.832	72.3365	27.832	72.4767	27.832	72.3386	27.832	72.4362	27.832	72.3505	27.832	72.4006	27.832	72.3715
29.2969	76.505	29.2969	76.4984	29.2969	76.5063	29.2969	76.4866	29.2969	76.5023	29.2969	76.4699	29.2969	76.4927	29.2969	76.4483	29.2969	76.4776	29.2969	76.4222	29.2969	76.4569	29.2969	76.3918	29.2969	76.4309	29.2969	76.3578	29.2969	76.4	29.2969	76.3211	29.2969	76.365	29.2969	76.2827	29.2969	76.3268	29.2969	76.2443	29.2969	76.2867	29.2969	76.2073	29.2969	76.2461	29.2969	76.1733	29.2969	76.2068	29.2969	76.1435	29.2969	76.1702	29.2969	76.1186	29.2969	76.1382	29.2969	76.0992	29.2969	76.112	29.2969	76.0852	29.2969	76.0926	29.2969	76.0772	29.2969	76.0804	29.2969	76.0754
30.7617	77.1133	30.7617	77.1061	30.7617	77.1138	30.7617	77.0926	30.7617	77.1076	30.7617	77.0729	30.7617	77.0947	30.7617	77.0474	30.7617	77.075	30.7617	77.0163	30.7617	77.0489	30.7617	76.9801	30.7617	77.0166	30.7617	76.9391	30.7617	76.9788	30.7617	76.8941	30.7617	76.936	30.7617	76.8461	30.7617	76.8891	30.7617	76.7961	30.7617	76.8393	30.7617	76.7457	30.7617	76.7878	30.7617	76.6967	30.7617	76.7361	30.7617	76.6508	30.7617	76.6862	30.7617	76.61	30.7617	76.64	30.7617	76.5765	30.7617	76.5999	30.7617	76.5521	30.7617	76.5681	30.7617	76.5384	30.7617	76.5465	30.7617	76.5364
32.2266	78.3095	32.2266	78.2961	32.2266	78.3166	32.2266	78.2767	32.2266	78.3172	32.2266	78.2517	32.2266	78.3113	32.2266	78.2216	32.2266	78.2988	32.2266	78.1869	32.2266	78.2798	32.2266	78.1484	32.2266	78.2547	32.2266	78.1068	32.2266	78.2239	32.2266	78.0631	32.2266	78.1879	32.2266	78.0187	32.2266	78.1476	32.2266	77.9749	32.2266	78.1039	32.2266	77.9332	32.2266	78.0579	32.2266	77.8953	32.2266	78.0112	32.2266	77.8625	32.2266	77.9655	32.2266	77.8361	32.2266	77.9224	32.2266	77.817	32.2266	77.8839	32.2266	77.8061	32.2266	77.8516	32.2266	77.804	32.2266	77.827	32.2266	77.811
33.6914	79.5522	33.6914	79.541	33.6914	79.5556	33.6914	79.5221	33.6914	79.5511	33.6914	79.496	33.6914	79.5388	33.6914	79.4629	33.6914	79.5189	33.6914	79.4236	33.6914	79.4917	33.6914	79.3788	33.6914	79.4579	33.6914	79.3293	33.6914	79.4181	33.6914	79.2764	33.6914	79.3733	33.6914	79.2215	33.6914	79.3243	33.6914	79.1661	33.6914	79.2725	33.6914	79.1123	33.6914	79.2191	33.6914	79.062	33.6914	79.1656	33.6914	79.0173	33.6914	79.1134	33.6914	78.9803	33.6914	79.0645	33.6914	78.9528	33.6914	79.0206	33.6914	78.9361	33.6914	78.9837	33.6914	78.9309	33.6914	78.9555	33.6914	78.9376
35.1562	80.9494	35.1562	80.9393	35.1562	80.9499	35.1562	80.92	35.1562	80.9409	35.1562	80.8917	35.1562	80.9224	35.1562	80.8552	35.1562	80.8948	35.1562	80.8112	35.1562	80.8587	35.1562	80.7607	35.1562	80.8148	35.1562	80.705	35.1562	80.764	35.1562	80.6454	35.1562	80.7076	35.1562	80.5836	35.1562	80.6468	35.1562	80.5214	35.1562	80.5834	35.1562	80.4605	35.1562	80.5193	35.1562	80.403	35.1562	80.4567	35.1562	80.3507	35.1562	80.3977	35.1562	80.3056	35.1562	80.3446	35.1562	80.2696	35.1562	80.2996	35.1562	80.2441	35.1562	80.2644	35.1562	80.2304	35.1562	80.2407	35.1562	80.2292
36.6211	81.8019	36.6211	81.7913	36.6211	81.8027	36.6211	81.7712	36.6211	81.7938	36.6211	81.7421	36.6211	81.7752	36.6211	81.7047	36.6211	81.7474	36.6211	81.66	36.6211	81.711	36.6211	81.6092	36.6211	81.6667	36.6211	81.5536	36.6211	81.6156	36.6211	81.495	36.6211	81.5591	36.6211	81.435	36.6211	81.4988	36.6211	81.3755	36.6211	81.4367	36.6211	81.3184	36.6211	81.3748	36.6211	81.2655	36.6211	81.3156	36.6211	81.2184	36.6211	81.2611	36.6211	81.1787	36.6211	81.2133	36.6211	81.1476	36.6211	81.1738	36.6211	81.1261	36.6211	81.1436	36.6211	81.1147	36.6211	81.1235	36.6211	81.1138
38.0859	82.4091	38.0859	82.3953	38.0859	82.411	38.0859	82.3699	38.0859	82.4007	38.0859	82.3334	38.0859	82.3784	38.0859	82.2866	38.0859	82.3444	38.0859	82.2305	38.0859	82.2991	38.0859	82.1663	38.0859	82.2432	38.0859	82.0954	38.0859	82.1779	38.0859	82.0196	38.0859	82.1044	38.0859	81.9407	38.0859	82.0244	38.0859	81.861	38.0859	81.9401	38.0859	81.7826	38.0859	81.8543	38.0859	81.708	38.0859	81.77	38.0859	81.6398	38.0859	81.6905	38.0859	81.5803	38.0859	81.6193	38.0859	81.5318	38.0859	81.5597	38.0859	81.4965	38.0859	81.5141	38.0859	81.4761	38.0859	81.4846	38.0859	81.4719
39.5508	83.2275	39.5508	83.215	39.5508	83.2272	39.5508	83.1898	39.5508	83.2139	39.5508	83.1525	39.5508	83.1878	39.5508	83.1039	39.5508	83.1493	39.5508	83.045	39.5508	83.099	39.5508	82.9771	39.5508	83.0375	39.5508	82.9019	39.5508	82.966	39.5508	82.8211	39.5508	82.8855	39.5508	82.7368	39.5508	82.7978	39.5508	82.6513	39.5508	82.705	39.5508	82.5667	39.5508	82.6099	39.5508	82.4854	39.5508	82.5159	39.5508	82.4096	39.5508	82.4271	39.5508	82.3416	39.5508	82.3477	39.5508	82.2838	39.5508	82.2821	39.5508	82.2387	39.5508	82.2338	39.5508	82.209	39.5508	82.2052	39.5508	82.1972
41.0156	84.0111	41.0156	83.9846	41.0156	84.0299	41.0156	83.9506	41.0156	84.0407	41.0156	83.9098	41.0156	84.0438	41.0156	83.8631	41.0156	84.0394	41.0156	83.8119	41.0156	84.0278	41.0156	83.7581	41.0156	84.0095	41.0156	83.7038	41.0156	83.985	41.0156	83.6514	41.0156	83.9548	41.0156	83.6034	41.0156	83.9196	41.0156	83.5623	41.0156	83.8803	41.0156	83.5303	41.0156	83.8385	41.0156	83.5088	41.0156	83.7958	41.0156	83.4989	41.0156	83.754	41.0156	83.5002	41.0156	83.7144	41.0156	83.5116	41.0156	83.6779	41.0156	83.5308	41.0156	83.6443	41.0156	83.5554	41.0156	83.6128	41.0156	83.5831
42.4805	84.2189	42.4805	84.2126	42.4805	84.214	42.4805	84.1951	42.4805	84.1981	42.4805	84.167	42.4805	84.1719	42.4805	84.1288	42.4805	84.1362	42.4805	84.0817	42.4805	84.0923	42.4805	84.027	42.4805	84.0419	42.4805	83.9665	42.4805	83.987	42.4805	83.9024	42.4805	83.9298	42.4805	83.8372	42.4805	83.8723	42.4805	83.7736	42.4805	83.8167	42.4805	83.7144	42.4805	83.7645	42.4805	83.6623	42.4805	83.7169	42.4805	83.6193	42.4805	83.6749	42.4805	83.5866	42.4805	83.6388	42.4805	83.5646	42.4805	83.6087	42.4805	83.5526	42.4805	83.5846	42.4805	83.5497	42.4805	83.5665	42.4805	83.5547
43.9453	84.7901	43.9453	84.7878	43.9453	84.7815	43.9453	84.7747	43.9453	84.762	43.9453	84.7512	43.9453	84.7322	43.9453	84.7181	43.9453	84.6929	43.9453	84.6764	43.9453	84.6454	43.9453	84.6274	43.9453	84.5915	43.9453	84.573	43.9453	84.5335	43.9453	84.515	43.9453	84.474	43.9453	84.456	43.9453	84.4155	43.9453	84.3981	43.9453	84.3607	43.9453	84.3439	43.9453	84.3118	43.9453	84.2954	43.9453	84.2704	43.9453	84.2543	43.9453	84.2371	43.9453	84.2217	43.9453	84.2117	43.9453	84.1977	43.9453	84.1934	43.9453	84.182	43.9453	84.1811	43.9453	84.1736	43.9453	84.1738	43.9453	84.1712
45.4102	85.1827	45.4102	85.1778	45.4102	85.1758	45.4102	85.1614	45.4102	85.1574	45.4102	85.134	45.4102	85.1278	45.4102	85.0967	45.4102	85.0879	45.4102	85.0506	45.4102	85.039	45.4102	84.9974	45.4102	84.9828	45.4102	84.9389	45.4102	84.9216	45.4102	84.8774	45.4102	84.8579	45.4102	84.8153	45.4102	84.7943	45.4102	84.7549	45.4102	84.7336	45.4102	84.6986	45.4102	84.6781	45.4102	84.6482	45.4102	84.6299	45.4102	84.6052	45.4102	84.5902	45.4102	84.5706	45.4102	84.5593	45.4102	84.5445	45.4102	84.5368	45.4102	84.5265	45.4102	84.522	45.4102	84.5158	45.4102	84.5138	45.4102	84.5118
46.875	85.5886	46.875	85.5835	46.875	85.5808	46.875	85.5655	46.875	85.56	46.875	85.5355	46.875	85.5268	46.875	85.4946	46.875	85.4821	46.875	85.4441	46.875	85.4272	46.875	85.3858	46.875	85.3642	46.875	85.3219	46.875	85.2953	46.875	85.2547	46.875	85.2232	46.875	85.1868	46.875	85.151	46.875	85.1207	46.875	85.0819	46.875	85.059	46.875	85.0187	46.875	85.0037	46.875	84.9641	46.875	84.9566	46.875	84.9198	46.875	84.9183	46.875	84.8864	46.875	84.8889	46.875	84.8636	46.875	84.8677	46.875	84.8503	46.875	84.8538	46.875	84.8449	46.875	84.8463
48.3398	86.1346	48.3398	86.1314	48.3398	86.1231	48.3398	86.1136	48.3398	86.0969	48.3398	86.0821	48.3398	86.0567	48.3398	86.0378	48.3398	86.0036	48.3398	85.9825	48.3398	85.9391	48.3398	85.9179	48.3398	85.8653	48.3398	85.8464	48.3398	85.7849	48.3398	85.7704	48.3398	85.701	48.3398	85.6929	48.3398	85.6169	48.3398	85.6165	48.3398	85.5363	48.3398	85.5441	48.3398	85.4625	48.3398	85.4781	48.3398	85.3985	48.3398	85.4202	48.3398	85.3464	48.3398	85.3717	48.3398	85.3074	48.3398	85.3327	48.3398	85.2812	48.3398	85.303	48.3398	85.267	48.3398	85.2817	48.3398	85.2632	48.3398	85.2684
51.2695	86.9371	51.2695	86.9354	51.2695	86.9207	51.2695	86.9159	51.2695	86.8863	51.2695	86.8793	51.2695	86.8344	51.2695	86.8269	51.2695	86.7661	51.2695	86.7602	51.2695	86.6829	51.2695	86.6813	51.2695	86.5868	51.2695	86.5927	51.2695	86.4805	51.2695	86.4972	51.2695	86.3674	51.2695	86.3979	51.2695	86.2514	51.2695	86.298	51.2695	86.1367	51.2695	86.2002	51.2695	86.0282	51.2695	86.107	51.2695	85.9307	51.2695	86.0205	51.2695	85.8483	51.2695	85.9422	51.2695	85.7845	51.2695	85.8732	51.2695	85.7415	51.2695	85.8147	51.2695	85.7196	51.2695	85.768	51.2695	85.7181	51.2695	85.7351
52.7344	87.0814	52.7344	87.0746	52.7344	87.071	52.7344	87.051	52.7344	87.0434	52.7344	87.0115	52.7344	86.9987	52.7344	86.9573	52.7344	86.9376	52.7344	86.8897	52.7344	86.8613	52.7344	86.8107	52.7344	86.7714	52.7344	86.7225	52.7344	86.67	52.7344	86.6276	52.7344	86.5602	52.7344	86.5287	52.7344	86.4454	52.7344	86.4286	52.7344	86.3299	52.7344	86.3299	52.7344	86.2184	52.7344	86.2352	52.7344	86.1156	52.7344	86.1469	52.7344	86.026	52.7344	86.067	52.7344	85.9536	52.7344	85.9973	52.7344	85.901	52.7344	85.9398	52.7344	85.8695	52.7344	85.8962	52.7344	85.8591	52.7344	85.8686
54.1992	87.3406	54.1992	87.3269	54.1992	87.3406	54.1992	87.3001	54.1992	87.3267	54.1992	87.2612	54.1992	87.2987	54.1992	87.2111	54.1992	87.2567	54.1992	87.1512	54.1992	87.2015	54.1992	87.0831	54.1992	87.1342	54.1992	87.0086	54.1992	87.0564	54.1992	86.9298	54.1992	86.9706	54.1992	86.8491	54.1992	86.8797	54.1992	86.7688	54.1992	86.7873	54.1992	86.6915	54.1992	86.6973	54.1992	86.6193	54.1992	86.6135	54.1992	86.5542	54.1992	86.5395	54.1992	86.4979	54.1992	86.4782	54.1992	86.4516	54.1992	86.4314	54.1992	86.4162	54.1992	86.3997	54.1992	86.3924	54.1992	86.3832	54.1992	86.3811
55.6641	87.7736	55.6641	87.7605	55.6641	87.7732	55.6641	87.7346	55.6641	87.7589	55.6641	87.697	55.6641	87.7309	55.6641	87.6489	55.6641	87.6895	55.6641	87.5922	55.6641	87.6357	55.6641	87.5288	55.6641	87.571	55.6641	87.4609	55.6641	87.4978	55.6641	87.3907	55.6641	87.4186	55.6641	87.3207	55.6641	87.3367	55.6641	87.253	55.6641	87.2558	55.6641	87.1895	55.6641	87.1793	55.6641	87.1318	55.6641	87.1106	55.6641	87.081	55.6641	87.0524	55.6641	87.0378	55.6641	87.0063	55.6641	87.0024	55.6641	86.9731	55.6641	86.9751	55.6641	86.9525	55.6641	86.9558	55.6641	86.9436	55.6641	86.9451
58.5938	88.1882	58.5938	88.1714	58.5938	88.19	58.5938	88.1403	58.5938	88.1765	58.5938	88.0963	58.5938	88.1479	58.5938	88.0411	58.5938	88.1053	58.5938	87.9769	58.5938	88.05	58.5938	87.9063	58.5938	87.9843	58.5938	87.8322	58.5938	87.9107	58.5938	87.7576	58.5938	87.8324	58.5938	87.6853	58.5938	87.7531	58.5938	87.618	58.5938	87.6763	58.5938	87.5579	58.5938	87.6054	58.5938	87.5066	58.5938	87.5432	58.5938	87.465	58.5938	87.4913	58.5938	87.433	58.5938	87.4507	58.5938	87.41	58.5938	87.421	58.5938	87.3949	58.5938	87.401	58.5938	87.3867	58.5938	87.3894	58.5938	87.3849
60.0586	88.4101	60.0586	88.3877	60.0586	88.4155	60.0586	88.3492	60.0586	88.4034	60.0586	88.2961	60.0586	88.3741	60.0586	88.2304	60.0586	88.3287	60.0586	88.1549	60.0586	88.2685	60.0586	88.0723	60.0586	88.196	60.0586	87.9861	60.0586	88.1139	60.0586	87.8997	60.0586	88.0255	60.0586	87.8164	60.0586	87.9348	60.0586	87.7392	60.0586	87.8456	60.0586	87.6707	60.0586	87.7618	60.0586	87.6127	60.0586	87.6868	60.0586	87.5659	60.0586	87.6231	60.0586	87.5306	60.0586	87.572	60.0586	87.5058	60.0586	87.5337	60.0586	87.4903	60.0586	87.5072	60.0586	87.483	60.0586	87.4909	60.0586	87.4831
62.9883	88.8128	62.9883	88.7904	62.9883	88.8179	62.9883	88.7515	62.9883	88.8054	62.9883	88.6977	62.9883	88.7758	62.9883	88.6309	62.9883	88.7303	62.9883	88.5541	62.9883	88.6707	62.9883	88.4706	62.9883	88.5995	62.9883	88.3839	62.9883	88.5198	62.9883	88.2981	62.9883	88.4351	62.9883	88.2169	62.9883	88.3495	62.9883	88.1438	62.9883	88.2667	62.9883	88.0814	62.9883	88.1904	62.9883	88.0313	62.9883	88.1236	62.9883	87.9939	62.9883	88.0681	62.9883	87.9684	62.9883	88.0246	62.9883	87.953	62.9883	87.9926	62.9883	87.9457	62.9883	87.9705	62.9883	87.9444	62.9883	87.9562	62.9883	87.9479
64.4531	89.0013	64.4531	88.9779	64.4531	89.0067	64.4531	88.9374	64.4531	88.9939	64.4531	88.8815	64.4531	88.9634	64.4531	88.8124	64.4531	88.9165	64.4531	88.7331	64.4531	88.8552	64.4531	88.6472	64.4531	88.7821	64.4531	88.5584	64.4531	88.7005	64.4531	88.4711	64.4531	88.6142	64.4531	88.3893	64.4531	88.5275	64.4531	88.3165	64.4531	88.4444	64.4531	88.2554	64.4531	88.3687	64.4531	88.2075	64.4531	88.3032	64.4531	88.173	64.4531	88.2498	64.4531	88.1507	64.4531	88.2089	64.4531	88.1386	64.4531	88.1795	64.4531	88.1341	64.4531	88.1597	64.4531	88.1346	64.4531	88.1469	64.4531	88.139
67.3828	89.3496	67.3828	89.3189	67.3828	89.3605	67.3828	89.2693	67.3828	89.3514	67.3828	89.2025	67.3828	89.3228	67.3828	89.121	67.3828	89.2762	67.3828	89.0281	67.3828	89.2136	67.3828	88.9278	67.3828	89.1379	67.3828	88.8248	67.3828	89.0527	67.3828	88.7241	67.3828	88.9621	67.3828	88.6307	67.3828	88.8707	67.3828	88.5492	67.3828	88.7828	67.3828	88.4831	67.3828	88.7023	67.3828	88.4345	67.3828	88.6323	67.3828	88.4037	67.3828	88.5743	67.3828	88.3891	67.3828	88.5285	67.3828	88.3876	67.3828	88.4933	67.3828	88.3955	67.3828	88.4662	67.3828	88.409	67.3828	88.4444	67.3828	88.4256
