"SPL Horizontal"
"On-Axis"		"10°"		"-10°"		"20°"		"-20°"		"30°"		"-30°"		"40°"		"-40°"		"50°"		"-50°"		"60°"		"-60°"		"70°"		"-70°"		"80°"		"-80°"		"90°"		"-90°"		"100°"		"-100°"		"110°"		"-110°"		"120°"		"-120°"		"130°"		"-130°"		"140°"		"-140°"		"150°"		"-150°"		"160°"		"-160°"		"170°"		"-170°"		"180°"
"Frequency [Hz]"	"Sound Pessure Level [dB]   [0.3V at 1m]"	"Frequency [Hz]"	"Sound Pessure Level [dB]   [0.3V at 1m]"	"Frequency [Hz]"	"Sound Pessure Level [dB]   [0.3V at 1m]"	"Frequency [Hz]"	"Sound Pessure Level [dB]   [0.3V at 1m]"	"Frequency [Hz]"	"Sound Pessure Level [dB]   [0.3V at 1m]"	"Frequency [Hz]"	"Sound Pessure Level [dB]   [0.3V at 1m]"	"Frequency [Hz]"	"Sound Pessure Level [dB]   [0.3V at 1m]"	"Frequency [Hz]"	"Sound Pessure Level [dB]   [0.3V at 1m]"	"Frequency [Hz]"	"Sound Pessure Level [dB]   [0.3V at 1m]"	"Frequency [Hz]"	"Sound Pessure Level [dB]   [0.3V at 1m]"	"Frequency [Hz]"	"Sound Pessure Level [dB]   [0.3V at 1m]"	"Frequency [Hz]"	"Sound Pessure Level [dB]   [0.3V at 1m]"	"Frequency [Hz]"	"Sound Pessure Level [dB]   [0.3V at 1m]"	"Frequency [Hz]"	"Sound Pessure Level [dB]   [0.3V at 1m]"	"Frequency [Hz]"	"Sound Pessure Level [dB]   [0.3V at 1m]"	"Frequency [Hz]"	"Sound Pessure Level [dB]   [0.3V at 1m]"	"Frequency [Hz]"	"Sound Pessure Level [dB]   [0.3V at 1m]"	"Frequency [Hz]"	"Sound Pessure Level [dB]   [0.3V at 1m]"	"Frequency [Hz]"	"Sound Pessure Level [dB]   [0.3V at 1m]"	"Frequency [Hz]"	"Sound Pessure Level [dB]   [0.3V at 1m]"	"Frequency [Hz]"	"Sound Pessure Level [dB]   [0.3V at 1m]"	"Frequency [Hz]"	"Sound Pessure Level [dB]   [0.3V at 1m]"	"Frequency [Hz]"	"Sound Pessure Level [dB]   [0.3V at 1m]"	"Frequency [Hz]"	"Sound Pessure Level [dB]   [0.3V at 1m]"	"Frequency [Hz]"	"Sound Pessure Level [dB]   [0.3V at 1m]"	"Frequency [Hz]"	"Sound Pessure Level [dB]   [0.3V at 1m]"	"Frequency [Hz]"	"Sound Pessure Level [dB]   [0.3V at 1m]"	"Frequency [Hz]"	"Sound Pessure Level [dB]   [0.3V at 1m]"	"Frequency [Hz]"	"Sound Pessure Level [dB]   [0.3V at 1m]"	"Frequency [Hz]"	"Sound Pessure Level [dB]   [0.3V at 1m]"	"Frequency [Hz]"	"Sound Pessure Level [dB]   [0.3V at 1m]"	"Frequency [Hz]"	"Sound Pessure Level [dB]   [0.3V at 1m]"	"Frequency [Hz]"	"Sound Pessure Level [dB]   [0.3V at 1m]"	"Frequency [Hz]"	"Sound Pessure Level [dB]   [0.3V at 1m]"	"Frequency [Hz]"	"Sound Pessure Level [dB]   [0.3V at 1m]"	"Frequency [Hz]"	"Sound Pessure Level [dB]   [0.3V at 1m]"
20.5078	61.6423	20.5078	61.5837	20.5078	61.6111	20.5078	61.4363	20.5078	61.499	20.5078	61.2116	20.5078	61.3264	20.5078	60.9353	20.5078	61.1307	20.5078	60.6541	20.5078	60.9708	20.5078	60.4427	20.5078	60.9258	20.5078	60.3998	20.5078	61.0784	20.5078	60.6208	20.5078	61.4801	20.5078	61.1492	20.5078	62.1217	20.5078	61.945	20.5078	62.9369	20.5078	62.9062	20.5078	63.8349	20.5078	63.9189	20.5078	64.7317	20.5078	64.8901	20.5078	65.5626	20.5078	65.7551	20.5078	66.282	20.5078	66.4724	20.5078	66.8578	20.5078	67.0164	20.5078	67.2677	20.5078	67.3721	20.5078	67.4958	20.5078	67.5322
21.9727	61.8942	21.9727	61.8133	21.9727	61.8018	21.9727	61.5559	21.9727	61.5411	21.9727	61.122	21.9727	61.1244	21.9727	60.5229	21.9727	60.5828	21.9727	59.8017	21.9727	59.9919	21.9727	59.0789	21.9727	59.5064	21.9727	58.6076	21.9727	59.3655	21.9727	58.7275	21.9727	59.7794	21.9727	59.5859	21.9727	60.7401	21.9727	60.9591	21.9727	62.0269	21.9727	62.4991	21.9727	63.3962	21.9727	63.973	21.9727	64.6901	21.9727	65.2725	21.9727	65.8285	21.9727	66.3569	21.9727	66.7746	21.9727	67.2129	21.9727	67.5112	21.9727	67.8373	21.9727	68.0295	21.9727	68.23	21.9727	68.3242	21.9727	68.3918
23.4375	61.803	23.4375	61.7629	23.4375	61.6367	23.4375	61.5209	23.4375	61.264	23.4375	61.0896	23.4375	60.6957	23.4375	60.5069	23.4375	59.977	23.4375	59.8738	23.4375	59.2411	23.4375	59.4102	23.4375	58.7821	23.4375	59.4481	23.4375	58.9975	23.4375	60.2066	23.4375	60.0315	23.4375	61.5473	23.4375	61.5903	23.4375	63.1333	23.4375	63.2862	23.4375	64.704	23.4375	64.89	23.4375	66.1291	23.4375	66.3081	23.4375	67.3568	23.4375	67.5111	23.4375	68.3692	23.4375	68.4923	23.4375	69.1611	23.4375	69.2518	23.4375	69.7311	23.4375	69.7903	23.4375	70.0788	23.4375	70.108	23.4375	70.2043
24.9023	63.084	24.9023	62.9935	24.9023	63.0669	24.9023	62.8048	24.9023	62.959	24.9023	62.5583	24.9023	62.8064	24.9023	62.3387	24.9023	62.6928	24.9023	62.2811	24.9023	62.74	24.9023	62.5416	24.9023	63.0761	24.9023	63.2114	24.9023	63.7676	24.9023	64.246	24.9023	64.7716	24.9023	65.5006	24.9023	65.9661	24.9023	66.8227	24.9023	67.2207	24.9023	68.1028	24.9023	68.4372	24.9023	69.2761	24.9023	69.5533	24.9023	70.3062	24.9023	70.532	24.9023	71.1728	24.9023	71.3509	24.9023	71.8629	24.9023	71.9957	24.9023	72.3681	24.9023	72.4564	24.9023	72.6824	24.9023	72.7266	24.9023	72.8023
26.3672	69.128	26.3672	69.076	26.3672	69.1072	26.3672	68.9533	26.3672	69.0205	26.3672	68.7725	26.3672	68.8853	26.3672	68.5594	26.3672	68.7313	26.3672	68.3578	26.3672	68.6029	26.3672	68.2304	26.3672	68.5583	26.3672	68.2515	26.3672	68.6589	26.3672	68.4844	26.3672	68.949	26.3672	68.9513	26.3672	69.4351	26.3672	69.6187	26.3672	70.0808	26.3672	70.4124	26.3672	70.8219	26.3672	71.2479	26.3672	71.5886	26.3672	72.0517	26.3672	72.3201	26.3672	72.769	26.3672	72.9694	26.3672	73.3619	26.3672	73.5022	26.3672	73.8058	26.3672	73.8939	26.3672	74.0854	26.3672	74.1277	26.3672	74.1931
27.832	68.1205	27.832	67.9948	27.832	68.0626	27.832	67.689	27.832	67.8192	27.832	67.2115	27.832	67.3916	27.832	66.5866	27.832	66.7926	27.832	65.8794	27.832	66.0678	27.832	65.2372	27.832	65.3382	27.832	64.9173	27.832	64.8511	27.832	65.1897	27.832	64.9317	27.832	66.0972	27.832	65.7229	27.832	67.4053	27.832	67.0191	27.832	68.8291	27.832	68.4907	27.832	70.1842	27.832	69.9105	27.832	71.3807	27.832	71.1694	27.832	72.38	27.832	72.2231	27.832	73.1648	27.832	73.0545	27.832	73.7264	27.832	73.6563	27.832	74.0592	27.832	74.0251	27.832	74.1594
29.2969	67.7123	29.2969	67.6995	29.2969	67.5923	29.2969	67.569	29.2969	67.3424	29.2969	67.3563	29.2969	66.9892	29.2969	67.1271	29.2969	66.5986	29.2969	66.9859	29.2969	66.2968	29.2969	67.0661	29.2969	66.2688	29.2969	67.4799	29.2969	66.6821	29.2969	68.2481	29.2969	67.5596	29.2969	69.2841	29.2969	68.7581	29.2969	70.4529	29.2969	70.0837	29.2969	71.6342	29.2969	71.3893	29.2969	72.7458	29.2969	72.5896	29.2969	73.737	29.2969	73.6407	29.2969	74.5775	29.2969	74.52	29.2969	75.248	29.2969	75.215	29.2969	75.7353	29.2969	75.7177	29.2969	76.0303	29.2969	76.0227	29.2969	76.127
30.7617	70.8151	30.7617	70.8386	30.7617	70.7359	30.7617	70.8107	30.7617	70.6108	30.7617	70.7501	30.7617	70.4657	30.7617	70.6917	30.7617	70.3457	30.7617	70.6865	30.7617	70.3144	30.7617	70.7965	30.7617	70.444	30.7617	71.0788	30.7617	70.7914	30.7617	71.5626	30.7617	71.3697	30.7617	72.2333	30.7617	72.1398	30.7617	73.0379	30.7617	73.0277	30.7617	73.9062	30.7617	73.9539	30.7617	74.7708	30.7617	74.851	30.7617	75.5771	30.7617	75.6693	30.7617	76.2847	30.7617	76.3736	30.7617	76.8648	30.7617	76.9396	30.7617	77.297	30.7617	77.3506	30.7617	77.5676	30.7617	77.5955	30.7617	77.6682
32.2266	72.7968	32.2266	72.7985	32.2266	72.7207	32.2266	72.7298	32.2266	72.5773	32.2266	72.6059	32.2266	72.3865	32.2266	72.4564	32.2266	72.1846	32.2266	72.3279	32.2266	72.0285	32.2266	72.2839	32.2266	71.9923	32.2266	72.3949	32.2266	72.1508	32.2266	72.7141	32.2266	72.5488	32.2266	73.2519	32.2266	73.1753	32.2266	73.9679	32.2266	73.9679	32.2266	74.7887	32.2266	74.8414	32.2266	75.6355	32.2266	75.7159	32.2266	76.4415	32.2266	76.5296	32.2266	77.1569	32.2266	77.2388	32.2266	77.7465	32.2266	77.8135	32.2266	78.1866	32.2266	78.2335	32.2266	78.4615	32.2266	78.4855	32.2266	78.5622
33.6914	74.0725	33.6914	74.083	33.6914	74.0006	33.6914	74.0361	33.6914	73.8748	33.6914	73.9485	33.6914	73.7165	33.6914	73.8503	33.6914	73.5633	33.6914	73.7873	33.6914	73.471	33.6914	73.8177	33.6914	73.5074	33.6914	74.0001	33.6914	73.7349	33.6914	74.3734	33.6914	74.1832	33.6914	74.9376	33.6914	74.8329	33.6914	75.6516	33.6914	75.6232	33.6914	76.4503	33.6914	76.4776	33.6914	77.2651	33.6914	77.3252	33.6914	78.0374	33.6914	78.1109	33.6914	78.7225	33.6914	78.7947	33.6914	79.2876	33.6914	79.3487	33.6914	79.7099	33.6914	79.7537	33.6914	79.974	33.6914	79.9967	33.6914	80.0708
35.1562	76.2347	35.1562	76.1991	35.1562	76.2097	35.1562	76.1033	35.1562	76.1337	35.1562	75.9588	35.1562	76.0279	35.1562	75.7907	35.1562	75.926	35.1562	75.6407	35.1562	75.8748	35.1562	75.5674	35.1562	75.9291	35.1562	75.638	35.1562	76.1387	35.1562	75.9081	35.1562	76.5298	35.1562	76.395	35.1562	77.0919	35.1562	77.0667	35.1562	77.7807	35.1562	77.8557	35.1562	78.5347	35.1562	78.6844	35.1562	79.2919	35.1562	79.4845	35.1562	79.9999	35.1562	80.2041	35.1562	80.6182	35.1562	80.8066	35.1562	81.1164	35.1562	81.2671	35.1562	81.4727	35.1562	81.5696	35.1562	81.6721	35.1562	81.7055
36.6211	77.044	36.6211	77.0136	36.6211	77.0407	36.6211	76.9541	36.6211	77.0093	36.6211	76.8805	36.6211	76.9651	36.6211	76.8192	36.6211	76.934	36.6211	76.8074	36.6211	76.9512	36.6211	76.8892	36.6211	77.0573	36.6211	77.105	36.6211	77.2886	36.6211	77.4782	36.6211	77.6655	36.6211	78.0037	36.6211	78.1826	36.6211	78.6482	36.6211	78.8094	36.6211	79.3607	36.6211	79.4991	36.6211	80.0866	36.6211	80.2007	36.6211	80.7766	36.6211	80.8674	36.6211	81.3911	36.6211	81.4604	36.6211	81.8996	36.6211	81.9495	36.6211	82.28	36.6211	82.3123	36.6211	82.5172	36.6211	82.533	36.6211	82.6024
38.0859	78.6762	38.0859	78.6367	38.0859	78.6933	38.0859	78.5811	38.0859	78.6908	38.0859	78.5249	38.0859	78.6803	38.0859	78.4932	38.0859	78.682	38.0859	78.5187	38.0859	78.7234	38.0859	78.6371	38.0859	78.8364	38.0859	78.8782	38.0859	79.0504	38.0859	79.2555	38.0859	79.3834	38.0859	79.7595	38.0859	79.8354	38.0859	80.3601	38.0859	80.3861	38.0859	81.014	38.0859	81	38.0859	81.6753	38.0859	81.6345	38.0859	82.3017	38.0859	82.2475	38.0859	82.858	38.0859	82.8019	38.0859	83.3161	38.0859	83.2671	38.0859	83.655	38.0859	83.6193	38.0859	83.8602	38.0859	83.8414	38.0859	83.9231
39.5508	80.0645	39.5508	80.0827	39.5508	80.0251	39.5508	80.0834	39.5508	79.9689	39.5508	80.0779	39.5508	79.9084	39.5508	80.0852	39.5508	79.8647	39.5508	80.1305	39.5508	79.8667	39.5508	80.2422	39.5508	79.9474	39.5508	80.4469	39.5508	80.1372	39.5508	80.761	39.5508	80.4548	39.5508	81.1848	39.5508	80.8987	39.5508	81.7008	39.5508	81.4466	39.5508	82.2768	39.5508	82.0607	39.5508	82.8735	39.5508	82.6965	39.5508	83.4507	39.5508	83.3108	39.5508	83.972	39.5508	83.8658	39.5508	84.407	39.5508	84.3309	39.5508	84.7318	39.5508	84.6828	39.5508	84.929	39.5508	84.9051	39.5508	84.9881
41.0156	81.8137	41.0156	81.8074	41.0156	81.8048	41.0156	81.7889	41.0156	81.7841	41.0156	81.7676	41.0156	81.7612	41.0156	81.7592	41.0156	81.7525	41.0156	81.7849	41.0156	81.7794	41.0156	81.8689	41.0156	81.8667	41.0156	82.0345	41.0156	82.0377	41.0156	82.2976	41.0156	82.3079	41.0156	82.6615	41.0156	82.6795	41.0156	83.1138	41.0156	83.1387	41.0156	83.6286	41.0156	83.6583	41.0156	84.1712	41.0156	84.203	41.0156	84.7044	41.0156	84.7354	41.0156	85.1929	41.0156	85.2207	41.0156	85.6065	41.0156	85.6289	41.0156	85.9208	41.0156	85.9365	41.0156	86.1181	41.0156	86.1262	41.0156	86.1879
42.4805	83.0942	42.4805	83.0904	42.4805	83.09	42.4805	83.0818	42.4805	83.0804	42.4805	83.0769	42.4805	83.0733	42.4805	83.0896	42.4805	83.0823	42.4805	83.1378	42.4805	83.1254	42.4805	83.2418	42.4805	83.2232	42.4805	83.4201	42.4805	83.3949	42.4805	83.6847	42.4805	83.6538	42.4805	84.0371	42.4805	84.0021	42.4805	84.466	42.4805	84.4291	42.4805	84.9484	42.4805	84.912	42.4805	85.4541	42.4805	85.4201	42.4805	85.9497	42.4805	85.9198	42.4805	86.4033	42.4805	86.3785	42.4805	86.7864	42.4805	86.7675	42.4805	87.0761	42.4805	87.0634	42.4805	87.2556	42.4805	87.2492	42.4805	87.3144
43.9453	84.5419	43.9453	84.5462	43.9453	84.5288	43.9453	84.544	43.9453	84.5097	43.9453	84.5423	43.9453	84.4924	43.9453	84.5531	43.9453	84.4894	43.9453	84.5927	43.9453	84.5175	43.9453	84.6795	43.9453	84.5957	43.9453	84.8316	43.9453	84.7422	43.9453	85.062	43.9453	84.9703	43.9453	85.3746	43.9453	85.2834	43.9453	85.7611	43.9453	85.6734	43.9453	86.202	43.9453	86.1201	43.9453	86.6693	43.9453	86.5955	43.9453	87.1312	43.9453	87.0674	43.9453	87.5564	43.9453	87.5041	43.9453	87.9168	43.9453	87.8771	43.9453	88.1895	43.9453	88.1628	43.9453	88.3574	43.9453	88.344	43.9453	88.4101
45.4102	85.646	45.4102	85.6618	45.4102	85.6335	45.4102	85.6825	45.4102	85.6267	45.4102	85.7139	45.4102	85.6321	45.4102	85.7651	45.4102	85.66	45.4102	85.8483	45.4102	85.7238	45.4102	85.9765	45.4102	85.8376	45.4102	86.1614	45.4102	86.0144	45.4102	86.4105	45.4102	86.2624	45.4102	86.7242	45.4102	86.5818	45.4102	87.0943	45.4102	86.9636	45.4102	87.5048	45.4102	87.3901	45.4102	87.933	45.4102	87.8368	45.4102	88.3534	45.4102	88.2762	45.4102	88.7396	45.4102	88.6808	45.4102	89.0673	45.4102	89.0253	45.4102	89.3157	45.4102	89.2889	45.4102	89.4689	45.4102	89.4559	45.4102	89.5169
46.875	87.0276	46.875	87.0374	46.875	87.0192	46.875	87.0496	46.875	87.0142	46.875	87.069	46.875	87.0183	46.875	87.1033	46.875	87.0399	46.875	87.1627	46.875	87.09	46.875	87.2587	46.875	87.181	46.875	87.4024	46.875	87.3241	46.875	87.6018	46.875	87.5273	46.875	87.8597	46.875	87.7927	46.875	88.1714	46.875	88.1146	46.875	88.5247	46.875	88.4795	46.875	88.9007	46.875	88.8672	46.875	89.2765	46.875	89.2535	46.875	89.6273	46.875	89.6129	46.875	89.9292	46.875	89.9212	46.875	90.1614	46.875	90.1575	46.875	90.3075	46.875	90.3061	46.875	90.357
48.3398	88.1907	48.3398	88.1989	48.3398	88.1853	48.3398	88.2111	48.3398	88.1844	48.3398	88.2315	48.3398	88.1927	48.3398	88.2669	48.3398	88.2173	48.3398	88.3262	48.3398	88.2677	48.3398	88.4194	48.3398	88.3542	48.3398	88.5561	48.3398	88.4869	48.3398	88.7434	48.3398	88.6729	48.3398	88.9837	48.3398	88.9146	48.3398	89.2731	48.3398	89.2081	48.3398	89.6009	48.3398	89.5422	48.3398	89.9505	48.3398	89.8995	48.3398	90.3006	48.3398	90.2584	48.3398	90.6282	48.3398	90.595	48.3398	90.9105	48.3398	90.8862	48.3398	91.1274	48.3398	91.1115	48.3398	91.2628	48.3398	91.255	48.3398	91.3065
51.2695	90.0936	51.2695	90.1059	51.2695	90.0843	51.2695	90.1215	51.2695	90.0797	51.2695	90.1435	51.2695	90.0843	51.2695	90.177	51.2695	90.1044	51.2695	90.2292	51.2695	90.1486	51.2695	90.3087	51.2695	90.226	51.2695	90.4243	51.2695	90.3457	51.2695	90.5833	51.2695	90.5146	51.2695	90.7899	51.2695	90.7356	51.2695	91.0432	51.2695	91.0057	51.2695	91.3358	51.2695	91.3153	51.2695	91.6541	51.2695	91.6484	51.2695	91.9791	51.2695	91.9844	51.2695	92.2885	51.2695	92.3003	51.2695	92.5597	51.2695	92.5732	51.2695	92.7716	51.2695	92.783	51.2695	92.9076	51.2695	92.9139	51.2695	92.9564
52.7344	90.5533	52.7344	90.5563	52.7344	90.5705	52.7344	90.5801	52.7344	90.609	52.7344	90.6272	52.7344	90.6718	52.7344	90.7019	52.7344	90.7632	52.7344	90.8094	52.7344	90.8884	52.7344	90.9553	52.7344	91.0526	52.7344	91.1444	52.7344	91.2593	52.7344	91.3793	52.7344	91.5096	52.7344	91.6587	52.7344	91.8006	52.7344	91.9769	52.7344	92.1248	52.7344	92.3231	52.7344	92.4702	52.7344	92.6818	52.7344	92.8211	52.7344	93.0346	52.7344	93.1594	52.7344	93.3614	52.7344	93.4664	52.7344	93.6426	52.7344	93.724	52.7344	93.8612	52.7344	93.9165	52.7344	94.0037	52.7344	94.0316	52.7344	94.0615
54.1992	91.6956	54.1992	91.6884	54.1992	91.7206	54.1992	91.7001	54.1992	91.7636	54.1992	91.7327	54.1992	91.8253	54.1992	91.789	54.1992	91.9076	54.1992	91.8723	54.1992	92.0124	54.1992	91.9862	54.1992	92.142	54.1992	92.1333	54.1992	92.2982	54.1992	92.315	54.1992	92.4814	54.1992	92.5302	54.1992	92.6904	54.1992	92.7747	54.1992	92.9218	54.1992	93.0407	54.1992	93.1693	54.1992	93.3172	54.1992	93.4239	54.1992	93.5902	54.1992	93.674	54.1992	93.8441	54.1992	93.9062	54.1992	94.0631	54.1992	94.1058	54.1992	94.2328	54.1992	94.2591	54.1992	94.3418	54.1992	94.3542	54.1992	94.3829
55.6641	92.5803	55.6641	92.5946	55.6641	92.5792	55.6641	92.6225	55.6641	92.5918	55.6641	92.6653	55.6641	92.6196	55.6641	92.7252	55.6641	92.6647	55.6641	92.8047	55.6641	92.7302	55.6641	92.9069	55.6641	92.8193	55.6641	93.0343	55.6641	92.935	55.6641	93.1886	55.6641	93.0798	55.6641	93.3698	55.6641	93.2543	55.6641	93.5754	55.6641	93.4568	55.6641	93.7999	55.6641	93.6825	55.6641	94.0343	55.6641	93.9229	55.6641	94.2669	55.6641	94.1662	55.6641	94.4838	55.6641	94.398	55.6641	94.6702	55.6641	94.6029	55.6641	94.8119	55.6641	94.7656	55.6641	94.8972	55.6641	94.8736	55.6641	94.9186
58.5938	93.7848	58.5938	93.7975	58.5938	93.7876	58.5938	93.8258	58.5938	93.8061	58.5938	93.8699	58.5938	93.8413	58.5938	93.9308	58.5938	93.894	58.5938	94.0094	58.5938	93.9657	58.5938	94.1069	58.5938	94.0577	58.5938	94.2242	58.5938	94.1715	58.5938	94.3621	58.5938	94.3078	58.5938	94.5203	58.5938	94.4665	58.5938	94.6968	58.5938	94.6455	58.5938	94.8879	58.5938	94.8409	58.5938	95.0872	58.5938	95.0459	58.5938	95.2858	58.5938	95.2511	58.5938	95.4726	58.5938	95.445	58.5938	95.6352	58.5938	95.6148	58.5938	95.7614	58.5938	95.7479	58.5938	95.8405	58.5938	95.8338	58.5938	95.8655
60.0586	94.2558	60.0586	94.2678	60.0586	94.2602	60.0586	94.296	60.0586	94.2812	60.0586	94.3406	60.0586	94.3191	60.0586	94.4019	60.0586	94.3744	60.0586	94.4803	60.0586	94.448	60.0586	94.5762	60.0586	94.5404	60.0586	94.6902	60.0586	94.6522	60.0586	94.8223	60.0586	94.7836	60.0586	94.9719	60.0586	94.9341	60.0586	95.1374	60.0586	95.1017	60.0586	95.3153	60.0586	95.2828	60.0586	95.5	60.0586	95.4717	60.0586	95.6836	60.0586	95.6599	60.0586	95.8562	60.0586	95.8374	60.0586	96.0066	60.0586	95.9927	60.0586	96.1235	60.0586	96.1143	60.0586	96.1972	60.0586	96.1926	60.0586	96.221
62.9883	94.9641	62.9883	94.9764	62.9883	94.9697	62.9883	95.0063	62.9883	94.9932	62.9883	95.0534	62.9883	95.0344	62.9883	95.117	62.9883	95.0929	62.9883	95.1966	62.9883	95.1684	62.9883	95.2914	62.9883	95.2602	62.9883	95.4006	62.9883	95.3677	62.9883	95.5235	62.9883	95.4902	62.9883	95.6588	62.9883	95.6263	62.9883	95.8047	62.9883	95.7742	62.9883	95.9586	62.9883	95.9309	62.9883	96.116	62.9883	96.0918	62.9883	96.2709	62.9883	96.2507	62.9883	96.4157	62.9883	96.3996	62.9883	96.5415	62.9883	96.5295	62.9883	96.6391	62.9883	96.6312	62.9883	96.7006	62.9883	96.6967	62.9883	96.7205
64.4531	95.2208	64.4531	95.2318	64.4531	95.2284	64.4531	95.2609	64.4531	95.2543	64.4531	95.3077	64.4531	95.2981	64.4531	95.3711	64.4531	95.3591	64.4531	95.4501	64.4531	95.4363	64.4531	95.5434	64.4531	95.5286	64.4531	95.6497	64.4531	95.6347	64.4531	95.7678	64.4531	95.7532	64.4531	95.896	64.4531	95.8827	64.4531	96.0325	64.4531	96.021	64.4531	96.1747	64.4531	96.1653	64.4531	96.3188	64.4531	96.3116	64.4531	96.4598	64.4531	96.4546	64.4531	96.5912	64.4531	96.5876	64.4531	96.7051	64.4531	96.7029	64.4531	96.7939	64.4531	96.7926	64.4531	96.8503	64.4531	96.8498	64.4531	96.8696
67.3828	95.5844	67.3828	95.5899	67.3828	95.5976	67.3828	95.6139	67.3828	95.629	67.3828	95.6555	67.3828	95.6774	67.3828	95.7133	67.3828	95.7411	67.3828	95.7855	67.3828	95.8182	67.3828	95.8701	67.3828	95.9064	67.3828	95.965	67.3828	96.0033	67.3828	96.0679	67.3828	96.1069	67.3828	96.177	67.3828	96.215	67.3828	96.2902	67.3828	96.3258	67.3828	96.4055	67.3828	96.4373	67.3828	96.5201	67.3828	96.5473	67.3828	96.6306	67.3828	96.6527	67.3828	96.7326	67.3828	96.7495	67.3828	96.8209	67.3828	96.8328	67.3828	96.8897	67.3828	96.8972	67.3828	96.9341	67.3828	96.9377	67.3828	96.9504
68.8477	95.7276	68.8477	95.7372	68.8477	95.7369	68.8477	95.7657	68.8477	95.7648	68.8477	95.8117	68.8477	95.8099	68.8477	95.8736	68.8477	95.8704	68.8477	95.9491	68.8477	95.944	68.8477	96.0357	68.8477	96.028	68.8477	96.1307	68.8477	96.1198	68.8477	96.2315	68.8477	96.217	68.8477	96.3358	68.8477	96.3176	68.8477	96.4414	68.8477	96.4198	68.8477	96.5463	68.8477	96.5219	68.8477	96.6483	68.8477	96.6222	68.8477	96.7445	68.8477	96.7185	68.8477	96.8316	68.8477	96.8074	68.8477	96.9053	68.8477	96.885	68.8477	96.9612	68.8477	96.9465	68.8477	96.995	68.8477	96.9873	68.8477	97.004
