"SPL Vertical"
"On-Axis"		"10°"		"-10°"		"20°"		"-20°"		"30°"		"-30°"		"40°"		"-40°"		"50°"		"-50°"		"60°"		"-60°"		"70°"		"-70°"		"80°"		"-80°"		"90°"		"-90°"		"100°"		"-100°"		"110°"		"-110°"		"120°"		"-120°"		"130°"		"-130°"		"140°"		"-140°"		"150°"		"-150°"		"160°"		"-160°"		"170°"		"-170°"		"180°"
"Frequency [Hz]"	"Sound Pessure Level [dB]  / [2.83V 1m] "	"Frequency [Hz]"	"Sound Pessure Level [dB]  / [2.83V 1m] "	"Frequency [Hz]"	"Sound Pessure Level [dB]  / [2.83V 1m] "	"Frequency [Hz]"	"Sound Pessure Level [dB]  / [2.83V 1m] "	"Frequency [Hz]"	"Sound Pessure Level [dB]  / [2.83V 1m] "	"Frequency [Hz]"	"Sound Pessure Level [dB]  / [2.83V 1m] "	"Frequency [Hz]"	"Sound Pessure Level [dB]  / [2.83V 1m] "	"Frequency [Hz]"	"Sound Pessure Level [dB]  / [2.83V 1m] "	"Frequency [Hz]"	"Sound Pessure Level [dB]  / [2.83V 1m] "	"Frequency [Hz]"	"Sound Pessure Level [dB]  / [2.83V 1m] "	"Frequency [Hz]"	"Sound Pessure Level [dB]  / [2.83V 1m] "	"Frequency [Hz]"	"Sound Pessure Level [dB]  / [2.83V 1m] "	"Frequency [Hz]"	"Sound Pessure Level [dB]  / [2.83V 1m] "	"Frequency [Hz]"	"Sound Pessure Level [dB]  / [2.83V 1m] "	"Frequency [Hz]"	"Sound Pessure Level [dB]  / [2.83V 1m] "	"Frequency [Hz]"	"Sound Pessure Level [dB]  / [2.83V 1m] "	"Frequency [Hz]"	"Sound Pessure Level [dB]  / [2.83V 1m] "	"Frequency [Hz]"	"Sound Pessure Level [dB]  / [2.83V 1m] "	"Frequency [Hz]"	"Sound Pessure Level [dB]  / [2.83V 1m] "	"Frequency [Hz]"	"Sound Pessure Level [dB]  / [2.83V 1m] "	"Frequency [Hz]"	"Sound Pessure Level [dB]  / [2.83V 1m] "	"Frequency [Hz]"	"Sound Pessure Level [dB]  / [2.83V 1m] "	"Frequency [Hz]"	"Sound Pessure Level [dB]  / [2.83V 1m] "	"Frequency [Hz]"	"Sound Pessure Level [dB]  / [2.83V 1m] "	"Frequency [Hz]"	"Sound Pessure Level [dB]  / [2.83V 1m] "	"Frequency [Hz]"	"Sound Pessure Level [dB]  / [2.83V 1m] "	"Frequency [Hz]"	"Sound Pessure Level [dB]  / [2.83V 1m] "	"Frequency [Hz]"	"Sound Pessure Level [dB]  / [2.83V 1m] "	"Frequency [Hz]"	"Sound Pessure Level [dB]  / [2.83V 1m] "	"Frequency [Hz]"	"Sound Pessure Level [dB]  / [2.83V 1m] "	"Frequency [Hz]"	"Sound Pessure Level [dB]  / [2.83V 1m] "	"Frequency [Hz]"	"Sound Pessure Level [dB]  / [2.83V 1m] "	"Frequency [Hz]"	"Sound Pessure Level [dB]  / [2.83V 1m] "	"Frequency [Hz]"	"Sound Pessure Level [dB]  / [2.83V 1m] "	"Frequency [Hz]"	"Sound Pessure Level [dB]  / [2.83V 1m] "	"Frequency [Hz]"	"Sound Pessure Level [dB]  / [2.83V 1m] "
20.5078	45.2352	20.5078	44.511	20.5078	45.9295	20.5078	43.7789	20.5078	46.5764	20.5078	43.0691	20.5078	47.1604	20.5078	42.4238	20.5078	47.6689	20.5078	41.8957	20.5078	48.0926	20.5078	41.5371	20.5078	48.4273	20.5078	41.3838	20.5078	48.6735	20.5078	41.4427	20.5078	48.8355	20.5078	41.6937	20.5078	48.9202	20.5078	42.1012	20.5078	48.9356	20.5078	42.6257	20.5078	48.8894	20.5078	43.2301	20.5078	48.7887	20.5078	43.8814	20.5078	48.6379	20.5078	44.5523	20.5078	48.4373	20.5078	45.2197	20.5078	48.1819	20.5078	45.863	20.5078	47.8627	20.5078	46.4631	20.5078	47.4711	20.5078	47.0032
21.9727	45.9905	21.9727	46.3882	21.9727	45.6349	21.9727	46.81	21.9727	45.3363	21.9727	47.2355	21.9727	45.1066	21.9727	47.6437	21.9727	44.9532	21.9727	48.0144	21.9727	44.8789	21.9727	48.3301	21.9727	44.8809	21.9727	48.5778	21.9727	44.9521	21.9727	48.7502	21.9727	45.0834	21.9727	48.8461	21.9727	45.267	21.9727	48.8707	21.9727	45.4982	21.9727	48.8346	21.9727	45.7734	21.9727	48.7523	21.9727	46.0867	21.9727	48.6397	21.9727	46.4263	21.9727	48.5106	21.9727	46.7741	21.9727	48.3736	21.9727	47.109	21.9727	48.2298	21.9727	47.4124	21.9727	48.0728	21.9727	47.6736	21.9727	47.8913
23.4375	52.5968	23.4375	52.6544	23.4375	52.5537	23.4375	52.7236	23.4375	52.5264	23.4375	52.8001	23.4375	52.5148	23.4375	52.8779	23.4375	52.5175	23.4375	52.9508	23.4375	52.5325	23.4375	53.0126	23.4375	52.5575	23.4375	53.0586	23.4375	52.5899	23.4375	53.0861	23.4375	52.6275	23.4375	53.095	23.4375	52.6689	23.4375	53.0878	23.4375	52.7134	23.4375	53.0695	23.4375	52.7613	23.4375	53.0466	23.4375	52.8127	23.4375	53.0254	23.4375	52.8663	23.4375	53.0113	23.4375	52.9188	23.4375	53.0068	23.4375	52.965	23.4375	53.011	23.4375	52.9996	23.4375	53.019	23.4375	53.0191	23.4375	53.0241
24.9023	50.2642	24.9023	50.1862	24.9023	50.3752	24.9023	50.1407	24.9023	50.5192	24.9023	50.127	24.9023	50.6957	24.9023	50.1435	24.9023	50.9036	24.9023	50.1879	24.9023	51.1412	24.9023	50.2581	24.9023	51.4057	24.9023	50.3532	24.9023	51.6937	24.9023	50.4752	24.9023	52.0004	24.9023	50.6288	24.9023	52.3196	24.9023	50.8214	24.9023	52.6418	24.9023	51.0601	24.9023	52.9541	24.9023	51.3484	24.9023	53.24	24.9023	51.6832	24.9023	53.4799	24.9023	52.0532	24.9023	53.6542	24.9023	52.4389	24.9023	53.7451	24.9023	52.8159	24.9023	53.7407	24.9023	53.1573	24.9023	53.6367	24.9023	53.4378
26.3672	49.7215	26.3672	49.7495	26.3672	49.721	26.3672	49.8092	26.3672	49.7399	26.3672	49.8985	26.3672	49.7677	26.3672	50.0089	26.3672	49.7944	26.3672	50.1269	26.3672	49.812	26.3672	50.2369	26.3672	49.8158	26.3672	50.3236	26.3672	49.8044	26.3672	50.3754	26.3672	49.7795	26.3672	50.3857	26.3672	49.7456	26.3672	50.3539	26.3672	49.7083	26.3672	50.2848	26.3672	49.6731	26.3672	50.1877	26.3672	49.6443	26.3672	50.0749	26.3672	49.6237	26.3672	49.959	26.3672	49.6112	26.3672	49.8515	26.3672	49.6058	26.3672	49.761	26.3672	49.6078	26.3672	49.6925	26.3672	49.6198	26.3672	49.6464
27.832	54.0029	27.832	54.0667	27.832	53.9434	27.832	54.1321	27.832	53.8891	27.832	54.1946	27.832	53.8391	27.832	54.2489	27.832	53.7904	27.832	54.2886	27.832	53.7386	27.832	54.3076	27.832	53.6785	27.832	54.3001	27.832	53.6056	27.832	54.262	27.832	53.5169	27.832	54.1915	27.832	53.4123	27.832	54.0894	27.832	53.2951	27.832	53.9596	27.832	53.1723	27.832	53.8087	27.832	53.054	27.832	53.6448	27.832	52.9513	27.832	53.4772	27.832	52.8751	27.832	53.3149	27.832	52.833	27.832	53.1658	27.832	52.8293	27.832	53.0371	27.832	52.8641	27.832	52.9348
29.2969	55.209	29.2969	55.2023	29.2969	55.2219	29.2969	55.2053	29.2969	55.2358	29.2969	55.219	29.2969	55.2448	29.2969	55.2417	29.2969	55.2435	29.2969	55.2688	29.2969	55.2278	29.2969	55.2941	29.2969	55.195	29.2969	55.3108	29.2969	55.1447	29.2969	55.3128	29.2969	55.0783	29.2969	55.2959	29.2969	54.9994	29.2969	55.2587	29.2969	54.9129	29.2969	55.2025	29.2969	54.8252	29.2969	55.1309	29.2969	54.7433	29.2969	55.0487	29.2969	54.6742	29.2969	54.9613	29.2969	54.6237	29.2969	54.8739	29.2969	54.5959	29.2969	54.7911	29.2969	54.5929	29.2969	54.7172	29.2969	54.614	29.2969	54.6567
30.7617	57.5518	30.7617	57.6083	30.7617	57.4916	30.7617	57.6596	30.7617	57.4287	30.7617	57.7037	30.7617	57.3636	30.7617	57.7382	30.7617	57.2958	30.7617	57.7597	30.7617	57.2237	30.7617	57.7647	30.7617	57.1449	30.7617	57.749	30.7617	57.0564	30.7617	57.7091	30.7617	56.956	30.7617	57.6428	30.7617	56.8431	30.7617	57.5494	30.7617	56.7198	30.7617	57.4302	30.7617	56.5914	30.7617	57.2887	30.7617	56.4664	30.7617	57.13	30.7617	56.356	30.7617	56.9607	30.7617	56.272	30.7617	56.7888	30.7617	56.225	30.7617	56.6232	30.7617	56.222	30.7617	56.474	30.7617	56.2651	30.7617	56.3515
32.2266	59.7839	32.2266	59.7907	32.2266	59.7759	32.2266	59.7968	32.2266	59.7654	32.2266	59.8022	32.2266	59.7502	32.2266	59.8058	32.2266	59.7278	32.2266	59.8054	32.2266	59.6952	32.2266	59.7984	32.2266	59.6497	32.2266	59.7815	32.2266	59.589	32.2266	59.7515	32.2266	59.5121	32.2266	59.7063	32.2266	59.42	32.2266	59.6446	32.2266	59.3157	32.2266	59.5672	32.2266	59.2048	32.2266	59.4759	32.2266	59.0949	32.2266	59.3742	32.2266	58.9951	32.2266	59.2667	32.2266	58.9147	32.2266	59.1587	32.2266	58.8613	32.2266	59.0564	32.2266	58.8401	32.2266	58.9666	32.2266	58.8526	32.2266	58.8964
33.6914	61.4359	33.6914	61.459	33.6914	61.4147	33.6914	61.4833	33.6914	61.395	33.6914	61.5076	33.6914	61.3757	33.6914	61.5302	33.6914	61.3548	33.6914	61.5486	33.6914	61.3299	33.6914	61.5603	33.6914	61.2986	33.6914	61.5626	33.6914	61.2586	33.6914	61.5532	33.6914	61.2091	33.6914	61.5303	33.6914	61.1503	33.6914	61.4932	33.6914	61.0844	33.6914	61.4423	33.6914	61.0154	33.6914	61.379	33.6914	60.9487	33.6914	61.3054	33.6914	60.891	33.6914	61.2245	33.6914	60.8489	33.6914	61.1397	33.6914	60.828	33.6914	61.0554	33.6914	60.8313	33.6914	60.9767	33.6914	60.8594	33.6914	60.9094
35.1562	62.6911	35.1562	62.6982	35.1562	62.6843	35.1562	62.7058	35.1562	62.6773	35.1562	62.7131	35.1562	62.6686	35.1562	62.719	35.1562	62.6561	35.1562	62.7218	35.1562	62.6372	35.1562	62.7193	35.1562	62.6093	35.1562	62.7096	35.1562	62.5704	35.1562	62.6905	35.1562	62.5192	35.1562	62.6607	35.1562	62.4562	35.1562	62.6196	35.1562	62.3836	35.1562	62.5677	35.1562	62.3057	35.1562	62.5063	35.1562	62.2284	35.1562	62.4376	35.1562	62.1587	35.1562	62.3644	35.1562	62.1035	35.1562	62.29	35.1562	62.0684	35.1562	62.2185	35.1562	62.0567	35.1562	62.1544	35.1562	62.0689	35.1562	62.1029
36.6211	64.351	36.6211	64.3578	36.6211	64.3399	36.6211	64.3605	36.6211	64.3243	36.6211	64.3585	36.6211	64.3035	36.6211	64.3513	36.6211	64.2761	36.6211	64.338	36.6211	64.2409	36.6211	64.3177	36.6211	64.1962	36.6211	64.2894	36.6211	64.1412	36.6211	64.252	36.6211	64.0756	36.6211	64.2051	36.6211	64.0003	36.6211	64.1489	36.6211	63.9179	36.6211	64.0843	36.6211	63.8325	36.6211	64.013	36.6211	63.7497	36.6211	63.9373	36.6211	63.6758	36.6211	63.86	36.6211	63.6171	36.6211	63.784	36.6211	63.5788	36.6211	63.7131	36.6211	63.5637	36.6211	63.6512	36.6211	63.5724	36.6211	63.6028
38.0859	65.7749	38.0859	65.7869	38.0859	65.7583	38.0859	65.7945	38.0859	65.7368	38.0859	65.7972	38.0859	65.7098	38.0859	65.7944	38.0859	65.6764	38.0859	65.7854	38.0859	65.6353	38.0859	65.7691	38.0859	65.5857	38.0859	65.7444	38.0859	65.527	38.0859	65.7103	38.0859	65.459	38.0859	65.666	38.0859	65.3829	38.0859	65.6115	38.0859	65.3009	38.0859	65.5472	38.0859	65.2166	38.0859	65.4742	38.0859	65.1352	38.0859	65.3943	38.0859	65.0628	38.0859	65.3102	38.0859	65.0058	38.0859	65.2252	38.0859	64.9698	38.0859	65.1436	38.0859	64.9586	38.0859	65.0706	38.0859	64.9733	38.0859	65.012
39.5508	67.1697	39.5508	67.1624	39.5508	67.1721	39.5508	67.1505	39.5508	67.1689	39.5508	67.1345	39.5508	67.1592	39.5508	67.1142	39.5508	67.142	39.5508	67.0895	39.5508	67.1161	39.5508	67.0603	39.5508	67.0806	39.5508	67.026	39.5508	67.0348	39.5508	66.9863	39.5508	66.9787	39.5508	66.9411	39.5508	66.9133	39.5508	66.8908	39.5508	66.8406	39.5508	66.8361	39.5508	66.764	39.5508	66.7782	39.5508	66.6878	39.5508	66.7188	39.5508	66.6171	39.5508	66.6601	39.5508	66.5571	39.5508	66.6045	39.5508	66.5121	39.5508	66.5551	39.5508	66.4851	39.5508	66.5151	39.5508	66.4774	39.5508	66.4882
41.0156	67.6311	41.0156	67.6347	41.0156	67.624	41.0156	67.6349	41.0156	67.6132	41.0156	67.632	41.0156	67.5984	41.0156	67.6258	41.0156	67.5793	41.0156	67.6157	41.0156	67.5552	41.0156	67.6009	41.0156	67.5255	41.0156	67.5803	41.0156	67.4891	41.0156	67.5528	41.0156	67.445	41.0156	67.5174	41.0156	67.3927	41.0156	67.4735	41.0156	67.3327	41.0156	67.4212	41.0156	67.2667	41.0156	67.3614	41.0156	67.1978	41.0156	67.2956	41.0156	67.1306	41.0156	67.2266	41.0156	67.0708	41.0156	67.1581	41.0156	67.0243	41.0156	67.0949	41.0156	66.9963	41.0156	67.0425	41.0156	66.99	41.0156	67.0061
42.4805	69.798	42.4805	69.798	42.4805	69.7925	42.4805	69.7924	42.4805	69.7816	42.4805	69.7815	42.4805	69.7651	42.4805	69.7654	42.4805	69.7431	42.4805	69.7447	42.4805	69.7159	42.4805	69.7199	42.4805	69.6838	42.4805	69.6917	42.4805	69.6473	42.4805	69.6611	42.4805	69.6075	42.4805	69.6289	42.4805	69.5656	42.4805	69.5963	42.4805	69.5232	42.4805	69.5638	42.4805	69.4824	42.4805	69.532	42.4805	69.4451	42.4805	69.5012	42.4805	69.4133	42.4805	69.4714	42.4805	69.3885	42.4805	69.443	42.4805	69.3722	42.4805	69.4168	42.4805	69.3648	42.4805	69.3942	42.4805	69.3667	42.4805	69.3769
43.9453	70.4541	43.9453	70.4583	43.9453	70.4436	43.9453	70.456	43.9453	70.4272	43.9453	70.4471	43.9453	70.4053	43.9453	70.432	43.9453	70.3785	43.9453	70.4109	43.9453	70.3473	43.9453	70.3842	43.9453	70.3124	43.9453	70.3527	43.9453	70.2743	43.9453	70.317	43.9453	70.2338	43.9453	70.278	43.9453	70.1919	43.9453	70.2367	43.9453	70.1499	43.9453	70.1944	43.9453	70.1091	43.9453	70.1523	43.9453	70.0713	43.9453	70.1118	43.9453	70.0378	43.9453	70.0743	43.9453	70.0103	43.9453	70.041	43.9453	69.9898	43.9453	70.0133	43.9453	69.9775	43.9453	69.9922	43.9453	69.9738	43.9453	69.9788
45.4102	71.4224	45.4102	71.4225	45.4102	71.4141	45.4102	71.4144	45.4102	71.3979	45.4102	71.3986	45.4102	71.3742	45.4102	71.3759	45.4102	71.344	45.4102	71.3474	45.4102	71.3083	45.4102	71.3139	45.4102	71.2682	45.4102	71.2768	45.4102	71.2248	45.4102	71.2369	45.4102	71.1795	45.4102	71.1954	45.4102	71.1336	45.4102	71.1533	45.4102	71.0885	45.4102	71.1115	45.4102	71.0457	45.4102	71.0712	45.4102	71.0066	45.4102	71.0332	45.4102	70.9726	45.4102	70.9984	45.4102	70.9447	45.4102	70.9677	45.4102	70.924	45.4102	70.9422	45.4102	70.9112	45.4102	70.9229	45.4102	70.9068	45.4102	70.9109
46.875	72.3013	46.875	72.3018	46.875	72.2929	46.875	72.2947	46.875	72.2764	46.875	72.2807	46.875	72.2524	46.875	72.261	46.875	72.2218	46.875	72.2365	46.875	72.1856	46.875	72.2086	46.875	72.1454	46.875	72.1782	46.875	72.1027	46.875	72.1464	46.875	72.0593	46.875	72.1141	46.875	72.017	46.875	72.082	46.875	71.9777	46.875	72.051	46.875	71.9429	46.875	72.0214	46.875	71.9141	46.875	71.9937	46.875	71.8923	46.875	71.9679	46.875	71.8779	46.875	71.9441	46.875	71.8708	46.875	71.9226	46.875	71.8707	46.875	71.9037	46.875	71.8768	46.875	71.8881
48.3398	73.1429	48.3398	73.144	48.3398	73.1338	48.3398	73.1376	48.3398	73.1167	48.3398	73.1245	48.3398	73.0918	48.3398	73.1055	48.3398	73.0596	48.3398	73.0814	48.3398	73.0213	48.3398	73.0532	48.3398	72.9784	48.3398	73.0218	48.3398	72.9326	48.3398	72.9885	48.3398	72.8859	48.3398	72.9544	48.3398	72.8406	48.3398	72.9208	48.3398	72.7987	48.3398	72.8886	48.3398	72.7623	48.3398	72.8586	48.3398	72.7329	48.3398	72.831	48.3398	72.7117	48.3398	72.8058	48.3398	72.6992	48.3398	72.7825	48.3398	72.6951	48.3398	72.7609	48.3398	72.6987	48.3398	72.741	48.3398	72.7085	48.3398	72.7231
51.2695	74.9226	51.2695	74.9268	51.2695	74.9068	51.2695	74.9194	51.2695	74.88	51.2695	74.9007	51.2695	74.8431	51.2695	74.8719	51.2695	74.7979	51.2695	74.8342	51.2695	74.746	51.2695	74.7893	51.2695	74.6897	51.2695	74.7393	51.2695	74.6312	51.2695	74.6862	51.2695	74.573	51.2695	74.6323	51.2695	74.5175	51.2695	74.5796	51.2695	74.4671	51.2695	74.5302	51.2695	74.4238	51.2695	74.4857	51.2695	74.3888	51.2695	74.447	51.2695	74.3628	51.2695	74.4146	51.2695	74.3454	51.2695	74.3885	51.2695	74.3358	51.2695	74.3681	51.2695	74.3327	51.2695	74.3527	51.2695	74.335	51.2695	74.3417
52.7344	75.5097	52.7344	75.5128	52.7344	75.4935	52.7344	75.503	52.7344	75.4645	52.7344	75.4812	52.7344	75.4239	52.7344	75.4488	52.7344	75.3734	52.7344	75.4077	52.7344	75.3152	52.7344	75.3599	52.7344	75.2519	52.7344	75.3075	52.7344	75.1864	52.7344	75.2529	52.7344	75.1213	52.7344	75.198	52.7344	75.0594	52.7344	75.1448	52.7344	75.0031	52.7344	75.0948	52.7344	74.9547	52.7344	75.0491	52.7344	74.9154	52.7344	75.0083	52.7344	74.8863	52.7344	74.9725	52.7344	74.8672	52.7344	74.9415	52.7344	74.8578	52.7344	74.9151	52.7344	74.8569	52.7344	74.8931	52.7344	74.8632	52.7344	74.8756
54.1992	76.0756	54.1992	76.0781	54.1992	76.0606	54.1992	76.0681	54.1992	76.0336	54.1992	76.0465	54.1992	75.9959	54.1992	76.0145	54.1992	75.9493	54.1992	75.9739	54.1992	75.896	54.1992	75.927	54.1992	75.8385	54.1992	75.8761	54.1992	75.7795	54.1992	75.8236	54.1992	75.7216	54.1992	75.7718	54.1992	75.6673	54.1992	75.7228	54.1992	75.6187	54.1992	75.6781	54.1992	75.5776	54.1992	75.6387	54.1992	75.5449	54.1992	75.6051	54.1992	75.5211	54.1992	75.577	54.1992	75.5058	54.1992	75.5541	54.1992	75.4981	54.1992	75.5354	54.1992	75.4969	54.1992	75.5205	54.1992	75.5008	54.1992	75.5089
55.6641	76.6223	55.6641	76.6214	55.6641	76.61	55.6641	76.6075	55.6641	76.585	55.6641	76.5815	55.6641	76.5485	55.6641	76.545	55.6641	76.5024	55.6641	76.4999	55.6641	76.4489	55.6641	76.4487	55.6641	76.3906	55.6641	76.394	55.6641	76.3304	55.6641	76.3382	55.6641	76.2712	55.6641	76.2839	55.6641	76.2155	55.6641	76.2333	55.6641	76.1657	55.6641	76.1881	55.6641	76.1233	55.6641	76.1492	55.6641	76.0895	55.6641	76.117	55.6641	76.0643	55.6641	76.0914	55.6641	76.0473	55.6641	76.0717	55.6641	76.0375	55.6641	76.0568	55.6641	76.0334	55.6641	76.0459	55.6641	76.034	55.6641	76.0383
58.5938	77.4793	58.5938	77.4783	58.5938	77.4658	58.5938	77.4631	58.5938	77.4384	58.5938	77.4348	58.5938	77.3986	58.5938	77.3951	58.5938	77.3487	58.5938	77.3465	58.5938	77.2913	58.5938	77.2917	58.5938	77.2298	58.5938	77.2339	58.5938	77.1673	58.5938	77.176	58.5938	77.1073	58.5938	77.1209	58.5938	77.0526	58.5938	77.0709	58.5938	77.0053	58.5938	77.0277	58.5938	76.967	58.5938	76.9921	58.5938	76.9381	58.5938	76.9642	58.5938	76.9182	58.5938	76.9434	58.5938	76.9061	58.5938	76.9283	58.5938	76.9002	58.5938	76.9177	58.5938	76.8989	58.5938	76.91	58.5938	76.9007	58.5938	76.9045
60.0586	77.8428	60.0586	77.8421	60.0586	77.8281	60.0586	77.8265	60.0586	77.7988	60.0586	77.797	60.0586	77.7564	60.0586	77.7557	60.0586	77.7035	60.0586	77.7052	60.0586	77.643	60.0586	77.6486	60.0586	77.5785	60.0586	77.589	60.0586	77.5138	60.0586	77.5299	60.0586	77.4522	60.0586	77.4743	60.0586	77.3971	60.0586	77.4246	60.0586	77.3507	60.0586	77.3825	60.0586	77.3144	60.0586	77.349	60.0586	77.2886	60.0586	77.3237	60.0586	77.2725	60.0586	77.3058	60.0586	77.2645	60.0586	77.2936	60.0586	77.2627	60.0586	77.2853	60.0586	77.2647	60.0586	77.2791	60.0586	77.2689	60.0586	77.2738
62.9883	78.5708	62.9883	78.5692	62.9883	78.5558	62.9883	78.5513	62.9883	78.5248	62.9883	78.5184	62.9883	78.4797	62.9883	78.4729	62.9883	78.423	62.9883	78.4176	62.9883	78.3583	62.9883	78.356	62.9883	78.2893	62.9883	78.2916	62.9883	78.2203	62.9883	78.2282	62.9883	78.1549	62.9883	78.1688	62.9883	78.0965	62.9883	78.1162	62.9883	78.0475	62.9883	78.0721	62.9883	78.0093	62.9883	78.0373	62.9883	77.982	62.9883	78.0115	62.9883	77.9648	62.9883	77.9936	62.9883	77.9559	62.9883	77.9818	62.9883	77.9534	62.9883	77.9739	62.9883	77.955	62.9883	77.9682	62.9883	77.9587	62.9883	77.9633
64.4531	78.8413	64.4531	78.8384	64.4531	78.8272	64.4531	78.8189	64.4531	78.7969	64.4531	78.7843	64.4531	78.7523	64.4531	78.7368	64.4531	78.6961	64.4531	78.6797	64.4531	78.6319	64.4531	78.6165	64.4531	78.5636	64.4531	78.551	64.4531	78.4955	64.4531	78.4872	64.4531	78.4314	64.4531	78.4282	64.4531	78.3745	64.4531	78.3769	64.4531	78.3272	64.4531	78.335	64.4531	78.2908	64.4531	78.3031	64.4531	78.2652	64.4531	78.2808	64.4531	78.2495	64.4531	78.2666	64.4531	78.2419	64.4531	78.2584	64.4531	78.24	64.4531	78.2538	64.4531	78.2417	64.4531	78.2509	64.4531	78.2448	64.4531	78.248
67.3828	79.2971	67.3828	79.2943	67.3828	79.2819	67.3828	79.2737	67.3828	79.2495	67.3828	79.2369	67.3828	79.2021	67.3828	79.1864	67.3828	79.1427	67.3828	79.1256	67.3828	79.0753	67.3828	79.0585	67.3828	79.0044	67.3828	78.9895	67.3828	78.9345	67.3828	78.9228	67.3828	78.87	67.3828	78.8623	67.3828	78.8143	67.3828	78.8109	67.3828	78.7699	67.3828	78.7706	67.3828	78.7378	67.3828	78.742	67.3828	78.7176	67.3828	78.7243	67.3828	78.7076	67.3828	78.7158	67.3828	78.7054	67.3828	78.7137	67.3828	78.7079	67.3828	78.715	67.3828	78.7122	67.3828	78.7169	67.3828	78.7159	67.3828	78.7176
68.8477	79.5446	68.8477	79.5388	68.8477	79.5312	68.8477	79.5141	68.8477	79.4994	68.8477	79.4724	68.8477	79.4512	68.8477	79.4164	68.8477	79.3899	68.8477	79.3498	68.8477	79.3195	68.8477	79.277	68.8477	79.2446	68.8477	79.2026	68.8477	79.17	68.8477	79.131	68.8477	79.1004	68.8477	79.0663	68.8477	79.0395	68.8477	79.0117	68.8477	78.9899	68.8477	78.9691	68.8477	78.953	68.8477	78.9391	68.8477	78.9285	68.8477	78.921	68.8477	78.915	68.8477	78.9125	68.8477	78.91	68.8477	78.9109	68.8477	78.9104	68.8477	78.9129	68.8477	78.9133	68.8477	78.9156	68.8477	78.916	68.8477	78.9169
