"SPL Vertical"
"On-Axis"		"10°"		"-10°"		"20°"		"-20°"		"30°"		"-30°"		"40°"		"-40°"		"50°"		"-50°"		"60°"		"-60°"		"70°"		"-70°"		"80°"		"-80°"		"90°"		"-90°"		"100°"		"-100°"		"110°"		"-110°"		"120°"		"-120°"		"130°"		"-130°"		"140°"		"-140°"		"150°"		"-150°"		"160°"		"-160°"		"170°"		"-170°"		"180°"
"Frequency [Hz]"	"Sound Pessure Level [dB]   [2.83V at 1m]"	"Frequency [Hz]"	"Sound Pessure Level [dB]   [2.83V at 1m]"	"Frequency [Hz]"	"Sound Pessure Level [dB]   [2.83V at 1m]"	"Frequency [Hz]"	"Sound Pessure Level [dB]   [2.83V at 1m]"	"Frequency [Hz]"	"Sound Pessure Level [dB]   [2.83V at 1m]"	"Frequency [Hz]"	"Sound Pessure Level [dB]   [2.83V at 1m]"	"Frequency [Hz]"	"Sound Pessure Level [dB]   [2.83V at 1m]"	"Frequency [Hz]"	"Sound Pessure Level [dB]   [2.83V at 1m]"	"Frequency [Hz]"	"Sound Pessure Level [dB]   [2.83V at 1m]"	"Frequency [Hz]"	"Sound Pessure Level [dB]   [2.83V at 1m]"	"Frequency [Hz]"	"Sound Pessure Level [dB]   [2.83V at 1m]"	"Frequency [Hz]"	"Sound Pessure Level [dB]   [2.83V at 1m]"	"Frequency [Hz]"	"Sound Pessure Level [dB]   [2.83V at 1m]"	"Frequency [Hz]"	"Sound Pessure Level [dB]   [2.83V at 1m]"	"Frequency [Hz]"	"Sound Pessure Level [dB]   [2.83V at 1m]"	"Frequency [Hz]"	"Sound Pessure Level [dB]   [2.83V at 1m]"	"Frequency [Hz]"	"Sound Pessure Level [dB]   [2.83V at 1m]"	"Frequency [Hz]"	"Sound Pessure Level [dB]   [2.83V at 1m]"	"Frequency [Hz]"	"Sound Pessure Level [dB]   [2.83V at 1m]"	"Frequency [Hz]"	"Sound Pessure Level [dB]   [2.83V at 1m]"	"Frequency [Hz]"	"Sound Pessure Level [dB]   [2.83V at 1m]"	"Frequency [Hz]"	"Sound Pessure Level [dB]   [2.83V at 1m]"	"Frequency [Hz]"	"Sound Pessure Level [dB]   [2.83V at 1m]"	"Frequency [Hz]"	"Sound Pessure Level [dB]   [2.83V at 1m]"	"Frequency [Hz]"	"Sound Pessure Level [dB]   [2.83V at 1m]"	"Frequency [Hz]"	"Sound Pessure Level [dB]   [2.83V at 1m]"	"Frequency [Hz]"	"Sound Pessure Level [dB]   [2.83V at 1m]"	"Frequency [Hz]"	"Sound Pessure Level [dB]   [2.83V at 1m]"	"Frequency [Hz]"	"Sound Pessure Level [dB]   [2.83V at 1m]"	"Frequency [Hz]"	"Sound Pessure Level [dB]   [2.83V at 1m]"	"Frequency [Hz]"	"Sound Pessure Level [dB]   [2.83V at 1m]"	"Frequency [Hz]"	"Sound Pessure Level [dB]   [2.83V at 1m]"	"Frequency [Hz]"	"Sound Pessure Level [dB]   [2.83V at 1m]"	"Frequency [Hz]"	"Sound Pessure Level [dB]   [2.83V at 1m]"	"Frequency [Hz]"	"Sound Pessure Level [dB]   [2.83V at 1m]"	"Frequency [Hz]"	"Sound Pessure Level [dB]   [2.83V at 1m]"
20.5078	46.2773	20.5078	45.056	20.5078	47.5276	20.5078	43.989	20.5078	48.7169	20.5078	43.2008	20.5078	49.7919	20.5078	42.745	20.5078	50.7244	20.5078	42.567	20.5078	51.5006	20.5078	42.5452	20.5078	52.1149	20.5078	42.5631	20.5078	52.5656	20.5078	42.5485	20.5078	52.854	20.5078	42.48	20.5078	52.983	20.5078	42.3848	20.5078	52.9566	20.5078	42.3376	20.5078	52.7802	20.5078	42.4496	20.5078	52.4593	20.5078	42.8291	20.5078	51.9999	20.5078	43.5199	20.5078	51.4077	20.5078	44.4715	20.5078	50.6889	20.5078	45.5762	20.5078	49.8498	20.5078	46.7277	20.5078	48.8992	20.5078	47.8503
21.9727	47.4911	21.9727	46.3919	21.9727	48.6786	21.9727	45.5335	21.9727	49.8358	21.9727	45.0381	21.9727	50.8902	21.9727	44.9156	21.9727	51.8037	21.9727	45.0596	21.9727	52.5582	21.9727	45.3286	21.9727	53.1463	21.9727	45.6146	21.9727	53.5668	21.9727	45.8609	21.9727	53.8224	21.9727	46.0519	21.9727	53.9185	21.9727	46.2006	21.9727	53.8632	21.9727	46.3396	21.9727	53.6667	21.9727	46.5128	21.9727	53.3416	21.9727	46.7654	21.9727	52.9025	21.9727	47.1306	21.9727	52.3656	21.9727	47.6191	21.9727	51.7486	21.9727	48.2173	21.9727	51.0705	21.9727	48.8953	21.9727	50.3524	21.9727	49.618
23.4375	50.8674	23.4375	50.072	23.4375	51.7271	23.4375	49.4067	23.4375	52.5869	23.4375	48.9178	23.4375	53.3948	23.4375	48.6141	23.4375	54.1136	23.4375	48.4649	23.4375	54.7186	23.4375	48.4174	23.4375	55.194	23.4375	48.4186	23.4375	55.5304	23.4375	48.4294	23.4375	55.7231	23.4375	48.4294	23.4375	55.7709	23.4375	48.4165	23.4375	55.6754	23.4375	48.4054	23.4375	55.4406	23.4375	48.4248	23.4375	55.0732	23.4375	48.5136	23.4375	54.5823	23.4375	48.7131	23.4375	53.9806	23.4375	49.0556	23.4375	53.2858	23.4375	49.5527	23.4375	52.5222	23.4375	50.1894	23.4375	51.7225	23.4375	50.9287
24.9023	50.0607	24.9023	49.2368	24.9023	51.0115	24.9023	48.6425	24.9023	51.9854	24.9023	48.3314	24.9023	52.9039	24.9023	48.2764	24.9023	53.7168	24.9023	48.3906	24.9023	54.3947	24.9023	48.576	24.9023	54.922	24.9023	48.7577	24.9023	55.2913	24.9023	48.8918	24.9023	55.5007	24.9023	48.9607	24.9023	55.5521	24.9023	48.9667	24.9023	55.4504	24.9023	48.9284	24.9023	55.2031	24.9023	48.8788	24.9023	54.8204	24.9023	48.8638	24.9023	54.3151	24.9023	48.9366	24.9023	53.7036	24.9023	49.1463	24.9023	53.0069	24.9023	49.5219	24.9023	52.253	24.9023	50.0609	24.9023	51.4785	24.9023	50.73
26.3672	52.4211	26.3672	51.5563	26.3672	53.3458	26.3672	50.8302	26.3672	54.2593	26.3672	50.3047	26.3672	55.1078	26.3672	49.9974	26.3672	55.8552	26.3672	49.8753	26.3672	56.4786	26.3672	49.8743	26.3672	56.9645	26.3672	49.9289	26.3672	57.3056	26.3672	49.9906	26.3672	57.4991	26.3672	50.034	26.3672	57.5456	26.3672	50.0557	26.3672	57.4487	26.3672	50.0716	26.3672	57.2145	26.3672	50.114	26.3672	56.8511	26.3672	50.2268	26.3672	56.3688	26.3672	50.4548	26.3672	55.7805	26.3672	50.8304	26.3672	55.1022	26.3672	51.3603	26.3672	54.355	26.3672	52.0224	26.3672	53.5668	26.3672	52.7742
27.832	54.494	27.832	53.787	27.832	55.2574	27.832	53.1917	27.832	56.0216	27.832	52.748	27.832	56.7396	27.832	52.4664	27.832	57.3764	27.832	52.326	27.832	57.9071	27.832	52.2856	27.832	58.3152	27.832	52.3003	27.832	58.5906	27.832	52.3333	27.832	58.7285	27.832	52.3623	27.832	58.728	27.832	52.3792	27.832	58.5922	27.832	52.3898	27.832	58.3279	27.832	52.4117	27.832	57.945	27.832	52.4718	27.832	57.4572	27.832	52.6023	27.832	56.8819	27.832	52.8332	27.832	56.2415	27.832	53.184	27.832	55.5635	27.832	53.6564	27.832	54.8813	27.832	54.2328
29.2969	56.4031	29.2969	55.7892	29.2969	57.068	29.2969	55.266	29.2969	57.7404	29.2969	54.8589	29.2969	58.38	29.2969	54.5727	29.2969	58.9538	29.2969	54.3915	29.2969	59.4367	29.2969	54.2866	29.2969	59.8107	29.2969	54.2263	29.2969	60.0639	29.2969	54.1846	29.2969	60.1896	29.2969	54.1449	29.2969	60.1854	29.2969	54.1022	29.2969	60.0529	29.2969	54.0631	29.2969	59.7972	29.2969	54.0455	29.2969	59.4269	29.2969	54.0763	29.2969	58.9544	29.2969	54.1872	29.2969	58.3956	29.2969	54.4071	29.2969	57.7713	29.2969	54.7528	29.2969	57.1076	29.2969	55.2225	29.2969	56.4364	29.2969	55.7951
30.7617	57.7117	30.7617	57.1547	30.7617	58.3214	30.7617	56.6843	30.7617	58.9439	30.7617	56.3198	30.7617	59.5408	30.7617	56.0618	30.7617	60.079	30.7617	55.8936	30.7617	60.5326	30.7617	55.7887	30.7617	60.8826	30.7617	55.7195	30.7617	61.1163	30.7617	55.6635	30.7617	61.2263	30.7617	55.6075	30.7617	61.21	30.7617	55.5485	30.7617	61.0693	30.7617	55.4938	30.7617	60.81	30.7617	55.4604	30.7617	60.4417	30.7617	55.4733	30.7617	59.9781	30.7617	55.561	30.7617	59.4367	30.7617	55.7494	30.7617	58.8391	30.7617	56.0543	30.7617	58.2118	30.7617	56.4752	30.7617	57.5857	30.7617	56.9954
32.2266	59.165	32.2266	58.6705	32.2266	59.7125	32.2266	58.2569	32.2266	60.2779	32.2266	57.9385	32.2266	60.8252	32.2266	57.7129	32.2266	61.3227	32.2266	57.5637	32.2266	61.7445	32.2266	57.4673	32.2266	62.071	32.2266	57.3992	32.2266	62.2889	32.2266	57.3404	32.2266	62.3903	32.2266	57.2794	32.2266	62.3718	32.2266	57.2138	32.2266	62.2351	32.2266	57.1503	32.2266	61.9857	32.2266	57.1041	32.2266	61.6331	32.2266	57.0975	32.2266	61.1908	32.2266	57.1568	32.2266	60.6764	32.2266	57.3071	32.2266	60.1117	32.2266	57.5652	32.2266	59.5234	32.2266	57.9344	32.2266	58.9423	32.2266	58.4018
33.6914	60.7607	33.6914	60.2937	33.6914	61.2687	33.6914	59.8906	33.6914	61.7888	33.6914	59.5635	33.6914	62.291	33.6914	59.3123	33.6914	62.7472	33.6914	59.1261	33.6914	63.1339	33.6914	58.988	33.6914	63.4328	33.6914	58.8799	33.6914	63.6307	33.6914	58.787	33.6914	63.7195	33.6914	58.7008	33.6914	63.6957	33.6914	58.6199	33.6914	63.5602	33.6914	58.551	33.6914	63.318	33.6914	58.5084	33.6914	62.9778	33.6914	58.5122	33.6914	62.5521	33.6914	58.5857	33.6914	62.0574	33.6914	58.75	33.6914	61.5137	33.6914	59.0182	33.6914	60.9458	33.6914	59.3906	33.6914	60.3819	33.6914	59.8534
35.1562	61.7321	35.1562	61.294	35.1562	62.2272	35.1562	60.9364	35.1562	62.7479	35.1562	60.6698	35.1562	63.2605	35.1562	60.4905	35.1562	63.7345	35.1562	60.3835	35.1562	64.1444	35.1562	60.3288	35.1562	64.4712	35.1562	60.3069	35.1562	64.702	35.1562	60.3033	35.1562	64.8297	35.1562	60.3105	35.1562	64.8527	35.1562	60.3282	35.1562	64.7739	35.1562	60.3623	35.1562	64.6008	35.1562	60.4238	35.1562	64.3442	35.1562	60.5263	35.1562	64.0177	35.1562	60.6823	35.1562	63.6371	35.1562	60.9006	35.1562	63.2191	35.1562	61.1836	35.1562	62.7812	35.1562	61.5262	35.1562	62.3413	35.1562	61.9172
36.6211	63.6017	36.6211	63.1678	36.6211	64.0645	36.6211	62.7842	36.6211	64.5311	36.6211	62.4651	36.6211	64.9759	36.6211	62.2157	36.6211	65.3752	36.6211	62.0326	36.6211	65.7089	36.6211	61.9059	36.6211	65.9612	36.6211	61.8229	36.6211	66.1206	36.6211	61.7714	36.6211	66.1805	36.6211	61.7422	36.6211	66.1389	36.6211	61.7302	36.6211	65.9981	36.6211	61.7355	36.6211	65.765	36.6211	61.7625	36.6211	65.4507	36.6211	61.8194	36.6211	65.0705	36.6211	61.9171	36.6211	64.6428	36.6211	62.0668	36.6211	64.1891	36.6211	62.2781	36.6211	63.7322	36.6211	62.5555	36.6211	63.2949	36.6211	62.8975
38.0859	65.4451	38.0859	65.1202	38.0859	65.7968	38.0859	64.8358	38.0859	66.1571	38.0859	64.5991	38.0859	66.5053	38.0859	64.4108	38.0859	66.8205	38.0859	64.2663	38.0859	67.0839	38.0859	64.1573	38.0859	67.2794	38.0859	64.0747	38.0859	67.3954	38.0859	64.0102	38.0859	67.4245	38.0859	63.9579	38.0859	67.3641	38.0859	63.9148	38.0859	67.2165	38.0859	63.8817	38.0859	66.9889	38.0859	63.8624	38.0859	66.6929	38.0859	63.8644	38.0859	66.3446	38.0859	63.8973	38.0859	65.9632	38.0859	63.9719	38.0859	65.5702	38.0859	64.0984	38.0859	65.1878	38.0859	64.284	38.0859	64.836	38.0859	64.5312
39.5508	66.6962	39.5508	66.3518	39.5508	67.0625	39.5508	66.0419	39.5508	67.4337	39.5508	65.7736	39.5508	67.7907	39.5508	65.5481	39.5508	68.1142	39.5508	65.3619	39.5508	68.3868	39.5508	65.2086	39.5508	68.5934	39.5508	65.0815	39.5508	68.723	39.5508	64.9749	39.5508	68.7685	39.5508	64.8866	39.5508	68.727	39.5508	64.8176	39.5508	68.5999	39.5508	64.7727	39.5508	68.3928	39.5508	64.7597	39.5508	68.1147	39.5508	64.7885	39.5508	67.7781	39.5508	64.8689	39.5508	67.3983	39.5508	65.0092	39.5508	66.9926	39.5508	65.2138	39.5508	66.5797	39.5508	65.4821	39.5508	66.1786	39.5508	65.8075
41.0156	67.7499	41.0156	67.4615	41.0156	68.0672	41.0156	67.2137	41.0156	68.3968	41.0156	67.012	41.0156	68.7192	41.0156	66.8558	41.0156	69.0148	41.0156	66.7395	41.0156	69.2651	41.0156	66.6549	41.0156	69.4549	41.0156	66.5933	41.0156	69.5729	41.0156	66.5473	41.0156	69.6122	41.0156	66.5121	41.0156	69.5707	41.0156	66.4859	41.0156	69.4512	41.0156	66.4702	41.0156	69.2608	41.0156	66.4692	41.0156	69.0107	41.0156	66.4893	41.0156	68.7155	41.0156	66.5384	41.0156	68.3919	41.0156	66.6244	41.0156	68.0577	41.0156	66.7538	41.0156	67.7303	41.0156	66.931	41.0156	67.4256	41.0156	67.1563
42.4805	69.0833	42.4805	68.7992	42.4805	69.389	42.4805	68.5482	42.4805	69.701	42.4805	68.337	42.4805	70.0019	42.4805	68.1672	42.4805	70.2741	42.4805	68.0362	42.4805	70.5011	42.4805	67.9384	42.4805	70.6693	42.4805	67.8673	42.4805	70.7685	42.4805	67.8167	42.4805	70.7926	42.4805	67.782	42.4805	70.7401	42.4805	67.7606	42.4805	70.6139	42.4805	67.7524	42.4805	70.4216	42.4805	67.7598	42.4805	70.1745	42.4805	67.7869	42.4805	69.8871	42.4805	67.8394	42.4805	69.576	42.4805	67.9238	42.4805	69.2584	42.4805	68.0459	42.4805	68.9506	42.4805	68.21	42.4805	68.6669	42.4805	68.4178
43.9453	70.329	43.9453	70.0459	43.9453	70.6277	43.9453	69.7892	43.9453	70.9281	43.9453	69.5656	43.9453	71.2142	43.9453	69.3775	43.9453	71.4699	43.9453	69.2238	43.9453	71.6801	43.9453	69.1006	43.9453	71.8319	43.9453	69.0032	43.9453	71.9154	43.9453	68.9268	43.9453	71.9248	43.9453	68.8678	43.9453	71.8583	43.9453	68.8244	43.9453	71.7185	43.9453	68.7968	43.9453	71.5124	43.9453	68.7873	43.9453	71.251	43.9453	68.8002	43.9453	70.9486	43.9453	68.8415	43.9453	70.6218	43.9453	68.9178	43.9453	70.2885	43.9453	69.0356	43.9453	69.9661	43.9453	69.1998	43.9453	69.67	43.9453	69.4122
45.4102	71.8631	45.4102	71.6055	45.4102	72.1302	45.4102	71.3669	45.4102	72.395	45.4102	71.1534	45.4102	72.6439	45.4102	70.9682	45.4102	72.863	45.4102	70.8115	45.4102	73.039	45.4102	70.6815	45.4102	73.1606	45.4102	70.5754	45.4102	73.219	45.4102	70.4901	45.4102	73.2092	45.4102	70.423	45.4102	73.1301	45.4102	70.3724	45.4102	72.9847	45.4102	70.3383	45.4102	72.7804	45.4102	70.3222	45.4102	72.5281	45.4102	70.3272	45.4102	72.2417	45.4102	70.3579	45.4102	71.9373	45.4102	70.4201	45.4102	71.6311	45.4102	70.5194	45.4102	71.3388	45.4102	70.6606	45.4102	71.0738	45.4102	70.8458
46.875	73.1367	46.875	72.9032	46.875	73.3783	46.875	72.6856	46.875	73.6174	46.875	72.489	46.875	73.8418	46.875	72.3156	46.875	74.0387	46.875	72.1652	46.875	74.1954	46.875	72.0364	46.875	74.3011	46.875	71.9266	46.875	74.3475	46.875	71.8335	46.875	74.3293	46.875	71.7555	46.875	74.2455	46.875	71.6922	46.875	74.0992	46.875	71.6442	46.875	73.8975	46.875	71.6139	46.875	73.6514	46.875	71.605	46.875	73.3745	46.875	71.6223	46.875	73.0825	46.875	71.6714	46.875	72.7911	46.875	71.7575	46.875	72.515	46.875	71.8847	46.875	72.2667	46.875	72.0549
48.3398	74.3515	48.3398	74.1325	48.3398	74.5767	48.3398	73.9267	48.3398	74.7984	48.3398	73.7389	48.3398	75.0056	48.3398	73.5712	48.3398	75.1863	48.3398	73.4239	48.3398	75.329	48.3398	73.2957	48.3398	75.4234	48.3398	73.1849	48.3398	75.4614	48.3398	73.0895	48.3398	75.4383	48.3398	73.0081	48.3398	75.3527	48.3398	72.9403	48.3398	75.2074	48.3398	72.8868	48.3398	75.0091	48.3398	72.8498	48.3398	74.768	48.3398	72.8326	48.3398	74.4975	48.3398	72.8401	48.3398	74.2127	48.3398	72.8779	48.3398	73.9294	48.3398	72.9516	48.3398	73.6624	48.3398	73.0661	48.3398	73.4242	48.3398	73.2239
51.2695	76.1959	51.2695	76.0083	51.2695	76.3946	51.2695	75.8379	51.2695	76.5958	51.2695	75.6883	51.2695	76.7894	51.2695	75.5606	51.2695	76.9643	51.2695	75.4544	51.2695	77.1099	51.2695	75.3677	51.2695	77.2168	51.2695	75.2986	51.2695	77.2778	51.2695	75.245	51.2695	77.2888	51.2695	75.2058	51.2695	77.249	51.2695	75.1806	51.2695	77.161	51.2695	75.1702	51.2695	77.0305	51.2695	75.1763	51.2695	76.8658	51.2695	75.2017	51.2695	76.6765	51.2695	75.249	51.2695	76.4728	51.2695	75.3211	51.2695	76.2647	51.2695	75.4196	51.2695	76.0611	51.2695	75.545	51.2695	75.8694	51.2695	75.6959
52.7344	77.3292	52.7344	77.1329	52.7344	77.5331	52.7344	76.9521	52.7344	77.7352	52.7344	76.7922	52.7344	77.9253	52.7344	76.6569	52.7344	78.0928	52.7344	76.5475	52.7344	78.2281	52.7344	76.4637	52.7344	78.3232	52.7344	76.4044	52.7344	78.3725	52.7344	76.3674	52.7344	78.3737	52.7344	76.3509	52.7344	78.3276	52.7344	76.3529	52.7344	78.2383	52.7344	76.3721	52.7344	78.1128	52.7344	76.4075	52.7344	77.9599	52.7344	76.4585	52.7344	77.7893	52.7344	76.5251	52.7344	77.6104	52.7344	76.6073	52.7344	77.4314	52.7344	76.7055	52.7344	77.2589	52.7344	76.8201	52.7344	77.0978	52.7344	76.951
54.1992	78.6738	54.1992	78.4847	54.1992	78.8615	54.1992	78.3011	54.1992	79.0396	54.1992	78.1285	54.1992	79.1989	54.1992	77.9707	54.1992	79.3303	54.1992	77.8299	54.1992	79.4251	54.1992	77.7074	54.1992	79.4762	54.1992	77.6033	54.1992	79.4785	54.1992	77.5173	54.1992	79.4301	54.1992	77.4491	54.1992	79.3326	54.1992	77.3981	54.1992	79.191	54.1992	77.3643	54.1992	79.0136	54.1992	77.3478	54.1992	78.8112	54.1992	77.3492	54.1992	78.5959	54.1992	77.3697	54.1992	78.3795	54.1992	77.4109	54.1992	78.1725	54.1992	77.4744	54.1992	77.9831	54.1992	77.5624	54.1992	77.8168	54.1992	77.6763
55.6641	79.5988	55.6641	79.4224	55.6641	79.7736	55.6641	79.2507	55.6641	79.9395	55.6641	79.0884	55.6641	80.0879	55.6641	78.9388	55.6641	80.2104	55.6641	78.8039	55.6641	80.2988	55.6641	78.6846	55.6641	80.3462	55.6641	78.5812	55.6641	80.3477	55.6641	78.4933	55.6641	80.3011	55.6641	78.421	55.6641	80.2075	55.6641	78.364	55.6641	80.0713	55.6641	78.3227	55.6641	79.8998	55.6641	78.2978	55.6641	79.703	55.6641	78.2905	55.6641	79.4923	55.6641	78.3024	55.6641	79.2793	55.6641	78.3357	55.6641	79.0746	55.6641	78.3925	55.6641	78.887	55.6641	78.475	55.6641	78.7225	55.6641	78.5848
58.5938	81.368	58.5938	81.2014	58.5938	81.5309	58.5938	81.0368	58.5938	81.6829	58.5938	80.8794	58.5938	81.8168	58.5938	80.7329	58.5938	81.925	58.5938	80.6001	58.5938	82.0006	58.5938	80.4828	58.5938	82.038	58.5938	80.3822	58.5938	82.0334	58.5938	80.2986	58.5938	81.9855	58.5938	80.2321	58.5938	81.896	58.5938	80.1827	58.5938	81.7693	58.5938	80.1503	58.5938	81.6126	58.5938	80.1349	58.5938	81.435	58.5938	80.1367	58.5938	81.2466	58.5938	80.1564	58.5938	81.0573	58.5938	80.195	58.5938	80.8757	58.5938	80.2536	58.5938	80.7089	58.5938	80.3336	58.5938	80.5615	58.5938	80.4361
60.0586	82.157	60.0586	81.9942	60.0586	82.3143	60.0586	81.8318	60.0586	82.4596	60.0586	81.675	60.0586	82.5859	60.0586	81.5278	60.0586	82.6862	60.0586	81.3933	60.0586	82.7543	60.0586	81.2738	60.0586	82.785	60.0586	81.1708	60.0586	82.7752	60.0586	81.0853	60.0586	82.7238	60.0586	81.0176	60.0586	82.6329	60.0586	80.9678	60.0586	82.5071	60.0586	80.9357	60.0586	82.3535	60.0586	80.9212	60.0586	82.1809	60.0586	80.9243	60.0586	81.9988	60.0586	80.9452	60.0586	81.8168	60.0586	80.9844	60.0586	81.6427	60.0586	81.0427	60.0586	81.4828	60.0586	81.1212	60.0586	81.3414	60.0586	81.2206
62.9883	83.5071	62.9883	83.3544	62.9883	83.651	62.9883	83.1989	62.9883	83.7804	62.9883	83.0454	62.9883	83.8891	62.9883	82.8987	62.9883	83.9714	62.9883	82.7626	62.9883	84.0221	62.9883	82.6403	62.9883	84.0373	62.9883	82.5341	62.9883	84.0152	62.9883	82.4459	62.9883	83.9557	62.9883	82.3767	62.9883	83.8617	62.9883	82.3268	62.9883	83.7381	62.9883	82.2962	62.9883	83.5921	62.9883	82.2842	62.9883	83.4321	62.9883	82.2903	62.9883	83.2665	62.9883	82.3137	62.9883	83.1033	62.9883	82.3538	62.9883	82.9488	62.9883	82.4106	62.9883	82.8077	62.9883	82.484	62.9883	82.6825	62.9883	82.5746
64.4531	84.0304	64.4531	83.8836	64.4531	84.166	64.4531	83.7311	64.4531	84.2848	64.4531	83.5781	64.4531	84.3811	64.4531	83.4292	64.4531	84.4497	64.4531	83.2887	64.4531	84.4859	64.4531	83.1602	64.4531	84.4867	64.4531	83.0467	64.4531	84.4503	64.4531	82.9504	64.4531	84.3777	64.4531	82.8728	64.4531	84.2719	64.4531	82.8147	64.4531	84.1386	64.4531	82.776	64.4531	83.9853	64.4531	82.7563	64.4531	83.8209	64.4531	82.7545	64.4531	83.654	64.4531	82.7698	64.4531	83.4925	64.4531	82.8014	64.4531	83.3426	64.4531	82.8489	64.4531	83.2084	64.4531	82.9128	64.4531	83.0918	64.4531	82.9934
67.3828	84.9137	67.3828	84.7827	67.3828	85.033	67.3828	84.6447	67.3828	85.1354	67.3828	84.5043	67.3828	85.216	67.3828	84.3659	67.3828	85.27	67.3828	84.2332	67.3828	85.2936	67.3828	84.1095	67.3828	85.284	67.3828	83.9975	67.3828	85.24	67.3828	83.8994	67.3828	85.1625	67.3828	83.8168	67.3828	85.0546	67.3828	83.7505	67.3828	84.9216	67.3828	83.701	67.3828	84.7708	67.3828	83.6684	67.3828	84.6102	67.3828	83.6525	67.3828	84.4483	67.3828	83.6531	67.3828	84.2925	67.3828	83.6701	67.3828	84.149	67.3828	83.7039	67.3828	84.022	67.3828	83.7552	67.3828	83.9137	67.3828	83.8248
68.8477	85.2085	68.8477	85.0788	68.8477	85.3264	68.8477	84.9421	68.8477	85.4272	68.8477	84.8033	68.8477	85.5061	68.8477	84.667	68.8477	85.5588	68.8477	84.5372	68.8477	85.5815	68.8477	84.4174	68.8477	85.5721	68.8477	84.3105	68.8477	85.5297	68.8477	84.2187	68.8477	85.4556	68.8477	84.1433	68.8477	85.3531	68.8477	84.0851	68.8477	85.2277	68.8477	84.0442	68.8477	85.0863	68.8477	84.0201	68.8477	84.9366	68.8477	84.0123	68.8477	84.7862	68.8477	84.0201	68.8477	84.6419	68.8477	84.0431	68.8477	84.5088	68.8477	84.081	68.8477	84.3904	68.8477	84.1341	68.8477	84.2883	68.8477	84.203
