"SPL Horizontal"
"On-Axis"		"10°"		"-10°"		"20°"		"-20°"		"30°"		"-30°"		"40°"		"-40°"		"50°"		"-50°"		"60°"		"-60°"		"70°"		"-70°"		"80°"		"-80°"		"90°"		"-90°"		"100°"		"-100°"		"110°"		"-110°"		"120°"		"-120°"		"130°"		"-130°"		"140°"		"-140°"		"150°"		"-150°"		"160°"		"-160°"		"170°"		"-170°"		"180°"
"Frequency [Hz]"	"Sound Pessure Level [dB]   [2.83V at 1m]"	"Frequency [Hz]"	"Sound Pessure Level [dB]   [2.83V at 1m]"	"Frequency [Hz]"	"Sound Pessure Level [dB]   [2.83V at 1m]"	"Frequency [Hz]"	"Sound Pessure Level [dB]   [2.83V at 1m]"	"Frequency [Hz]"	"Sound Pessure Level [dB]   [2.83V at 1m]"	"Frequency [Hz]"	"Sound Pessure Level [dB]   [2.83V at 1m]"	"Frequency [Hz]"	"Sound Pessure Level [dB]   [2.83V at 1m]"	"Frequency [Hz]"	"Sound Pessure Level [dB]   [2.83V at 1m]"	"Frequency [Hz]"	"Sound Pessure Level [dB]   [2.83V at 1m]"	"Frequency [Hz]"	"Sound Pessure Level [dB]   [2.83V at 1m]"	"Frequency [Hz]"	"Sound Pessure Level [dB]   [2.83V at 1m]"	"Frequency [Hz]"	"Sound Pessure Level [dB]   [2.83V at 1m]"	"Frequency [Hz]"	"Sound Pessure Level [dB]   [2.83V at 1m]"	"Frequency [Hz]"	"Sound Pessure Level [dB]   [2.83V at 1m]"	"Frequency [Hz]"	"Sound Pessure Level [dB]   [2.83V at 1m]"	"Frequency [Hz]"	"Sound Pessure Level [dB]   [2.83V at 1m]"	"Frequency [Hz]"	"Sound Pessure Level [dB]   [2.83V at 1m]"	"Frequency [Hz]"	"Sound Pessure Level [dB]   [2.83V at 1m]"	"Frequency [Hz]"	"Sound Pessure Level [dB]   [2.83V at 1m]"	"Frequency [Hz]"	"Sound Pessure Level [dB]   [2.83V at 1m]"	"Frequency [Hz]"	"Sound Pessure Level [dB]   [2.83V at 1m]"	"Frequency [Hz]"	"Sound Pessure Level [dB]   [2.83V at 1m]"	"Frequency [Hz]"	"Sound Pessure Level [dB]   [2.83V at 1m]"	"Frequency [Hz]"	"Sound Pessure Level [dB]   [2.83V at 1m]"	"Frequency [Hz]"	"Sound Pessure Level [dB]   [2.83V at 1m]"	"Frequency [Hz]"	"Sound Pessure Level [dB]   [2.83V at 1m]"	"Frequency [Hz]"	"Sound Pessure Level [dB]   [2.83V at 1m]"	"Frequency [Hz]"	"Sound Pessure Level [dB]   [2.83V at 1m]"	"Frequency [Hz]"	"Sound Pessure Level [dB]   [2.83V at 1m]"	"Frequency [Hz]"	"Sound Pessure Level [dB]   [2.83V at 1m]"	"Frequency [Hz]"	"Sound Pessure Level [dB]   [2.83V at 1m]"	"Frequency [Hz]"	"Sound Pessure Level [dB]   [2.83V at 1m]"	"Frequency [Hz]"	"Sound Pessure Level [dB]   [2.83V at 1m]"	"Frequency [Hz]"	"Sound Pessure Level [dB]   [2.83V at 1m]"	"Frequency [Hz]"	"Sound Pessure Level [dB]   [2.83V at 1m]"	"Frequency [Hz]"	"Sound Pessure Level [dB]   [2.83V at 1m]"
20.5078	46.2773	20.5078	46.2103	20.5078	46.3734	20.5078	46.1768	20.5078	46.4922	20.5078	46.1786	20.5078	46.6271	20.5078	46.2136	20.5078	46.7721	20.5078	46.2773	20.5078	46.9223	20.5078	46.3628	20.5078	47.074	20.5078	46.4631	20.5078	47.2239	20.5078	46.5723	20.5078	47.3692	20.5078	46.6865	20.5078	47.5066	20.5078	46.8041	20.5078	47.6329	20.5078	46.9255	20.5078	47.745	20.5078	47.0525	20.5078	47.8398	20.5078	47.1865	20.5078	47.914	20.5078	47.3274	20.5078	47.9637	20.5078	47.4717	20.5078	47.985	20.5078	47.6131	20.5078	47.9742	20.5078	47.7424	20.5078	47.929	20.5078	47.8503
21.9727	47.4911	21.9727	47.5223	21.9727	47.4966	21.9727	47.5876	21.9727	47.5387	21.9727	47.6825	21.9727	47.6151	21.9727	47.8013	21.9727	47.7216	21.9727	47.9376	21.9727	47.8524	21.9727	48.0857	21.9727	48.0016	21.9727	48.2406	21.9727	48.1632	21.9727	48.3988	21.9727	48.3323	21.9727	48.5578	21.9727	48.5049	21.9727	48.7164	21.9727	48.6782	21.9727	48.8735	21.9727	48.8499	21.9727	49.0277	21.9727	49.0174	21.9727	49.1762	21.9727	49.1767	21.9727	49.3141	21.9727	49.3221	21.9727	49.435	21.9727	49.4464	21.9727	49.5309	21.9727	49.5414	21.9727	49.5939	21.9727	49.6002	21.9727	49.618
23.4375	50.8674	23.4375	50.8507	23.4375	50.8942	23.4375	50.8444	23.4375	50.9298	23.4375	50.8475	23.4375	50.9719	23.4375	50.8579	23.4375	51.0176	23.4375	50.8725	23.4375	51.0638	23.4375	50.8878	23.4375	51.1071	23.4375	50.9003	23.4375	51.1444	23.4375	50.9073	23.4375	51.1731	23.4375	50.907	23.4375	51.191	23.4375	50.8992	23.4375	51.1971	23.4375	50.8854	23.4375	51.1909	23.4375	50.869	23.4375	51.1732	23.4375	50.8544	23.4375	51.1453	23.4375	50.8463	23.4375	51.109	23.4375	50.8487	23.4375	51.0665	23.4375	50.8637	23.4375	51.0202	23.4375	50.8911	23.4375	50.973	23.4375	50.9287
24.9023	50.0607	24.9023	50.0425	24.9023	50.0902	24.9023	50.036	24.9023	50.1296	24.9023	50.041	24.9023	50.1773	24.9023	50.0568	24.9023	50.2311	24.9023	50.0822	24.9023	50.2888	24.9023	50.1159	24.9023	50.3482	24.9023	50.1566	24.9023	50.4075	24.9023	50.2035	24.9023	50.465	24.9023	50.2557	24.9023	50.5197	24.9023	50.3123	24.9023	50.5708	24.9023	50.3724	24.9023	50.6178	24.9023	50.4343	24.9023	50.6598	24.9023	50.4963	24.9023	50.6959	24.9023	50.5562	24.9023	50.7244	24.9023	50.6118	24.9023	50.7435	24.9023	50.6607	24.9023	50.7515	24.9023	50.7007	24.9023	50.7471	24.9023	50.73
26.3672	52.4211	26.3672	52.3895	26.3672	52.4603	26.3672	52.366	26.3672	52.5064	26.3672	52.3503	26.3672	52.5578	26.3672	52.342	26.3672	52.6128	26.3672	52.34	26.3672	52.6693	26.3672	52.3436	26.3672	52.7253	26.3672	52.3521	26.3672	52.7784	26.3672	52.3651	26.3672	52.8265	26.3672	52.3828	26.3672	52.8677	26.3672	52.4055	26.3672	52.9002	26.3672	52.4339	26.3672	52.9226	26.3672	52.4685	26.3672	52.9339	26.3672	52.5096	26.3672	52.9337	26.3672	52.5567	26.3672	52.922	26.3672	52.6089	26.3672	52.899	26.3672	52.6642	26.3672	52.8657	26.3672	52.7202	26.3672	52.8235	26.3672	52.7742
27.832	54.494	27.832	54.5502	27.832	54.436	27.832	54.603	27.832	54.3774	27.832	54.6509	27.832	54.3194	27.832	54.6921	27.832	54.2632	27.832	54.7249	27.832	54.2097	27.832	54.7476	27.832	54.1602	27.832	54.7591	27.832	54.1158	27.832	54.7584	27.832	54.0778	27.832	54.7453	27.832	54.0474	27.832	54.72	27.832	54.0257	27.832	54.683	27.832	54.0136	27.832	54.6355	27.832	54.0118	27.832	54.5788	27.832	54.021	27.832	54.5147	27.832	54.0416	27.832	54.4453	27.832	54.0736	27.832	54.3732	27.832	54.1169	27.832	54.3013	27.832	54.1705	27.832	54.2328
29.2969	56.4031	29.2969	56.4033	29.2969	56.3971	29.2969	56.3981	29.2969	56.3851	29.2969	56.3875	29.2969	56.3668	29.2969	56.3713	29.2969	56.3422	29.2969	56.3495	29.2969	56.3112	29.2969	56.3217	29.2969	56.2742	29.2969	56.2878	29.2969	56.2317	29.2969	56.2476	29.2969	56.1846	29.2969	56.2014	29.2969	56.1339	29.2969	56.1498	29.2969	56.0808	29.2969	56.0942	29.2969	56.0267	29.2969	56.0361	29.2969	55.9735	29.2969	55.9782	29.2969	55.9231	29.2969	55.9232	29.2969	55.8778	29.2969	55.8744	29.2969	55.84	29.2969	55.8351	29.2969	55.8122	29.2969	55.8081	29.2969	55.7967	29.2969	55.7951
30.7617	57.7117	30.7617	57.7124	30.7617	57.7033	30.7617	57.7058	30.7617	57.687	30.7617	57.692	30.7617	57.6628	30.7617	57.671	30.7617	57.6305	30.7617	57.6431	30.7617	57.5906	30.7617	57.6082	30.7617	57.5435	30.7617	57.5664	30.7617	57.4903	30.7617	57.5181	30.7617	57.4322	30.7617	57.4636	30.7617	57.3707	30.7617	57.4038	30.7617	57.3077	30.7617	57.3399	30.7617	57.2448	30.7617	57.2739	30.7617	57.1843	30.7617	57.208	30.7617	57.1281	30.7617	57.1455	30.7617	57.0787	30.7617	57.0897	30.7617	57.0383	30.7617	57.0443	30.7617	57.0095	30.7617	57.0121	30.7617	56.9947	30.7617	56.9954
32.2266	59.165	32.2266	59.1488	32.2266	59.1727	32.2266	59.1246	32.2266	59.1713	32.2266	59.0929	32.2266	59.1606	32.2266	59.0543	32.2266	59.1402	32.2266	59.0093	32.2266	59.1102	32.2266	58.9583	32.2266	59.0711	32.2266	58.9022	32.2266	59.0234	32.2266	58.8417	32.2266	58.9682	32.2266	58.7778	32.2266	58.9068	32.2266	58.712	32.2266	58.8407	32.2266	58.6462	32.2266	58.7716	32.2266	58.5824	32.2266	58.7016	32.2266	58.5236	32.2266	58.6329	32.2266	58.4726	32.2266	58.568	32.2266	58.4326	32.2266	58.5096	32.2266	58.4064	32.2266	58.4607	32.2266	58.3958	32.2266	58.424	32.2266	58.4018
33.6914	60.7607	33.6914	60.7297	33.6914	60.7817	33.6914	60.6895	33.6914	60.7919	33.6914	60.6408	33.6914	60.7907	33.6914	60.5844	33.6914	60.7775	33.6914	60.5211	33.6914	60.7518	33.6914	60.4519	33.6914	60.7136	33.6914	60.378	33.6914	60.6629	33.6914	60.3006	33.6914	60.6006	33.6914	60.2217	33.6914	60.5279	33.6914	60.1432	33.6914	60.4465	33.6914	60.0679	33.6914	60.3589	33.6914	59.9984	33.6914	60.2681	33.6914	59.9376	33.6914	60.1774	33.6914	59.8885	33.6914	60.0906	33.6914	59.8537	33.6914	60.0114	33.6914	59.8354	33.6914	59.9435	33.6914	59.8351	33.6914	59.89	33.6914	59.8534
35.1562	61.7321	35.1562	61.6964	35.1562	61.7703	35.1562	61.6642	35.1562	61.8098	35.1562	61.6365	35.1562	61.8495	35.1562	61.6141	35.1562	61.8886	35.1562	61.5975	35.1562	61.9261	35.1562	61.5871	35.1562	61.9613	35.1562	61.5832	35.1562	61.9934	35.1562	61.5856	35.1562	62.0219	35.1562	61.5944	35.1562	62.046	35.1562	61.6094	35.1562	62.0646	35.1562	61.6305	35.1562	62.0767	35.1562	61.6575	35.1562	62.0811	35.1562	61.6903	35.1562	62.0766	35.1562	61.7285	35.1562	62.0624	35.1562	61.7717	35.1562	62.0383	35.1562	61.8187	35.1562	62.0049	35.1562	61.868	35.1562	61.9637	35.1562	61.9172
36.6211	63.6017	36.6211	63.6067	36.6211	63.5863	36.6211	63.6016	36.6211	63.5606	36.6211	63.5866	36.6211	63.5249	36.6211	63.5626	36.6211	63.4799	36.6211	63.5302	36.6211	63.4267	36.6211	63.4904	36.6211	63.3667	36.6211	63.4444	36.6211	63.3016	36.6211	63.3932	36.6211	63.2337	36.6211	63.3384	36.6211	63.1654	36.6211	63.2811	36.6211	63.0994	36.6211	63.2228	36.6211	63.0383	36.6211	63.1647	36.6211	62.9846	36.6211	63.108	36.6211	62.9404	36.6211	63.0541	36.6211	62.9073	36.6211	63.0043	36.6211	62.8862	36.6211	62.9605	36.6211	62.8777	36.6211	62.9243	36.6211	62.8816	36.6211	62.8975
38.0859	65.4451	38.0859	65.4584	38.0859	65.4183	38.0859	65.4583	38.0859	65.3785	38.0859	65.4449	38.0859	65.3263	38.0859	65.4187	38.0859	65.2627	38.0859	65.3803	38.0859	65.1893	38.0859	65.3311	38.0859	65.1078	38.0859	65.2723	38.0859	65.0208	38.0859	65.2057	38.0859	64.9309	38.0859	65.1333	38.0859	64.8413	38.0859	65.0572	38.0859	64.7555	38.0859	64.9795	38.0859	64.6769	38.0859	64.9018	38.0859	64.6088	38.0859	64.8261	38.0859	64.5542	38.0859	64.7536	38.0859	64.5154	38.0859	64.6861	38.0859	64.4939	38.0859	64.6251	38.0859	64.4899	38.0859	64.5728	38.0859	64.5029	38.0859	64.5312
39.5508	66.6962	39.5508	66.6813	39.5508	66.6992	39.5508	66.6548	39.5508	66.6899	39.5508	66.6175	39.5508	66.6682	39.5508	66.5704	39.5508	66.6344	39.5508	66.5146	39.5508	66.589	39.5508	66.4517	39.5508	66.5328	39.5508	66.3832	39.5508	66.4669	39.5508	66.311	39.5508	66.393	39.5508	66.2371	39.5508	66.3131	39.5508	66.1635	39.5508	66.2298	39.5508	66.0922	39.5508	66.1463	39.5508	66.0254	39.5508	66.0657	39.5508	65.9646	39.5508	65.9916	39.5508	65.9117	39.5508	65.9272	39.5508	65.8681	39.5508	65.8752	39.5508	65.8353	39.5508	65.8375	39.5508	65.8147	39.5508	65.8149	39.5508	65.8075
41.0156	67.7499	41.0156	67.7328	41.0156	67.7575	41.0156	67.7065	41.0156	67.7559	41.0156	67.6716	41.0156	67.7454	41.0156	67.6288	41.0156	67.7268	41.0156	67.5795	41.0156	67.7008	41.0156	67.5252	41.0156	67.6686	41.0156	67.4679	41.0156	67.6312	41.0156	67.4095	41.0156	67.5897	41.0156	67.3522	41.0156	67.545	41.0156	67.2981	41.0156	67.4981	41.0156	67.2491	41.0156	67.4497	41.0156	67.2071	41.0156	67.4004	41.0156	67.1734	41.0156	67.3513	41.0156	67.1491	41.0156	67.3034	41.0156	67.1351	41.0156	67.2583	41.0156	67.1317	41.0156	67.2175	41.0156	67.1389	41.0156	67.183	41.0156	67.1563
42.4805	69.0833	42.4805	69.0812	42.4805	69.0742	42.4805	69.0678	42.4805	69.0543	42.4805	69.0437	42.4805	69.0242	42.4805	69.0096	42.4805	68.985	42.4805	68.9665	42.4805	68.9382	42.4805	68.9161	42.4805	68.8855	42.4805	68.8601	42.4805	68.8289	42.4805	68.8005	42.4805	68.7707	42.4805	68.7395	42.4805	68.713	42.4805	68.6791	42.4805	68.6577	42.4805	68.6216	42.4805	68.6065	42.4805	68.5687	42.4805	68.5605	42.4805	68.5221	42.4805	68.5203	42.4805	68.4833	42.4805	68.4862	42.4805	68.4531	42.4805	68.4585	42.4805	68.4321	42.4805	68.4375	42.4805	68.4204	42.4805	68.4237	42.4805	68.4178
43.9453	70.329	43.9453	70.3197	43.9453	70.3243	43.9453	70.2968	43.9453	70.3056	43.9453	70.2612	43.9453	70.2733	43.9453	70.2142	43.9453	70.2282	43.9453	70.1571	43.9453	70.1717	43.9453	70.0918	43.9453	70.1054	43.9453	70.0202	43.9453	70.0316	43.9453	69.9443	43.9453	69.9527	43.9453	69.8662	43.9453	69.8713	43.9453	69.7881	43.9453	69.7903	43.9453	69.7122	43.9453	69.7123	43.9453	69.6406	43.9453	69.6396	43.9453	69.5756	43.9453	69.5744	43.9453	69.5192	43.9453	69.5184	43.9453	69.4733	43.9453	69.4731	43.9453	69.4395	43.9453	69.4398	43.9453	69.419	43.9453	69.4192	43.9453	69.4122
45.4102	71.8631	45.4102	71.8638	45.4102	71.8469	45.4102	71.8494	45.4102	71.8154	45.4102	71.8208	45.4102	71.7689	45.4102	71.7789	45.4102	71.7085	45.4102	71.7252	45.4102	71.6355	45.4102	71.6612	45.4102	71.5523	45.4102	71.589	45.4102	71.4614	45.4102	71.5104	45.4102	71.366	45.4102	71.4276	45.4102	71.2697	45.4102	71.3428	45.4102	71.1762	45.4102	71.2582	45.4102	71.0891	45.4102	71.1759	45.4102	71.0116	45.4102	71.098	45.4102	70.9463	45.4102	71.0266	45.4102	70.8951	45.4102	70.9638	45.4102	70.8591	45.4102	70.9117	45.4102	70.8389	45.4102	70.8719	45.4102	70.8346	45.4102	70.8458
46.875	73.1367	46.875	73.1281	46.875	73.1298	46.875	73.1042	46.875	73.1074	46.875	73.0658	46.875	73.0698	46.875	73.0138	46.875	73.0178	46.875	72.9496	46.875	72.9526	46.875	72.875	46.875	72.8758	46.875	72.7919	46.875	72.7895	46.875	72.7028	46.875	72.6963	46.875	72.6103	46.875	72.5992	46.875	72.5173	46.875	72.5014	46.875	72.4264	46.875	72.4064	46.875	72.3407	46.875	72.3176	46.875	72.2625	46.875	72.2383	46.875	72.1942	46.875	72.171	46.875	72.1378	46.875	72.1179	46.875	72.0949	46.875	72.0804	46.875	72.067	46.875	72.0593	46.875	72.0549
48.3398	74.3515	48.3398	74.3382	48.3398	74.3491	48.3398	74.3092	48.3398	74.3309	48.3398	74.2654	48.3398	74.2972	48.3398	74.2078	48.3398	74.2487	48.3398	74.1376	48.3398	74.1865	48.3398	74.0567	48.3398	74.112	48.3398	73.9672	48.3398	74.0271	48.3398	73.8717	48.3398	73.9341	48.3398	73.773	48.3398	73.8357	48.3398	73.6742	48.3398	73.735	48.3398	73.5787	48.3398	73.6353	48.3398	73.4896	48.3398	73.5402	48.3398	73.41	48.3398	73.4531	48.3398	73.3422	48.3398	73.3769	48.3398	73.2885	48.3398	73.3143	48.3398	73.2502	48.3398	73.2672	48.3398	73.2284	48.3398	73.2368	48.3398	73.2239
51.2695	76.1959	51.2695	76.18	51.2695	76.2021	51.2695	76.1548	51.2695	76.1985	51.2695	76.1211	51.2695	76.1856	51.2695	76.0803	51.2695	76.1644	51.2695	76.0341	51.2695	76.1359	51.2695	75.9845	51.2695	76.1016	51.2695	75.9338	51.2695	76.0629	51.2695	75.884	51.2695	76.0213	51.2695	75.8374	51.2695	75.9784	51.2695	75.7956	51.2695	75.9355	51.2695	75.7598	51.2695	75.8937	51.2695	75.7308	51.2695	75.854	51.2695	75.7089	51.2695	75.8171	51.2695	75.6939	51.2695	75.7839	51.2695	75.6854	51.2695	75.7547	51.2695	75.6832	51.2695	75.73	51.2695	75.6867	51.2695	75.7104	51.2695	75.6959
52.7344	77.3292	52.7344	77.3213	52.7344	77.3253	52.7344	77.3021	52.7344	77.3101	52.7344	77.2723	52.7344	77.2849	52.7344	77.2337	52.7344	77.2513	52.7344	77.1885	52.7344	77.2117	52.7344	77.1394	52.7344	77.1688	52.7344	77.0895	52.7344	77.1254	52.7344	77.0418	52.7344	77.0844	52.7344	76.9992	52.7344	77.0483	52.7344	76.9642	52.7344	77.0187	52.7344	76.9382	52.7344	76.9966	52.7344	76.9219	52.7344	76.9817	52.7344	76.9149	52.7344	76.9729	52.7344	76.9156	52.7344	76.9682	52.7344	76.9219	52.7344	76.9655	52.7344	76.9314	52.7344	76.9626	52.7344	76.9417	52.7344	76.958	52.7344	76.951
54.1992	78.6738	54.1992	78.6711	54.1992	78.6584	54.1992	78.6505	54.1992	78.6254	54.1992	78.6131	54.1992	78.5756	54.1992	78.5602	54.1992	78.5106	54.1992	78.4938	54.1992	78.4328	54.1992	78.4164	54.1992	78.345	54.1992	78.331	54.1992	78.2506	54.1992	78.2409	54.1992	78.1537	54.1992	78.1498	54.1992	78.0582	54.1992	78.0611	54.1992	77.9682	54.1992	77.9781	54.1992	77.8874	54.1992	77.9033	54.1992	77.8184	54.1992	77.8388	54.1992	77.7629	54.1992	77.7854	54.1992	77.7214	54.1992	77.7431	54.1992	77.6933	54.1992	77.7113	54.1992	77.6774	54.1992	77.6893	54.1992	77.6721	54.1992	77.6763
55.6641	79.5988	55.6641	79.5901	55.6641	79.5903	55.6641	79.5648	55.6641	79.5649	55.6641	79.5236	55.6641	79.5233	55.6641	79.4681	55.6641	79.4667	55.6641	79.4001	55.6641	79.3972	55.6641	79.3222	55.6641	79.3169	55.6641	79.2372	55.6641	79.2288	55.6641	79.148	55.6641	79.1361	55.6641	79.058	55.6641	79.0422	55.6641	78.9702	55.6641	78.9508	55.6641	78.8876	55.6641	78.8651	55.6641	78.8126	55.6641	78.7881	55.6641	78.747	55.6641	78.722	55.6641	78.6919	55.6641	78.6685	55.6641	78.6481	55.6641	78.6282	55.6641	78.6156	55.6641	78.6011	55.6641	78.5945	55.6641	78.5869	55.6641	78.5848
58.5938	81.368	58.5938	81.3566	58.5938	81.3624	58.5938	81.3284	58.5938	81.3398	58.5938	81.2847	58.5938	81.3011	58.5938	81.227	58.5938	81.2478	58.5938	81.1578	58.5938	81.1818	58.5938	81.0796	58.5938	81.1057	58.5938	80.9958	58.5938	81.0227	58.5938	80.9096	58.5938	80.936	58.5938	80.8245	58.5938	80.8491	58.5938	80.7438	58.5938	80.7655	58.5938	80.67	58.5938	80.6883	58.5938	80.6054	58.5938	80.6198	58.5938	80.5511	58.5938	80.5618	58.5938	80.5078	58.5938	80.5152	58.5938	80.4753	58.5938	80.4799	58.5938	80.4529	58.5938	80.4555	58.5938	80.44	58.5938	80.4411	58.5938	80.4361
60.0586	82.157	60.0586	82.1454	60.0586	82.151	60.0586	82.1166	60.0586	82.1276	60.0586	82.0718	60.0586	82.0877	60.0586	82.0128	60.0586	82.0328	60.0586	81.9419	60.0586	81.9651	60.0586	81.8621	60.0586	81.8873	60.0586	81.7766	60.0586	81.8027	60.0586	81.689	60.0586	81.7146	60.0586	81.6028	60.0586	81.6269	60.0586	81.5214	60.0586	81.543	60.0586	81.4476	60.0586	81.4659	60.0586	81.3835	60.0586	81.3982	60.0586	81.3303	60.0586	81.3414	60.0586	81.2883	60.0586	81.2961	60.0586	81.2572	60.0586	81.2623	60.0586	81.2361	60.0586	81.2391	60.0586	81.2241	60.0586	81.2255	60.0586	81.2206
62.9883	83.5071	62.9883	83.4949	62.9883	83.5008	62.9883	83.4649	62.9883	83.4763	62.9883	83.4181	62.9883	83.4347	62.9883	83.3565	62.9883	83.3776	62.9883	83.2827	62.9883	83.3075	62.9883	83.1999	62.9883	83.2273	62.9883	83.1117	62.9883	83.1405	62.9883	83.0221	62.9883	83.051	62.9883	82.9348	62.9883	82.9626	62.9883	82.8535	62.9883	82.879	62.9883	82.781	62.9883	82.8033	62.9883	82.7194	62.9883	82.7379	62.9883	82.6696	62.9883	82.6841	62.9883	82.6316	62.9883	82.6423	62.9883	82.6044	62.9883	82.6116	62.9883	82.5866	62.9883	82.591	62.9883	82.577	62.9883	82.5791	62.9883	82.5746
64.4531	84.0304	64.4531	84.0166	64.4531	84.024	64.4531	83.9832	64.4531	83.9977	64.4531	83.9314	64.4531	83.9525	64.4531	83.8634	64.4531	83.8902	64.4531	83.7819	64.4531	83.8133	64.4531	83.6904	64.4531	83.7251	64.4531	83.5927	64.4531	83.6292	64.4531	83.4932	64.4531	83.5299	64.4531	83.396	64.4531	83.4315	64.4531	83.3052	64.4531	83.3381	64.4531	83.2241	64.4531	83.2533	64.4531	83.155	64.4531	83.1797	64.4531	83.0991	64.4531	83.119	64.4531	83.0563	64.4531	83.0716	64.4531	83.0259	64.4531	83.0367	64.4531	83.0062	64.4531	83.013	64.4531	82.9957	64.4531	82.999	64.4531	82.9934
67.3828	84.9137	67.3828	84.8991	67.3828	84.9089	67.3828	84.8654	67.3828	84.8848	67.3828	84.8138	67.3828	84.8425	67.3828	84.746	67.3828	84.7836	67.3828	84.6646	67.3828	84.7103	67.3828	84.5726	67.3828	84.6254	67.3828	84.4735	67.3828	84.5322	67.3828	84.3715	67.3828	84.4344	67.3828	84.2703	67.3828	84.3357	67.3828	84.1741	67.3828	84.2397	67.3828	84.0861	67.3828	84.1498	67.3828	84.0093	67.3828	84.0687	67.3828	83.9454	67.3828	83.9983	67.3828	83.8952	67.3828	83.9398	67.3828	83.8587	67.3828	83.8935	67.3828	83.8354	67.3828	83.8592	67.3828	83.8244	67.3828	83.8364	67.3828	83.8248
68.8477	85.2085	68.8477	85.1963	68.8477	85.2018	68.8477	85.1654	68.8477	85.1762	68.8477	85.1172	68.8477	85.133	68.8477	85.0534	68.8477	85.0739	68.8477	84.9767	68.8477	85.0012	68.8477	84.8902	68.8477	84.9181	68.8477	84.7975	68.8477	84.8279	68.8477	84.7025	68.8477	84.7345	68.8477	84.6091	68.8477	84.6416	68.8477	84.521	68.8477	84.553	68.8477	84.4411	68.8477	84.4715	68.8477	84.3719	68.8477	84.3998	68.8477	84.3147	68.8477	84.3393	68.8477	84.27	68.8477	84.2905	68.8477	84.2374	68.8477	84.2532	68.8477	84.216	68.8477	84.2267	68.8477	84.2048	68.8477	84.2103	68.8477	84.203
