"SPL Vertical"
"On-Axis"		"10°"		"-10°"		"20°"		"-20°"		"30°"		"-30°"		"40°"		"-40°"		"50°"		"-50°"		"60°"		"-60°"		"70°"		"-70°"		"80°"		"-80°"		"90°"		"-90°"		"100°"		"-100°"		"110°"		"-110°"		"120°"		"-120°"		"130°"		"-130°"		"140°"		"-140°"		"150°"		"-150°"		"160°"		"-160°"		"170°"		"-170°"		"180°"
"Frequency / Hz"	"Sound Pressure Level / dB (re 20 µPa/V)  [2.83  V @ 1. m]"	"Frequency / Hz"	"Sound Pressure Level / dB (re 20 µPa/V)  [2.83  V @ 1. m]"	"Frequency / Hz"	"Sound Pressure Level / dB (re 20 µPa/V)  [2.83  V @ 1. m]"	"Frequency / Hz"	"Sound Pressure Level / dB (re 20 µPa/V)  [2.83  V @ 1. m]"	"Frequency / Hz"	"Sound Pressure Level / dB (re 20 µPa/V)  [2.83  V @ 1. m]"	"Frequency / Hz"	"Sound Pressure Level / dB (re 20 µPa/V)  [2.83  V @ 1. m]"	"Frequency / Hz"	"Sound Pressure Level / dB (re 20 µPa/V)  [2.83  V @ 1. m]"	"Frequency / Hz"	"Sound Pressure Level / dB (re 20 µPa/V)  [2.83  V @ 1. m]"	"Frequency / Hz"	"Sound Pressure Level / dB (re 20 µPa/V)  [2.83  V @ 1. m]"	"Frequency / Hz"	"Sound Pressure Level / dB (re 20 µPa/V)  [2.83  V @ 1. m]"	"Frequency / Hz"	"Sound Pressure Level / dB (re 20 µPa/V)  [2.83  V @ 1. m]"	"Frequency / Hz"	"Sound Pressure Level / dB (re 20 µPa/V)  [2.83  V @ 1. m]"	"Frequency / Hz"	"Sound Pressure Level / dB (re 20 µPa/V)  [2.83  V @ 1. m]"	"Frequency / Hz"	"Sound Pressure Level / dB (re 20 µPa/V)  [2.83  V @ 1. m]"	"Frequency / Hz"	"Sound Pressure Level / dB (re 20 µPa/V)  [2.83  V @ 1. m]"	"Frequency / Hz"	"Sound Pressure Level / dB (re 20 µPa/V)  [2.83  V @ 1. m]"	"Frequency / Hz"	"Sound Pressure Level / dB (re 20 µPa/V)  [2.83  V @ 1. m]"	"Frequency / Hz"	"Sound Pressure Level / dB (re 20 µPa/V)  [2.83  V @ 1. m]"	"Frequency / Hz"	"Sound Pressure Level / dB (re 20 µPa/V)  [2.83  V @ 1. m]"	"Frequency / Hz"	"Sound Pressure Level / dB (re 20 µPa/V)  [2.83  V @ 1. m]"	"Frequency / Hz"	"Sound Pressure Level / dB (re 20 µPa/V)  [2.83  V @ 1. m]"	"Frequency / Hz"	"Sound Pressure Level / dB (re 20 µPa/V)  [2.83  V @ 1. m]"	"Frequency / Hz"	"Sound Pressure Level / dB (re 20 µPa/V)  [2.83  V @ 1. m]"	"Frequency / Hz"	"Sound Pressure Level / dB (re 20 µPa/V)  [2.83  V @ 1. m]"	"Frequency / Hz"	"Sound Pressure Level / dB (re 20 µPa/V)  [2.83  V @ 1. m]"	"Frequency / Hz"	"Sound Pressure Level / dB (re 20 µPa/V)  [2.83  V @ 1. m]"	"Frequency / Hz"	"Sound Pressure Level / dB (re 20 µPa/V)  [2.83  V @ 1. m]"	"Frequency / Hz"	"Sound Pressure Level / dB (re 20 µPa/V)  [2.83  V @ 1. m]"	"Frequency / Hz"	"Sound Pressure Level / dB (re 20 µPa/V)  [2.83  V @ 1. m]"	"Frequency / Hz"	"Sound Pressure Level / dB (re 20 µPa/V)  [2.83  V @ 1. m]"	"Frequency / Hz"	"Sound Pressure Level / dB (re 20 µPa/V)  [2.83  V @ 1. m]"	"Frequency / Hz"	"Sound Pressure Level / dB (re 20 µPa/V)  [2.83  V @ 1. m]"	"Frequency / Hz"	"Sound Pressure Level / dB (re 20 µPa/V)  [2.83  V @ 1. m]"	"Frequency / Hz"	"Sound Pressure Level / dB (re 20 µPa/V)  [2.83  V @ 1. m]"	"Frequency / Hz"	"Sound Pressure Level / dB (re 20 µPa/V)  [2.83  V @ 1. m]"	"Frequency / Hz"	"Sound Pressure Level / dB (re 20 µPa/V)  [2.83  V @ 1. m]"
20.5078	41.0578	20.5078	41.0468	20.5078	40.901	20.5078	40.868	20.5078	40.5792	20.5078	40.524	20.5078	40.0981	20.5078	40.0185	20.5078	39.4663	20.5078	39.3541	20.5078	38.6946	20.5078	38.5309	20.5078	37.7951	20.5078	37.5444	20.5078	36.7803	20.5078	36.3841	20.5078	35.6618	20.5078	35.0312	20.5078	34.4498	20.5078	33.4551	20.5078	33.1536	20.5078	31.6085	20.5078	31.7836	20.5078	29.4198	20.5078	30.3546	20.5078	26.7859	20.5078	28.8873	20.5078	23.5899	20.5078	27.4049	20.5078	19.9393	20.5078	25.9166	20.5078	17.4208	20.5078	24.3856	20.5078	18.3848	20.5078	22.6974	20.5078	20.6794
21.9727	38.1383	21.9727	38.5047	21.9727	37.6881	21.9727	38.7838	21.9727	37.1687	21.9727	38.9813	21.9727	36.6071	21.9727	39.1091	21.9727	36.043	21.9727	39.1836	21.9727	35.5257	21.9727	39.2225	21.9727	35.1078	21.9727	39.2426	21.9727	34.8349	21.9727	39.2573	21.9727	34.734	21.9727	39.2738	21.9727	34.806	21.9727	39.2927	21.9727	35.0276	21.9727	39.3083	21.9727	35.3617	21.9727	39.3095	21.9727	35.7687	21.9727	39.2825	21.9727	36.2154	21.9727	39.2135	21.9727	36.6766	21.9727	39.0904	21.9727	37.1341	21.9727	38.9055	21.9727	37.5733	21.9727	38.6564	21.9727	37.9813	21.9727	38.3458
23.4375	44.6298	23.4375	44.5459	23.4375	44.7594	23.4375	44.5184	23.4375	44.9233	23.4375	44.5544	23.4375	45.1109	23.4375	44.657	23.4375	45.3144	23.4375	44.8238	23.4375	45.5286	23.4375	45.0483	23.4375	45.7515	23.4375	45.3205	23.4375	45.9821	23.4375	45.6281	23.4375	46.2203	23.4375	45.9582	23.4375	46.4648	23.4375	46.2976	23.4375	46.713	23.4375	46.6336	23.4375	46.9604	23.4375	46.9543	23.4375	47.2008	23.4375	47.2485	23.4375	47.4263	23.4375	47.506	23.4375	47.6281	23.4375	47.7179	23.4375	47.7968	23.4375	47.8769	23.4375	47.923	23.4375	47.9778	23.4375	47.9989	23.4375	48.0183
24.9023	40.6697	24.9023	40.4961	24.9023	40.8557	24.9023	40.3564	24.9023	41.0399	24.9023	40.2755	24.9023	41.2171	24.9023	40.277	24.9023	41.39	24.9023	40.3766	24.9023	41.5673	24.9023	40.579	24.9023	41.7603	24.9023	40.8771	24.9023	41.9798	24.9023	41.2539	24.9023	42.2329	24.9023	41.6874	24.9023	42.5207	24.9023	42.1534	24.9023	42.8381	24.9023	42.6285	24.9023	43.1743	24.9023	43.091	24.9023	43.5144	24.9023	43.5215	24.9023	43.8412	24.9023	43.903	24.9023	44.1364	24.9023	44.2208	24.9023	44.3828	24.9023	44.4631	24.9023	44.5649	24.9023	44.6213	24.9023	44.6703	24.9023	44.6905
26.3672	38.2594	26.3672	38.3736	26.3672	38.2058	26.3672	38.5496	26.3672	38.2114	26.3672	38.7868	26.3672	38.2758	26.3672	39.0823	26.3672	38.4001	26.3672	39.4301	26.3672	38.5865	26.3672	39.8214	26.3672	38.8373	26.3672	40.2452	26.3672	39.1526	26.3672	40.689	26.3672	39.5289	26.3672	41.1398	26.3672	39.958	26.3672	41.5844	26.3672	40.4264	26.3672	42.0093	26.3672	40.9174	26.3672	42.4015	26.3672	41.4114	26.3672	42.748	26.3672	41.8881	26.3672	43.036	26.3672	42.3276	26.3672	43.2539	26.3672	42.7117	26.3672	43.3911	26.3672	43.0249	26.3672	43.4396	26.3672	43.2552	26.3672	43.3947
27.832	31.459	27.832	31.4287	27.832	31.4966	27.832	31.4272	27.832	31.5404	27.832	31.4946	27.832	31.6084	27.832	31.6819	27.832	31.7337	27.832	32.0347	27.832	31.9574	27.832	32.5741	27.832	32.3161	27.832	33.2845	27.832	32.8297	27.832	34.1193	27.832	33.4924	27.832	35.0185	27.832	34.2735	27.832	35.9247	27.832	35.1267	27.832	36.7918	27.832	36.0015	27.832	37.5854	27.832	36.8511	27.832	38.2808	27.832	37.637	27.832	38.8599	27.832	38.3288	27.832	39.309	27.832	38.9036	27.832	39.6178	27.832	39.345	27.832	39.7786	27.832	39.6417	27.832	39.787
29.2969	32.2604	29.2969	31.8983	29.2969	32.5987	29.2969	31.534	29.2969	32.8993	29.2969	31.2017	29.2969	33.1537	29.2969	30.9539	29.2969	33.3601	29.2969	30.8617	29.2969	33.5261	29.2969	30.9987	29.2969	33.6716	29.2969	31.4084	29.2969	33.8303	29.2969	32.0755	29.2969	34.0463	29.2969	32.9301	29.2969	34.3627	29.2969	33.8802	29.2969	34.8036	29.2969	34.8421	29.2969	35.3614	29.2969	35.7534	29.2969	35.996	29.2969	36.5715	29.2969	36.6499	29.2969	37.2682	29.2969	37.2643	29.2969	37.8243	29.2969	37.7904	29.2969	38.2269	29.2969	38.1924	29.2969	38.4672	29.2969	38.447	29.2969	38.5405
30.7617	39.4729	30.7617	39.1754	30.7617	39.6999	30.7617	38.808	30.7617	39.8509	30.7617	38.3669	30.7617	39.916	30.7617	37.8439	30.7617	39.8817	30.7617	37.2277	30.7617	39.7317	30.7617	36.5051	30.7617	39.4472	30.7617	35.6627	30.7617	39.0082	30.7617	34.69	30.7617	38.3933	30.7617	33.5857	30.7617	37.5811	30.7617	32.371	30.7617	36.5532	30.7617	31.1131	30.7617	35.3011	30.7617	29.9531	30.7617	33.8442	30.7617	29.095	30.7617	32.266	30.7617	28.6888	30.7617	30.7646	30.7617	28.6828	30.7617	29.6414	30.7617	28.86	30.7617	29.0931	30.7617	29.0105	30.7617	28.9931	30.7617	29.0377
32.2266	42.1825	32.2266	41.8372	32.2266	42.447	32.2266	41.4169	32.2266	42.6228	32.2266	40.9255	32.2266	42.7004	32.2266	40.3668	32.2266	42.6691	32.2266	39.7466	32.2266	42.5189	32.2266	39.0774	32.2266	42.2406	32.2266	38.3841	32.2266	41.8283	32.2266	37.7103	32.2266	41.2817	32.2266	37.1216	32.2266	40.6107	32.2266	36.6962	32.2266	39.8432	32.2266	36.4966	32.2266	39.0363	32.2266	36.5339	32.2266	38.2835	32.2266	36.7552	32.2266	37.7014	32.2266	37.0686	32.2266	37.3805	32.2266	37.3805	32.2266	37.3238	32.2266	37.6187	32.2266	37.4423	32.2266	37.74	32.2266	37.6121	32.2266	37.7312
33.6914	42.7373	33.6914	42.3999	33.6914	42.939	33.6914	41.9209	33.6914	43.0056	33.6914	41.2893	33.6914	42.9328	33.6914	40.4879	33.6914	42.711	33.6914	39.4934	33.6914	42.3252	33.6914	38.2756	33.6914	41.7538	33.6914	36.801	33.6914	40.9671	33.6914	35.0489	33.6914	39.925	33.6914	33.0767	33.6914	38.574	33.6914	31.2145	33.6914	36.8478	33.6914	30.2768	33.6914	34.6893	33.6914	30.8085	33.6914	32.1848	33.6914	32.1423	33.6914	30.0745	33.6914	33.4758	33.6914	29.9129	33.6914	34.4893	33.6914	31.4428	33.6914	35.1032	33.6914	33.1136	33.6914	35.298	33.6914	34.3383	33.6914	35.0545
35.1562	45.6521	35.1562	45.3436	35.1562	45.8462	35.1562	44.917	35.1562	45.9255	35.1562	44.3644	35.1562	45.8855	35.1562	43.6736	35.1562	45.7172	35.1562	42.827	35.1562	45.4074	35.1562	41.8003	35.1562	44.938	35.1562	40.5597	35.1562	44.2862	35.1562	39.0569	35.1562	43.4228	35.1562	37.2229	35.1562	42.3104	35.1562	34.9592	35.1562	40.9008	35.1562	32.1425	35.1562	39.1309	35.1562	28.7601	35.1562	36.9214	35.1562	25.7814	35.1562	34.1979	35.1562	25.7549	35.1562	31.0412	35.1562	27.5982	35.1562	28.3061	35.1562	29.0682	35.1562	27.7274	35.1562	29.7234	35.1562	28.7209	35.1562	29.5734
36.6211	48.441	36.6211	48.1312	36.6211	48.6408	36.6211	47.7081	36.6211	48.7289	36.6211	47.1633	36.6211	48.6986	36.6211	46.483	36.6211	48.5386	36.6211	45.6473	36.6211	48.2334	36.6211	44.6287	36.6211	47.7626	36.6211	43.389	36.6211	47.101	36.6211	41.8739	36.6211	46.2162	36.6211	40.0048	36.6211	45.0667	36.6211	37.6671	36.6211	43.5968	36.6211	34.7141	36.6211	41.7307	36.6211	31.1563	36.6211	39.3672	36.6211	28.423	36.6211	36.4034	36.6211	29.2595	36.6211	32.9708	36.6211	31.4322	36.6211	30.4801	36.6211	32.9504	36.6211	30.9068	36.6211	33.603	36.6211	32.4354	36.6211	33.4244
38.0859	49.714	38.0859	49.3464	38.0859	49.9381	38.0859	48.8303	38.0859	50.0174	38.0859	48.1534	38.0859	49.9451	38.0859	47.2945	38.0859	49.7084	38.0859	46.2201	38.0859	49.2883	38.0859	44.8781	38.0859	48.6582	38.0859	43.1846	38.0859	47.7805	38.0859	40.9964	38.0859	46.6014	38.0859	38.0443	38.0859	45.0397	38.0859	33.7668	38.0859	42.9658	38.0859	27.578	38.0859	40.1592	38.0859	28.525	38.0859	36.2578	38.0859	33.7221	38.0859	31.4658	38.0859	36.8976	38.0859	31.5419	38.0859	38.8208	38.0859	35.3284	38.0859	39.9275	38.0859	37.9701	38.0859	40.3956	38.0859	39.5162	38.0859	40.2735
39.5508	51.5477	39.5508	51.1944	39.5508	51.7658	39.5508	50.7041	39.5508	51.8475	39.5508	50.0723	39.5508	51.7886	39.5508	49.2939	39.5508	51.5816	39.5508	48.3668	39.5508	51.2164	39.5508	47.3007	39.5508	50.6812	39.5508	46.138	39.5508	49.9658	39.5508	44.9914	39.5508	49.0681	39.5508	44.0853	39.5508	48.0114	39.5508	43.7069	39.5508	46.8778	39.5508	43.9815	39.5508	45.8573	39.5508	44.7284	39.5508	45.2434	39.5508	45.6444	39.5508	45.2454	39.5508	46.5078	39.5508	45.7606	39.5508	47.2046	39.5508	46.4839	39.5508	47.6838	39.5508	47.1599	39.5508	47.9235	39.5508	47.6543	39.5508	47.9139
41.0156	52.435	41.0156	52.0503	41.0156	52.6343	41.0156	51.4606	41.0156	52.658	41.0156	50.6347	41.0156	52.5063	41.0156	49.525	41.0156	52.1688	41.0156	48.058	41.0156	51.623	41.0156	46.1184	41.0156	50.8298	41.0156	43.5293	41.0156	49.7256	41.0156	40.1503	41.0156	48.2042	41.0156	37.1734	41.0156	46.0718	41.0156	38.5854	41.0156	42.9119	41.0156	41.9387	41.0156	37.4921	41.0156	44.6092	41.0156	19.244	41.0156	46.5165	41.0156	35.0771	41.0156	47.8385	41.0156	41.4434	41.0156	48.6936	41.0156	44.764	41.0156	49.1438	41.0156	46.8201	41.0156	49.2117	41.0156	48.1235	41.0156	48.887
42.4805	52.2342	42.4805	51.6641	42.4805	52.6069	42.4805	50.8983	42.4805	52.7823	42.4805	49.9528	42.4805	52.7577	42.4805	48.8873	42.4805	52.5263	42.4805	47.865	42.4805	52.0781	42.4805	47.2113	42.4805	51.4056	42.4805	47.2933	42.4805	50.5191	42.4805	48.1509	42.4805	49.4893	42.4805	49.446	42.4805	48.5337	42.4805	50.8277	42.4805	48.0802	42.4805	52.1061	42.4805	48.5075	42.4805	53.207	42.4805	49.6733	42.4805	54.108	42.4805	51.1037	42.4805	54.8042	42.4805	52.4588	42.4805	55.2946	42.4805	53.5976	42.4805	55.5769	42.4805	54.4815	42.4805	55.6461	42.4805	55.1101	42.4805	55.4941
43.9453	55.9953	43.9453	55.5914	43.9453	56.2599	43.9453	55.0573	43.9453	56.3797	43.9453	54.4115	43.9453	56.3493	43.9453	53.6935	43.9453	56.1633	43.9453	52.9817	43.9453	55.8175	43.9453	52.4082	43.9453	55.3138	43.9453	52.1419	43.9453	54.6708	43.9453	52.3046	43.9453	53.9444	43.9453	52.8755	43.9453	53.2587	43.9453	53.707	43.9453	52.8197	43.9453	54.6282	43.9453	52.8381	43.9453	55.514	43.9453	53.3593	43.9453	56.2907	43.9453	54.2126	43.9453	56.9187	43.9453	55.1639	43.9453	57.3767	43.9453	56.0448	43.9453	57.6517	43.9453	56.7675	43.9453	57.7345	43.9453	57.2954	43.9453	57.6175
45.4102	58.3513	45.4102	58.0023	45.4102	58.583	45.4102	57.5518	45.4102	58.6871	45.4102	57.027	45.4102	58.656	45.4102	56.4745	45.4102	58.4845	45.4102	55.9695	45.4102	58.1712	45.4102	55.616	45.4102	57.7235	45.4102	55.5215	45.4102	57.1681	45.4102	55.7451	45.4102	56.5684	45.4102	56.2573	45.4102	56.0438	45.4102	56.9586	45.4102	55.7645	45.4102	57.733	45.4102	55.877	45.4102	58.4869	45.4102	56.3915	45.4102	59.1573	45.4102	57.1683	45.4102	59.705	45.4102	58.0253	45.4102	60.1055	45.4102	58.8249	45.4102	60.343	45.4102	59.4888	45.4102	60.4061	45.4102	59.9805	45.4102	60.2868
46.875	61.1109	46.875	60.8352	46.875	61.2727	46.875	60.4568	46.875	61.3124	46.875	59.9935	46.875	61.2236	46.875	59.4748	46.875	61.0014	46.875	58.9492	46.875	60.6447	46.875	58.4898	46.875	60.1604	46.875	58.1895	46.875	59.573	46.875	58.1347	46.875	58.9406	46.875	58.3617	46.875	58.3729	46.875	58.8324	46.875	58.0294	46.875	59.4553	46.875	58.055	46.875	60.1287	46.875	58.4747	46.875	60.7697	46.875	59.1668	46.875	61.3203	46.875	59.9555	46.875	61.7426	46.875	60.7003	46.875	62.0121	46.875	61.3177	46.875	62.1124	46.875	61.7669	46.875	62.0325
48.3398	62.2132	48.3398	61.8899	48.3398	62.4149	48.3398	61.4541	48.3398	62.4897	48.3398	60.9228	48.3398	62.4339	48.3398	60.3293	48.3398	62.2458	48.3398	59.7338	48.3398	61.9276	48.3398	59.2339	48.3398	61.491	48.3398	58.9549	48.3398	60.9667	48.3398	59.0031	48.3398	60.4196	48.3398	59.3986	48.3398	59.9624	48.3398	60.058	48.3398	59.7429	48.3398	60.8494	48.3398	59.8764	48.3398	61.654	48.3398	60.3601	48.3398	62.3896	48.3398	61.0709	48.3398	63.0061	48.3398	61.8503	48.3398	63.4743	48.3398	62.5746	48.3398	63.7766	48.3398	63.1696	48.3398	63.9018	48.3398	63.5977	48.3398	63.843
51.2695	64.9919	51.2695	64.7257	51.2695	65.1726	51.2695	64.3947	51.2695	65.2553	51.2695	64.0309	51.2695	65.2331	51.2695	63.6808	51.2695	65.1052	51.2695	63.4063	51.2695	64.879	51.2695	63.2757	51.2695	64.5742	51.2695	63.3436	51.2695	64.23	51.2695	63.6266	51.2695	63.9124	51.2695	64.0942	51.2695	63.7119	51.2695	64.6828	51.2695	63.7203	51.2695	65.3206	51.2695	63.9856	51.2695	65.9449	51.2695	64.4797	51.2695	66.5084	51.2695	65.1139	51.2695	66.9777	51.2695	65.7842	51.2695	67.3296	51.2695	66.4064	51.2695	67.5478	51.2695	66.9249	51.2695	67.6208	51.2695	67.3083	51.2695	67.5418
52.7344	67.1974	52.7344	66.9852	52.7344	67.3375	52.7344	66.719	52.7344	67.3945	52.7344	66.4253	52.7344	67.363	52.7344	66.1412	52.7344	67.2432	52.7344	65.9136	52.7344	67.0431	52.7344	65.7934	52.7344	66.7813	52.7344	65.8228	52.7344	66.4922	52.7344	66.0205	52.7344	66.2299	52.7344	66.3726	52.7344	66.0647	52.7344	66.8378	52.7344	66.0665	52.7344	67.362	52.7344	66.2741	52.7344	67.8916	52.7344	66.6721	52.7344	68.3818	52.7344	67.1968	52.7344	68.7981	52.7344	67.766	52.7344	69.1149	52.7344	68.3058	52.7344	69.3138	52.7344	68.7629	52.7344	69.3823	52.7344	69.1044	52.7344	69.313
54.1992	69.6317	54.1992	69.4273	54.1992	69.7653	54.1992	69.1657	54.1992	69.8193	54.1992	68.8668	54.1992	69.7891	54.1992	68.5585	54.1992	69.6743	54.1992	68.2776	54.1992	69.4799	54.1992	68.067	54.1992	69.219	54.1992	67.969	54.1992	68.9167	54.1992	68.0134	54.1992	68.6135	54.1992	68.2061	54.1992	68.3662	54.1992	68.5255	54.1992	68.2387	54.1992	68.9297	54.1992	68.2807	54.1992	69.3686	54.1992	68.5034	54.1992	69.7948	54.1992	68.8705	54.1992	70.1685	54.1992	69.3149	54.1992	70.4594	54.1992	69.7649	54.1992	70.6454	54.1992	70.1616	54.1992	70.712	54.1992	70.465	54.1992	70.6518
55.6641	71.2009	55.6641	70.9871	55.6641	71.3373	55.6641	70.7085	55.6641	71.3882	55.6641	70.3835	55.6641	71.3493	55.6641	70.0386	55.6641	71.2198	55.6641	69.7101	55.6641	71.0042	55.6641	69.4433	55.6641	70.7148	55.6641	69.2861	55.6641	70.3759	55.6641	69.277	55.6641	70.0288	55.6641	69.4305	55.6641	69.7333	55.6641	69.7297	55.6641	69.5602	55.6641	70.1315	55.6641	69.5676	55.6641	70.5811	55.6641	69.7725	55.6641	71.0251	55.6641	70.1378	55.6641	71.4191	55.6641	70.5908	55.6641	71.7291	55.6641	71.0525	55.6641	71.931	55.6641	71.4592	55.6641	72.0089	55.6641	71.7679	55.6641	71.9546
58.5938	74.4352	58.5938	74.2215	58.5938	74.5691	58.5938	73.936	58.5938	74.6178	58.5938	73.5916	58.5938	74.5785	58.5938	73.208	58.5938	74.4508	58.5938	72.8146	58.5938	74.2377	58.5938	72.4524	58.5938	73.9486	58.5938	72.1718	58.5938	73.6027	58.5938	72.0238	58.5938	73.2339	58.5938	72.0432	58.5938	72.8937	58.5938	72.2333	58.5938	72.6469	58.5938	72.5624	58.5938	72.5552	58.5938	72.9752	58.5938	72.6493	58.5938	73.4106	58.5938	72.9101	58.5938	73.8145	58.5938	73.2768	58.5938	74.1452	58.5938	73.6728	58.5938	74.373	58.5938	74.0303	58.5938	74.4792	58.5938	74.3006	58.5938	74.4547
60.0586	75.1661	60.0586	74.9281	60.0586	75.3225	60.0586	74.6179	60.0586	75.3914	60.0586	74.2505	60.0586	75.3696	60.0586	73.8497	60.0586	75.2566	60.0586	73.4509	60.0586	75.056	60.0586	73.1029	60.0586	74.7782	60.0586	72.8635	60.0586	74.4447	60.0586	72.7856	60.0586	74.0925	60.0586	72.897	60.0586	73.7769	60.0586	73.1859	60.0586	73.5664	60.0586	73.6047	60.0586	73.5221	60.0586	74.0883	60.0586	73.6695	60.0586	74.5733	60.0586	73.9821	60.0586	75.0082	60.0586	74.3927	60.0586	75.3553	60.0586	74.8229	60.0586	75.5889	60.0586	75.2056	60.0586	75.6932	60.0586	75.4943	60.0586	75.6611
62.9883	77.9247	62.9883	77.6841	62.9883	78.087	62.9883	77.3759	62.9883	78.1648	62.9883	77.0173	62.9883	78.1551	62.9883	76.634	62.9883	78.0585	62.9883	76.2626	62.9883	77.8797	62.9883	75.95	62.9883	77.6299	62.9883	75.7476	62.9883	77.3298	62.9883	75.6982	62.9883	77.0134	62.9883	75.8194	62.9883	76.7289	62.9883	76.0953	62.9883	76.5343	62.9883	76.4817	62.9883	76.4811	62.9883	76.9218	62.9883	76.5926	62.9883	77.3605	62.9883	76.8502	62.9883	77.7528	62.9883	77.2002	62.9883	78.0649	62.9883	77.5756	62.9883	78.2735	62.9883	77.9162	62.9883	78.3643	62.9883	78.1773	62.9883	78.3313
64.4531	79.0603	64.4531	78.8308	64.4531	79.2216	64.4531	78.5443	64.4531	79.3075	64.4531	78.2179	64.4531	79.3147	64.4531	77.8764	64.4531	79.243	64.4531	77.5527	64.4531	79.0964	64.4531	77.2871	64.4531	78.8846	64.4531	77.1216	64.4531	78.6258	64.4531	77.0895	64.4531	78.3494	64.4531	77.2039	64.4531	78.0966	64.4531	77.4513	64.4531	77.917	64.4531	77.7957	64.4531	77.856	64.4531	78.1895	64.4531	77.9369	64.4531	78.5848	64.4531	78.1487	64.4531	78.9406	64.4531	78.4489	64.4531	79.225	64.4531	78.7796	64.4531	79.4153	64.4531	79.0854	64.4531	79.4974	64.4531	79.3235	64.4531	79.4657
67.3828	81.5503	67.3828	81.3278	67.3828	81.708	67.3828	81.0495	67.3828	81.7943	67.3828	80.7287	67.3828	81.8052	67.3828	80.3836	67.3828	81.7385	67.3828	80.0395	67.3828	81.5955	67.3828	79.7284	67.3828	81.3816	67.3828	79.4872	67.3828	81.1093	67.3828	79.3506	67.3828	80.8006	67.3828	79.3419	67.3828	80.4899	67.3828	79.4634	67.3828	80.2222	67.3828	79.6941	67.3828	80.046	67.3828	79.9956	67.3828	79.9973	67.3828	80.3224	67.3828	80.0833	67.3828	80.631	67.3828	80.2772	67.3828	80.8856	67.3828	80.5283	67.3828	81.0595	67.3828	80.7802	67.3828	81.1365	67.3828	80.9852	67.3828	81.11
