"SPL Vertical"
"On-Axis"		"10°"		"-10°"		"20°"		"-20°"		"30°"		"-30°"		"40°"		"-40°"		"50°"		"-50°"		"60°"		"-60°"		"70°"		"-70°"		"80°"		"-80°"		"90°"		"-90°"		"100°"		"-100°"		"110°"		"-110°"		"120°"		"-120°"		"130°"		"-130°"		"140°"		"-140°"		"150°"		"-150°"		"160°"		"-160°"		"170°"		"-170°"		"180°"
"Frequency [Hz]"	"Sound Pessure Level [dB]   [2.83  V @ 1. m]"	"Frequency [Hz]"	"Sound Pessure Level [dB]   [2.83  V @ 1. m]"	"Frequency [Hz]"	"Sound Pessure Level [dB]   [2.83  V @ 1. m]"	"Frequency [Hz]"	"Sound Pessure Level [dB]   [2.83  V @ 1. m]"	"Frequency [Hz]"	"Sound Pessure Level [dB]   [2.83  V @ 1. m]"	"Frequency [Hz]"	"Sound Pessure Level [dB]   [2.83  V @ 1. m]"	"Frequency [Hz]"	"Sound Pessure Level [dB]   [2.83  V @ 1. m]"	"Frequency [Hz]"	"Sound Pessure Level [dB]   [2.83  V @ 1. m]"	"Frequency [Hz]"	"Sound Pessure Level [dB]   [2.83  V @ 1. m]"	"Frequency [Hz]"	"Sound Pessure Level [dB]   [2.83  V @ 1. m]"	"Frequency [Hz]"	"Sound Pessure Level [dB]   [2.83  V @ 1. m]"	"Frequency [Hz]"	"Sound Pessure Level [dB]   [2.83  V @ 1. m]"	"Frequency [Hz]"	"Sound Pessure Level [dB]   [2.83  V @ 1. m]"	"Frequency [Hz]"	"Sound Pessure Level [dB]   [2.83  V @ 1. m]"	"Frequency [Hz]"	"Sound Pessure Level [dB]   [2.83  V @ 1. m]"	"Frequency [Hz]"	"Sound Pessure Level [dB]   [2.83  V @ 1. m]"	"Frequency [Hz]"	"Sound Pessure Level [dB]   [2.83  V @ 1. m]"	"Frequency [Hz]"	"Sound Pessure Level [dB]   [2.83  V @ 1. m]"	"Frequency [Hz]"	"Sound Pessure Level [dB]   [2.83  V @ 1. m]"	"Frequency [Hz]"	"Sound Pessure Level [dB]   [2.83  V @ 1. m]"	"Frequency [Hz]"	"Sound Pessure Level [dB]   [2.83  V @ 1. m]"	"Frequency [Hz]"	"Sound Pessure Level [dB]   [2.83  V @ 1. m]"	"Frequency [Hz]"	"Sound Pessure Level [dB]   [2.83  V @ 1. m]"	"Frequency [Hz]"	"Sound Pessure Level [dB]   [2.83  V @ 1. m]"	"Frequency [Hz]"	"Sound Pessure Level [dB]   [2.83  V @ 1. m]"	"Frequency [Hz]"	"Sound Pessure Level [dB]   [2.83  V @ 1. m]"	"Frequency [Hz]"	"Sound Pessure Level [dB]   [2.83  V @ 1. m]"	"Frequency [Hz]"	"Sound Pessure Level [dB]   [2.83  V @ 1. m]"	"Frequency [Hz]"	"Sound Pessure Level [dB]   [2.83  V @ 1. m]"	"Frequency [Hz]"	"Sound Pessure Level [dB]   [2.83  V @ 1. m]"	"Frequency [Hz]"	"Sound Pessure Level [dB]   [2.83  V @ 1. m]"	"Frequency [Hz]"	"Sound Pessure Level [dB]   [2.83  V @ 1. m]"	"Frequency [Hz]"	"Sound Pessure Level [dB]   [2.83  V @ 1. m]"	"Frequency [Hz]"	"Sound Pessure Level [dB]   [2.83  V @ 1. m]"	"Frequency [Hz]"	"Sound Pessure Level [dB]   [2.83  V @ 1. m]"	"Frequency [Hz]"	"Sound Pessure Level [dB]   [2.83  V @ 1. m]"
20.5078	30.2535	20.5078	29.4967	20.5078	30.3623	20.5078	28.7734	20.5078	29.5828	20.5078	29.6494	20.5078	27.5622	20.5078	32.3709	20.5078	23.2698	20.5078	35.4379	20.5078	16.5012	20.5078	38.1378	20.5078	25.1303	20.5078	40.3908	20.5078	31.2543	20.5078	42.2569	20.5078	35.2382	20.5078	43.8037	20.5078	38.1743	20.5078	45.0845	20.5078	40.4774	20.5078	46.1373	20.5078	42.3435	20.5078	46.9886	20.5078	43.8794	20.5078	47.656	20.5078	45.1489	20.5078	48.1506	20.5078	46.1918	20.5078	48.4794	20.5078	47.0341	20.5078	48.646	20.5078	47.6925	20.5078	48.6517	20.5078	48.1777	20.5078	48.4962
21.9727	37.79	21.9727	38.137	21.9727	37.3173	21.9727	38.496	21.9727	36.6423	21.9727	39.033	21.9727	35.7913	21.9727	39.8702	21.9727	35.0152	21.9727	41.0123	21.9727	34.9267	21.9727	42.3554	21.9727	36.0584	21.9727	43.7659	21.9727	38.0718	21.9727	45.1406	21.9727	40.2904	21.9727	46.4175	21.9727	42.3616	21.9727	47.5645	21.9727	44.1874	21.9727	48.5661	21.9727	45.763	21.9727	49.4156	21.9727	47.1075	21.9727	50.1098	21.9727	48.2416	21.9727	50.6474	21.9727	49.1826	21.9727	51.0272	21.9727	49.943	21.9727	51.2485	21.9727	50.5315	21.9727	51.3106	21.9727	50.9536	21.9727	51.2127
23.4375	34.9825	23.4375	33.6896	23.4375	35.7073	23.4375	32.1096	23.4375	35.88	23.4375	31.6678	23.4375	35.5563	23.4375	33.8087	23.4375	34.8546	23.4375	36.9842	23.4375	34.153	23.4375	39.8961	23.4375	34.3159	23.4375	42.3377	23.4375	35.9339	23.4375	44.3652	23.4375	38.3565	23.4375	46.0525	23.4375	40.7993	23.4375	47.4557	23.4375	42.9729	23.4375	48.6131	23.4375	44.8347	23.4375	49.5507	23.4375	46.408	23.4375	50.2859	23.4375	47.7256	23.4375	50.8307	23.4375	48.8151	23.4375	51.1931	23.4375	49.6978	23.4375	51.3786	23.4375	50.3885	23.4375	51.3905	23.4375	50.8972	23.4375	51.2302
24.9023	43.7453	24.9023	43.7909	24.9023	43.7691	24.9023	43.9947	24.9023	43.812	24.9023	44.4495	24.9023	43.8725	24.9023	45.197	24.9023	43.9953	24.9023	46.1971	24.9023	44.2585	24.9023	47.352	24.9023	44.7419	24.9023	48.5571	24.9023	45.4821	24.9023	49.7322	24.9023	46.447	24.9023	50.826	24.9023	47.5538	24.9023	51.8089	24.9023	48.71	24.9023	52.6646	24.9023	49.8414	24.9023	53.3842	24.9023	50.8986	24.9023	53.9627	24.9023	51.8521	24.9023	54.3973	24.9023	52.6855	24.9023	54.6865	24.9023	53.3896	24.9023	54.8298	24.9023	53.959	24.9023	54.8274	24.9023	54.3901	24.9023	54.6803
26.3672	46.1448	26.3672	45.9897	26.3672	46.2595	26.3672	45.8828	26.3672	46.291	26.3672	45.9531	26.3672	46.2371	26.3672	46.3251	26.3672	46.1339	26.3672	47.0447	26.3672	46.0582	26.3672	48.0448	26.3672	46.123	26.3672	49.1953	26.3672	46.4448	26.3672	50.3732	26.3672	47.0823	26.3672	51.494	26.3672	47.9964	26.3672	52.509	26.3672	49.0783	26.3672	53.3924	26.3672	50.2114	26.3672	54.1317	26.3672	51.3085	26.3672	54.7207	26.3672	52.3162	26.3672	55.1569	26.3672	53.2054	26.3672	55.4393	26.3672	53.9612	26.3672	55.5684	26.3672	54.5765	26.3672	55.545	26.3672	55.0471	26.3672	55.3706
27.832	49.697	27.832	49.6136	27.832	49.753	27.832	49.5585	27.832	49.7549	27.832	49.6128	27.832	49.7037	27.832	49.8621	27.832	49.6272	27.832	50.3587	27.832	49.5804	27.832	51.0907	27.832	49.6405	27.832	51.989	27.832	49.8879	27.832	52.9634	27.832	50.3722	27.832	53.9343	27.832	51.0836	27.832	54.8448	27.832	51.9589	27.832	55.6585	27.832	52.9127	27.832	56.3534	27.832	53.8685	27.832	56.9166	27.832	54.7701	27.832	57.3406	27.832	55.5813	27.832	57.6211	27.832	56.2799	27.832	57.7562	27.832	56.8524	27.832	57.7454	27.832	57.2907	27.832	57.5895
29.2969	51.6758	29.2969	51.6178	29.2969	51.664	29.2969	51.5287	29.2969	51.567	29.2969	51.4733	29.2969	51.3908	29.2969	51.5372	29.2969	51.1647	29.2969	51.8036	29.2969	50.9461	29.2969	52.3138	29.2969	50.8238	29.2969	53.0433	29.2969	50.9026	29.2969	53.9155	29.2969	51.2628	29.2969	54.8395	29.2969	51.9118	29.2969	55.7396	29.2969	52.7788	29.2969	56.5626	29.2969	53.7572	29.2969	57.2756	29.2969	54.75	29.2969	57.859	29.2969	55.6887	29.2969	58.3019	29.2969	56.531	29.2969	58.5984	29.2969	57.2529	29.2969	58.7455	29.2969	57.8411	29.2969	58.7424	29.2969	58.2881	29.2969	58.5894
30.7617	53.6722	30.7617	53.6003	30.7617	53.6931	30.7617	53.5161	30.7617	53.6481	30.7617	53.4823	30.7617	53.5447	30.7617	53.5776	30.7617	53.413	30.7617	53.8715	30.7617	53.3072	30.7617	54.392	30.7617	53.301	30.7617	55.1088	30.7617	53.4717	30.7617	55.9501	30.7617	53.8688	30.7617	56.8343	30.7617	54.4881	30.7617	57.6936	30.7617	55.2736	30.7617	58.4801	30.7617	56.1454	30.7617	59.1634	30.7617	57.029	30.7617	59.7251	30.7617	57.868	30.7617	60.1548	30.7617	58.625	30.7617	60.4467	30.7617	59.2764	30.7617	60.5981	30.7617	59.8078	30.7617	60.6084	30.7617	60.2104	30.7617	60.4784
32.2266	56.0027	32.2266	55.9733	32.2266	56.0169	32.2266	55.9565	32.2266	56.0052	32.2266	55.9953	32.2266	55.9731	32.2266	56.1404	32.2266	55.942	32.2266	56.4352	32.2266	55.9473	32.2266	56.897	32.2266	56.0339	32.2266	57.5076	32.2266	56.2456	32.2266	58.2204	32.2266	56.6101	32.2266	58.9773	32.2266	57.1266	32.2266	59.7246	32.2266	57.7654	32.2266	60.4198	32.2266	58.4785	32.2266	61.0324	32.2266	59.2144	32.2266	61.5421	32.2266	59.9282	32.2266	61.9357	32.2266	60.5849	32.2266	62.2053	32.2266	61.1595	32.2266	62.3465	32.2266	61.6345	32.2266	62.358	32.2266	61.9976	32.2266	62.2406
33.6914	58.68	33.6914	58.6357	33.6914	58.7058	33.6914	58.5965	33.6914	58.7027	33.6914	58.597	33.6914	58.673	33.6914	58.6786	33.6914	58.6309	33.6914	58.8787	33.6914	58.6022	33.6914	59.2173	33.6914	58.6214	33.6914	59.6883	33.6914	58.7262	33.6914	60.2609	33.6914	58.9476	33.6914	60.8896	33.6914	59.2994	33.6914	61.527	33.6914	59.7718	33.6914	62.1318	33.6914	60.3344	33.6914	62.6722	33.6914	60.9457	33.6914	63.125	33.6914	61.563	33.6914	63.4746	33.6914	62.1493	33.6914	63.7111	33.6914	62.6754	33.6914	63.8289	33.6914	63.1194	33.6914	63.8261	33.6914	63.4657	33.6914	63.7037
35.1562	60.3054	35.1562	60.2965	35.1562	60.3069	35.1562	60.3001	35.1562	60.2923	35.1562	60.3457	35.1562	60.2638	35.1562	60.4668	35.1562	60.2349	35.1562	60.6931	35.1562	60.2286	35.1562	61.0393	35.1562	60.2753	35.1562	61.4992	35.1562	60.407	35.1562	62.0462	35.1562	60.6483	35.1562	62.6415	35.1562	61.0088	35.1562	63.2439	35.1562	61.4776	35.1562	63.8162	35.1562	62.0267	35.1562	64.3287	35.1562	62.6189	35.1562	64.7591	35.1562	63.2155	35.1562	65.0916	35.1562	63.7826	35.1562	65.3159	35.1562	64.2926	35.1562	65.4259	35.1562	64.7245	35.1562	65.4193	35.1562	65.063	35.1562	65.297
36.6211	62.284	36.6211	62.2763	36.6211	62.2859	36.6211	62.28	36.6211	62.2738	36.6211	62.3197	36.6211	62.249	36.6211	62.4236	36.6211	62.222	36.6211	62.6163	36.6211	62.2113	36.6211	62.9114	36.6211	62.2421	36.6211	63.306	36.6211	62.3415	36.6211	63.7801	36.6211	62.5324	36.6211	64.3024	36.6211	62.8265	36.6211	64.8371	36.6211	63.2194	36.6211	65.3505	36.6211	63.6912	36.6211	65.8139	36.6211	64.2113	36.6211	66.2051	36.6211	64.7455	36.6211	66.5078	36.6211	65.2616	36.6211	66.7109	36.6211	65.7319	36.6211	66.8079	36.6211	66.1347	36.6211	66.7962	36.6211	66.4535	36.6211	66.6766
38.0859	63.7003	38.0859	63.7103	38.0859	63.6937	38.0859	63.7382	38.0859	63.6833	38.0859	63.8044	38.0859	63.6702	38.0859	63.9312	38.0859	63.6631	38.0859	64.1374	38.0859	63.6777	38.0859	64.4329	38.0859	63.7349	38.0859	64.8138	38.0859	63.8567	38.0859	65.2631	38.0859	64.0609	38.0859	65.7539	38.0859	64.3559	38.0859	66.2553	38.0859	64.7368	38.0859	66.7371	38.0859	65.1858	38.0859	67.1732	38.0859	65.6764	38.0859	67.5425	38.0859	66.1785	38.0859	67.8292	38.0859	66.6632	38.0859	68.0224	38.0859	67.1052	38.0859	68.1156	38.0859	67.4841	38.0859	68.1058	38.0859	67.7842	38.0859	67.994
39.5508	65.642	39.5508	65.661	39.5508	65.6259	39.5508	65.6946	39.5508	65.6071	39.5508	65.7593	39.5508	65.5866	39.5508	65.8738	39.5508	65.572	39.5508	66.0541	39.5508	65.5767	39.5508	66.3098	39.5508	65.6183	39.5508	66.6396	39.5508	65.7157	39.5508	67.031	39.5508	65.885	39.5508	67.4622	39.5508	66.1348	39.5508	67.9067	39.5508	66.463	39.5508	68.3375	39.5508	66.8565	39.5508	68.7298	39.5508	67.2934	39.5508	69.0632	39.5508	67.7472	39.5508	69.3216	39.5508	68.1913	39.5508	69.494	39.5508	68.6014	39.5508	69.5733	39.5508	68.9571	39.5508	69.5566	39.5508	69.2422	39.5508	69.4447
41.0156	67.5583	41.0156	67.5755	41.0156	67.5407	41.0156	67.6015	41.0156	67.5183	41.0156	67.6497	41.0156	67.4922	41.0156	67.7354	41.0156	67.4684	41.0156	67.8732	41.0156	67.4578	41.0156	68.0734	41.0156	67.4751	41.0156	68.3383	41.0156	67.5366	41.0156	68.6608	41.0156	67.6575	41.0156	69.0252	41.0156	67.8478	41.0156	69.4093	41.0156	68.1095	41.0156	69.7886	41.0156	68.4347	41.0156	70.1393	41.0156	68.8072	41.0156	70.4404	41.0156	69.2045	41.0156	70.675	41.0156	69.6022	41.0156	70.8307	41.0156	69.9765	41.0156	70.8997	41.0156	70.3066	41.0156	70.8788	41.0156	70.5752	41.0156	70.769
42.4805	68.3011	42.4805	68.3402	42.4805	68.272	42.4805	68.3992	42.4805	68.2482	42.4805	68.492	42.4805	68.2308	42.4805	68.6332	42.4805	68.2268	42.4805	68.8349	42.4805	68.2481	42.4805	69.1028	42.4805	68.3095	42.4805	69.4337	42.4805	68.4263	42.4805	69.8152	42.4805	68.6106	42.4805	70.2278	42.4805	68.8676	42.4805	70.6479	42.4805	69.1936	42.4805	71.0516	42.4805	69.5757	42.4805	71.4168	42.4805	69.9942	42.4805	71.7249	42.4805	70.426	42.4805	71.9616	42.4805	70.8475	42.4805	72.1165	42.4805	71.2372	42.4805	72.1835	42.4805	71.5764	42.4805	72.1602	42.4805	71.8504	42.4805	72.0476
43.9453	70.2861	43.9453	70.3313	43.9453	70.2547	43.9453	70.3969	43.9453	70.234	43.9453	70.4915	43.9453	70.2247	43.9453	70.6245	43.9453	70.231	43.9453	70.8033	43.9453	70.2609	43.9453	71.0318	43.9453	70.3243	43.9453	71.3083	43.9453	70.4316	43.9453	71.6246	43.9453	70.5915	43.9453	71.9671	43.9453	70.8081	43.9453	72.3183	43.9453	71.0796	43.9453	72.6589	43.9453	71.3977	43.9453	72.9703	43.9453	71.748	43.9453	73.2356	43.9453	72.1128	43.9453	73.4411	43.9453	72.4725	43.9453	73.5765	43.9453	72.8082	43.9453	73.6353	43.9453	73.103	43.9453	73.6148	43.9453	73.3425	43.9453	73.5157
45.4102	71.7546	45.4102	71.7977	45.4102	71.7258	45.4102	71.8605	45.4102	71.7091	45.4102	71.9501	45.4102	71.7052	45.4102	72.0744	45.4102	71.718	45.4102	72.2404	45.4102	71.7539	45.4102	72.4517	45.4102	71.8212	45.4102	72.7073	45.4102	71.9284	45.4102	73.0006	45.4102	72.0824	45.4102	73.3195	45.4102	72.2865	45.4102	73.6483	45.4102	72.5393	45.4102	73.969	45.4102	72.8336	45.4102	74.2638	45.4102	73.1573	45.4102	74.5166	45.4102	73.4945	45.4102	74.7137	45.4102	73.8277	45.4102	74.8451	45.4102	74.1395	45.4102	74.9041	45.4102	74.4137	45.4102	74.8879	45.4102	74.6366	45.4102	74.7973
46.875	73.2325	46.875	73.268	46.875	73.2089	46.875	73.3203	46.875	73.1949	46.875	73.396	46.875	73.1912	46.875	73.5027	46.875	73.2011	46.875	73.6469	46.875	73.2304	46.875	73.8324	46.875	73.2864	46.875	74.059	46.875	73.3769	46.875	74.3212	46.875	73.5087	46.875	74.6085	46.875	73.6855	46.875	74.9068	46.875	73.9071	46.875	75.1998	46.875	74.1679	46.875	75.4707	46.875	74.4579	46.875	75.7043	46.875	74.763	46.875	75.8873	46.875	75.0672	46.875	76.0097	46.875	75.3541	46.875	76.0648	46.875	75.6079	46.875	76.0497	46.875	75.8152	46.875	75.965
48.3398	74.4128	48.3398	74.4539	48.3398	74.3874	48.3398	74.5151	48.3398	74.3754	48.3398	74.6022	48.3398	74.3768	48.3398	74.721	48.3398	74.3941	48.3398	74.8758	48.3398	74.4319	48.3398	75.0686	48.3398	74.4962	48.3398	75.2972	48.3398	74.5933	48.3398	75.5555	48.3398	74.7286	48.3398	75.8332	48.3398	74.9047	48.3398	76.1175	48.3398	75.121	48.3398	76.3937	48.3398	75.3722	48.3398	76.647	48.3398	75.6491	48.3398	76.8635	48.3398	75.9392	48.3398	77.0316	48.3398	76.228	48.3398	77.1421	48.3398	76.5005	48.3398	77.1891	48.3398	76.7423	48.3398	77.1701	48.3398	76.9409	48.3398	77.0859
51.2695	76.6677	51.2695	76.7219	51.2695	76.6321	51.2695	76.7969	51.2695	76.6138	51.2695	76.8955	51.2695	76.613	51.2695	77.0202	51.2695	76.6312	51.2695	77.1727	51.2695	76.6712	51.2695	77.353	51.2695	76.7363	51.2695	77.5586	51.2695	76.8302	51.2695	77.7843	51.2695	76.9558	51.2695	78.0223	51.2695	77.1144	51.2695	78.2626	51.2695	77.3048	51.2695	78.4937	51.2695	77.5231	51.2695	78.7037	51.2695	77.7621	51.2695	78.8814	51.2695	78.0125	51.2695	79.0168	51.2695	78.2627	51.2695	79.1023	51.2695	78.5005	51.2695	79.133	51.2695	78.7138	51.2695	79.1068	51.2695	78.8918	51.2695	79.0251
52.7344	77.6911	52.7344	77.748	52.7344	77.6511	52.7344	77.8232	52.7344	77.6276	52.7344	77.9185	52.7344	77.6209	52.7344	78.0357	52.7344	77.6327	52.7344	78.1762	52.7344	77.6653	52.7344	78.3397	52.7344	77.7216	52.7344	78.5244	52.7344	77.8047	52.7344	78.7263	52.7344	77.9171	52.7344	78.9387	52.7344	78.0598	52.7344	79.1531	52.7344	78.2319	52.7344	79.3596	52.7344	78.4299	52.7344	79.5473	52.7344	78.6479	52.7344	79.7059	52.7344	78.8772	52.7344	79.8263	52.7344	79.1075	52.7344	79.9012	52.7344	79.3276	52.7344	79.9257	52.7344	79.5263	52.7344	79.898	52.7344	79.6931	52.7344	79.8192
54.1992	78.5949	54.1992	78.6516	54.1992	78.5545	54.1992	78.7255	54.1992	78.53	54.1992	78.8179	54.1992	78.5218	54.1992	78.93	54.1992	78.5312	54.1992	79.0627	54.1992	78.5601	54.1992	79.2156	54.1992	78.611	54.1992	79.3868	54.1992	78.6862	54.1992	79.5727	54.1992	78.788	54.1992	79.7675	54.1992	78.9173	54.1992	79.9634	54.1992	79.0734	54.1992	80.1514	54.1992	79.2536	54.1992	80.3217	54.1992	79.4527	54.1992	80.4648	54.1992	79.6632	54.1992	80.5721	54.1992	79.8759	54.1992	80.6369	54.1992	80.0806	54.1992	80.6548	54.1992	80.2669	54.1992	80.6241	54.1992	80.4249	54.1992	80.5461
55.6641	79.2709	55.6641	79.3226	55.6641	79.2354	55.6641	79.3915	55.6641	79.2158	55.6641	79.4788	55.6641	79.212	55.6641	79.5855	55.6641	79.225	55.6641	79.712	55.6641	79.2563	55.6641	79.8576	55.6641	79.3079	55.6641	80.0205	55.6641	79.3818	55.6641	80.1969	55.6641	79.4798	55.6641	80.3812	55.6641	79.6028	55.6641	80.5663	55.6641	79.75	55.6641	80.7438	55.6641	79.9189	55.6641	80.9047	55.6641	80.1047	55.6641	81.04	55.6641	80.3009	55.6641	81.1418	55.6641	80.499	55.6641	81.2038	55.6641	80.6895	55.6641	81.2217	55.6641	80.8628	55.6641	81.1941	55.6641	81.0097	55.6641	81.1222
58.5938	80.2381	58.5938	80.2929	58.5938	80.2002	58.5938	80.3651	58.5938	80.1792	58.5938	80.4546	58.5938	80.175	58.5938	80.5614	58.5938	80.1883	58.5938	80.6847	58.5938	80.2197	58.5938	80.8227	58.5938	80.2704	58.5938	80.9729	58.5938	80.3412	58.5938	81.1317	58.5938	80.4329	58.5938	81.2939	58.5938	80.5454	58.5938	81.4539	58.5938	80.6778	58.5938	81.6047	58.5938	80.8277	58.5938	81.7392	58.5938	80.9911	58.5938	81.8503	58.5938	81.1628	58.5938	81.9316	58.5938	81.336	58.5938	81.9783	58.5938	81.503	58.5938	81.987	58.5938	81.6559	58.5938	81.9568	58.5938	81.7868	58.5938	81.8889
60.0586	80.6098	60.0586	80.6667	60.0586	80.5691	60.0586	80.7396	60.0586	80.5451	60.0586	80.8279	60.0586	80.538	60.0586	80.9311	60.0586	80.5485	60.0586	81.0481	60.0586	80.5772	60.0586	81.1773	60.0586	80.6247	60.0586	81.3164	60.0586	80.6916	60.0586	81.4622	60.0586	80.7782	60.0586	81.6104	60.0586	80.884	60.0586	81.7559	60.0586	81.008	60.0586	81.8927	60.0586	81.1479	60.0586	82.0144	60.0586	81.3001	60.0586	82.1144	60.0586	81.4597	60.0586	82.187	60.0586	81.6207	60.0586	82.2275	60.0586	81.7762	60.0586	82.2331	60.0586	81.9188	60.0586	82.2028	60.0586	82.0415	60.0586	82.1378
62.9883	81.0631	62.9883	81.1207	62.9883	81.022	62.9883	81.1938	62.9883	80.9979	62.9883	81.2816	62.9883	80.9913	62.9883	81.3826	62.9883	81.0022	62.9883	81.4949	62.9883	81.0309	62.9883	81.6165	62.9883	81.0773	62.9883	81.7445	62.9883	81.1411	62.9883	81.8758	62.9883	81.222	62.9883	82.0066	62.9883	81.3189	62.9883	82.1325	62.9883	81.4306	62.9883	82.2488	62.9883	81.5548	62.9883	82.3503	62.9883	81.6887	62.9883	82.432	62.9883	81.8283	62.9883	82.4893	62.9883	81.9688	62.9883	82.5187	62.9883	82.1047	62.9883	82.518	62.9883	82.2301	62.9883	82.4867	62.9883	82.339	62.9883	82.426
64.4531	81.2964	64.4531	81.3542	64.4531	81.2544	64.4531	81.4268	64.4531	81.2291	64.4531	81.5129	64.4531	81.2209	64.4531	81.6107	64.4531	81.2299	64.4531	81.7183	64.4531	81.2562	64.4531	81.8333	64.4531	81.2996	64.4531	81.953	64.4531	81.3595	64.4531	82.0744	64.4531	81.4352	64.4531	82.194	64.4531	81.5256	64.4531	82.308	64.4531	81.6293	64.4531	82.4121	64.4531	81.7442	64.4531	82.502	64.4531	81.8677	64.4531	82.5732	64.4531	81.9962	64.4531	82.6219	64.4531	82.1256	64.4531	82.645	64.4531	82.2509	64.4531	82.6407	64.4531	82.367	64.4531	82.6087	64.4531	82.4685	64.4531	82.5504
67.3828	81.5988	67.3828	81.6549	67.3828	81.5579	67.3828	81.725	67.3828	81.5334	67.3828	81.807	67.3828	81.5259	67.3828	81.8988	67.3828	81.5355	67.3828	81.9982	67.3828	81.5618	67.3828	82.1024	67.3828	81.604	67.3828	82.2089	67.3828	81.6612	67.3828	82.3148	67.3828	81.7319	67.3828	82.4174	67.3828	81.8146	67.3828	82.5135	67.3828	81.9075	67.3828	82.5997	67.3828	82.0086	67.3828	82.6729	67.3828	82.1155	67.3828	82.7297	67.3828	82.2255	67.3828	82.7673	67.3828	82.3354	67.3828	82.7833	67.3828	82.4414	67.3828	82.7767	67.3828	82.5396	67.3828	82.7472	67.3828	82.6258	67.3828	82.6961
68.8477	81.7192	68.8477	81.7706	68.8477	81.6831	68.8477	81.8357	68.8477	81.6632	68.8477	81.9125	68.8477	81.66	68.8477	81.9989	68.8477	81.6735	68.8477	82.0924	68.8477	81.703	68.8477	82.1905	68.8477	81.7476	68.8477	82.2904	68.8477	81.8057	68.8477	82.3895	68.8477	81.8757	68.8477	82.4852	68.8477	81.9559	68.8477	82.5745	68.8477	82.0443	68.8477	82.6546	68.8477	82.1389	68.8477	82.7227	68.8477	82.2375	68.8477	82.7757	68.8477	82.3376	68.8477	82.8114	68.8477	82.4365	68.8477	82.8277	68.8477	82.5312	68.8477	82.8236	68.8477	82.6181	68.8477	82.7991	68.8477	82.6939	68.8477	82.7551
