"SPL Horizontal"
"On-Axis"		"10°"		"-10°"		"20°"		"-20°"		"30°"		"-30°"		"40°"		"-40°"		"50°"		"-50°"		"60°"		"-60°"		"70°"		"-70°"		"80°"		"-80°"		"90°"		"-90°"		"100°"		"-100°"		"110°"		"-110°"		"120°"		"-120°"		"130°"		"-130°"		"140°"		"-140°"		"150°"		"-150°"		"160°"		"-160°"		"170°"		"-170°"		"180°"
"Frequency / Hz"	"Sound Pressure Level / dB (re 20 µPa/V)  [2.83  V @ 1. m]"	"Frequency / Hz"	"Sound Pressure Level / dB (re 20 µPa/V)  [2.83  V @ 1. m]"	"Frequency / Hz"	"Sound Pressure Level / dB (re 20 µPa/V)  [2.83  V @ 1. m]"	"Frequency / Hz"	"Sound Pressure Level / dB (re 20 µPa/V)  [2.83  V @ 1. m]"	"Frequency / Hz"	"Sound Pressure Level / dB (re 20 µPa/V)  [2.83  V @ 1. m]"	"Frequency / Hz"	"Sound Pressure Level / dB (re 20 µPa/V)  [2.83  V @ 1. m]"	"Frequency / Hz"	"Sound Pressure Level / dB (re 20 µPa/V)  [2.83  V @ 1. m]"	"Frequency / Hz"	"Sound Pressure Level / dB (re 20 µPa/V)  [2.83  V @ 1. m]"	"Frequency / Hz"	"Sound Pressure Level / dB (re 20 µPa/V)  [2.83  V @ 1. m]"	"Frequency / Hz"	"Sound Pressure Level / dB (re 20 µPa/V)  [2.83  V @ 1. m]"	"Frequency / Hz"	"Sound Pressure Level / dB (re 20 µPa/V)  [2.83  V @ 1. m]"	"Frequency / Hz"	"Sound Pressure Level / dB (re 20 µPa/V)  [2.83  V @ 1. m]"	"Frequency / Hz"	"Sound Pressure Level / dB (re 20 µPa/V)  [2.83  V @ 1. m]"	"Frequency / Hz"	"Sound Pressure Level / dB (re 20 µPa/V)  [2.83  V @ 1. m]"	"Frequency / Hz"	"Sound Pressure Level / dB (re 20 µPa/V)  [2.83  V @ 1. m]"	"Frequency / Hz"	"Sound Pressure Level / dB (re 20 µPa/V)  [2.83  V @ 1. m]"	"Frequency / Hz"	"Sound Pressure Level / dB (re 20 µPa/V)  [2.83  V @ 1. m]"	"Frequency / Hz"	"Sound Pressure Level / dB (re 20 µPa/V)  [2.83  V @ 1. m]"	"Frequency / Hz"	"Sound Pressure Level / dB (re 20 µPa/V)  [2.83  V @ 1. m]"	"Frequency / Hz"	"Sound Pressure Level / dB (re 20 µPa/V)  [2.83  V @ 1. m]"	"Frequency / Hz"	"Sound Pressure Level / dB (re 20 µPa/V)  [2.83  V @ 1. m]"	"Frequency / Hz"	"Sound Pressure Level / dB (re 20 µPa/V)  [2.83  V @ 1. m]"	"Frequency / Hz"	"Sound Pressure Level / dB (re 20 µPa/V)  [2.83  V @ 1. m]"	"Frequency / Hz"	"Sound Pressure Level / dB (re 20 µPa/V)  [2.83  V @ 1. m]"	"Frequency / Hz"	"Sound Pressure Level / dB (re 20 µPa/V)  [2.83  V @ 1. m]"	"Frequency / Hz"	"Sound Pressure Level / dB (re 20 µPa/V)  [2.83  V @ 1. m]"	"Frequency / Hz"	"Sound Pressure Level / dB (re 20 µPa/V)  [2.83  V @ 1. m]"	"Frequency / Hz"	"Sound Pressure Level / dB (re 20 µPa/V)  [2.83  V @ 1. m]"	"Frequency / Hz"	"Sound Pressure Level / dB (re 20 µPa/V)  [2.83  V @ 1. m]"	"Frequency / Hz"	"Sound Pressure Level / dB (re 20 µPa/V)  [2.83  V @ 1. m]"	"Frequency / Hz"	"Sound Pressure Level / dB (re 20 µPa/V)  [2.83  V @ 1. m]"	"Frequency / Hz"	"Sound Pressure Level / dB (re 20 µPa/V)  [2.83  V @ 1. m]"	"Frequency / Hz"	"Sound Pressure Level / dB (re 20 µPa/V)  [2.83  V @ 1. m]"	"Frequency / Hz"	"Sound Pressure Level / dB (re 20 µPa/V)  [2.83  V @ 1. m]"	"Frequency / Hz"	"Sound Pressure Level / dB (re 20 µPa/V)  [2.83  V @ 1. m]"	"Frequency / Hz"	"Sound Pressure Level / dB (re 20 µPa/V)  [2.83  V @ 1. m]"
20.5078	57.8343	20.5078	57.6387	20.5078	58.0583	20.5078	57.4752	20.5078	58.3081	20.5078	57.348	20.5078	58.5809	20.5078	57.2629	20.5078	58.8741	20.5078	57.227	20.5078	59.1848	20.5078	57.2485	20.5078	59.5093	20.5078	57.3359	20.5078	59.8431	20.5078	57.4963	20.5078	60.1794	20.5078	57.7324	20.5078	60.5081	20.5078	58.0393	20.5078	60.816	20.5078	58.4031	20.5078	61.0872	20.5078	58.8028	20.5078	61.3054	20.5078	59.2163	20.5078	61.4557	20.5078	59.6256	20.5078	61.5277	20.5078	60.0186	20.5078	61.5162	20.5078	60.3868	20.5078	61.4222	20.5078	60.722	20.5078	61.2516	20.5078	61.0142
21.9727	56.2715	21.9727	56.1304	21.9727	56.4299	21.9727	56.0087	21.9727	56.6036	21.9727	55.9094	21.9727	56.7911	21.9727	55.8358	21.9727	56.9906	21.9727	55.7923	21.9727	57.2004	21.9727	55.784	21.9727	57.4187	21.9727	55.8163	21.9727	57.6427	21.9727	55.8946	21.9727	57.8684	21.9727	56.0225	21.9727	58.0897	21.9727	56.1993	21.9727	58.2972	21.9727	56.4188	21.9727	58.4792	21.9727	56.6703	21.9727	58.623	21.9727	56.9417	21.9727	58.7165	21.9727	57.2223	21.9727	58.7507	21.9727	57.5042	21.9727	58.7212	21.9727	57.7801	21.9727	58.6284	21.9727	58.0416	21.9727	58.4776	21.9727	58.2782
23.4375	59.2638	23.4375	59.2189	23.4375	59.3243	23.4375	59.19	23.4375	59.3999	23.4375	59.1769	23.4375	59.4898	23.4375	59.1794	23.4375	59.5927	23.4375	59.197	23.4375	59.7073	23.4375	59.2293	23.4375	59.8321	23.4375	59.2764	23.4375	59.9652	23.4375	59.3386	23.4375	60.1036	23.4375	59.4162	23.4375	60.2431	23.4375	59.5094	23.4375	60.3777	23.4375	59.6171	23.4375	60.5	23.4375	59.737	23.4375	60.6015	23.4375	59.8658	23.4375	60.6743	23.4375	60	23.4375	60.7124	23.4375	60.136	23.4375	60.713	23.4375	60.2701	23.4375	60.6768	23.4375	60.3975	23.4375	60.6079	23.4375	60.5124
24.9023	61.6204	24.9023	61.5723	24.9023	61.6733	24.9023	61.5298	24.9023	61.7301	24.9023	61.4932	24.9023	61.7895	24.9023	61.4628	24.9023	61.85	24.9023	61.4389	24.9023	61.9099	24.9023	61.4216	24.9023	61.9676	24.9023	61.4114	24.9023	62.0215	24.9023	61.4087	24.9023	62.0705	24.9023	61.4149	24.9023	62.1133	24.9023	61.4316	24.9023	62.1486	24.9023	61.4609	24.9023	62.1744	24.9023	61.5039	24.9023	62.1883	24.9023	61.5607	24.9023	62.1877	24.9023	61.6295	24.9023	62.1705	24.9023	61.7067	24.9023	62.1363	24.9023	61.7885	24.9023	62.0862	24.9023	61.8708	24.9023	62.023	24.9023	61.9501
26.3672	64.4052	26.3672	64.3876	26.3672	64.4235	26.3672	64.3706	26.3672	64.4426	26.3672	64.3538	26.3672	64.4622	26.3672	64.3366	26.3672	64.4819	26.3672	64.3186	26.3672	64.5012	26.3672	64.2993	26.3672	64.5195	26.3672	64.2788	26.3672	64.5364	26.3672	64.2579	26.3672	64.5514	26.3672	64.238	26.3672	64.5639	26.3672	64.2219	26.3672	64.573	26.3672	64.2128	26.3672	64.5777	26.3672	64.2138	26.3672	64.5761	26.3672	64.2267	26.3672	64.567	26.3672	64.2512	26.3672	64.5492	26.3672	64.285	26.3672	64.5231	26.3672	64.3247	26.3672	64.4899	26.3672	64.3672	26.3672	64.4516	26.3672	64.4101
27.832	67.3145	27.832	67.3168	27.832	67.3092	27.832	67.3155	27.832	67.3017	27.832	67.31	27.832	67.2924	27.832	67.2995	27.832	67.2817	27.832	67.2835	27.832	67.2702	27.832	67.2619	27.832	67.2578	27.832	67.2345	27.832	67.2449	27.832	67.2018	27.832	67.2316	27.832	67.1651	27.832	67.2177	27.832	67.1265	27.832	67.2032	27.832	67.0894	27.832	67.1877	27.832	67.0574	27.832	67.1707	27.832	67.0333	27.832	67.1517	27.832	67.0188	27.832	67.1302	27.832	67.0137	27.832	67.107	27.832	67.0167	27.832	67.0832	27.832	67.0264	27.832	67.0608	27.832	67.0414
29.2969	69.5755	29.2969	69.5514	29.2969	69.5974	29.2969	69.525	29.2969	69.6168	29.2969	69.4963	29.2969	69.6335	29.2969	69.4653	29.2969	69.6472	29.2969	69.4319	29.2969	69.6575	29.2969	69.3961	29.2969	69.6637	29.2969	69.3582	29.2969	69.6657	29.2969	69.3189	29.2969	69.6631	29.2969	69.2795	29.2969	69.6555	29.2969	69.2421	29.2969	69.6427	29.2969	69.2097	29.2969	69.6241	29.2969	69.1861	29.2969	69.5989	29.2969	69.1744	29.2969	69.5662	29.2969	69.177	29.2969	69.5257	29.2969	69.1942	29.2969	69.478	29.2969	69.2247	29.2969	69.425	29.2969	69.2661	29.2969	69.3696	29.2969	69.3155
30.7617	72.5371	30.7617	72.5325	30.7617	72.5397	30.7617	72.5259	30.7617	72.5403	30.7617	72.5172	30.7617	72.5388	30.7617	72.5061	30.7617	72.5349	30.7617	72.4923	30.7617	72.5285	30.7617	72.4756	30.7617	72.5197	30.7617	72.4556	30.7617	72.5086	30.7617	72.4324	30.7617	72.4956	30.7617	72.4065	30.7617	72.4812	30.7617	72.379	30.7617	72.4658	30.7617	72.3517	30.7617	72.4496	30.7617	72.327	30.7617	72.4327	30.7617	72.3072	30.7617	72.4146	30.7617	72.2942	30.7617	72.3952	30.7617	72.2888	30.7617	72.3744	30.7617	72.2909	30.7617	72.353	30.7617	72.2997	30.7617	72.3323	30.7617	72.314
32.2266	75.0339	32.2266	75.0359	32.2266	75.0299	32.2266	75.0357	32.2266	75.0239	32.2266	75.033	32.2266	75.0162	32.2266	75.0275	32.2266	75.0067	32.2266	75.0187	32.2266	74.9953	32.2266	75.0064	32.2266	74.9821	32.2266	74.9904	32.2266	74.9674	32.2266	74.9708	32.2266	74.9514	32.2266	74.948	32.2266	74.9348	32.2266	74.923	32.2266	74.9179	32.2266	74.8972	32.2266	74.9014	32.2266	74.8724	32.2266	74.8855	32.2266	74.8504	32.2266	74.8702	32.2266	74.8327	32.2266	74.8557	32.2266	74.8201	32.2266	74.8421	32.2266	74.8128	32.2266	74.83	32.2266	74.8108	32.2266	74.8201	32.2266	74.8134
33.6914	77.0456	33.6914	77.046	33.6914	77.0419	33.6914	77.0429	33.6914	77.035	33.6914	77.0361	33.6914	77.025	33.6914	77.0256	33.6914	77.0119	33.6914	77.0112	33.6914	76.9959	33.6914	76.9928	33.6914	76.977	33.6914	76.9705	33.6914	76.9556	33.6914	76.9446	33.6914	76.9318	33.6914	76.9156	33.6914	76.9062	33.6914	76.8845	33.6914	76.8792	33.6914	76.8523	33.6914	76.8515	33.6914	76.8208	33.6914	76.8241	33.6914	76.7913	33.6914	76.7977	33.6914	76.7655	33.6914	76.7734	33.6914	76.7447	33.6914	76.7524	33.6914	76.7297	33.6914	76.7358	33.6914	76.7213	33.6914	76.7246	33.6914	76.7196
35.1562	79.1362	35.1562	79.1379	35.1562	79.1299	35.1562	79.1348	35.1562	79.119	35.1562	79.1268	35.1562	79.1039	35.1562	79.1138	35.1562	79.0846	35.1562	79.0958	35.1562	79.0614	35.1562	79.0729	35.1562	79.0346	35.1562	79.0453	35.1562	79.0043	35.1562	79.0135	35.1562	78.9711	35.1562	78.9781	35.1562	78.9354	35.1562	78.9399	35.1562	78.898	35.1562	78.9003	35.1562	78.8602	35.1562	78.8607	35.1562	78.8234	35.1562	78.8227	35.1562	78.7893	35.1562	78.7879	35.1562	78.7597	35.1562	78.7581	35.1562	78.7359	35.1562	78.7346	35.1562	78.7194	35.1562	78.7185	35.1562	78.7107	35.1562	78.7104
36.6211	80.974	36.6211	80.9725	36.6211	80.9712	36.6211	80.9667	36.6211	80.9642	36.6211	80.9565	36.6211	80.9532	36.6211	80.9419	36.6211	80.9382	36.6211	80.9231	36.6211	80.9193	36.6211	80.9003	36.6211	80.8968	36.6211	80.8737	36.6211	80.8706	36.6211	80.8439	36.6211	80.841	36.6211	80.8114	36.6211	80.8082	36.6211	80.777	36.6211	80.7726	36.6211	80.7415	36.6211	80.7353	36.6211	80.7061	36.6211	80.6976	36.6211	80.6719	36.6211	80.6614	36.6211	80.6403	36.6211	80.6289	36.6211	80.6128	36.6211	80.6021	36.6211	80.5911	36.6211	80.5827	36.6211	80.5763	36.6211	80.5718	36.6211	80.5697
38.0859	82.6782	38.0859	82.6771	38.0859	82.676	38.0859	82.6728	38.0859	82.6705	38.0859	82.6651	38.0859	82.6619	38.0859	82.6541	38.0859	82.6502	38.0859	82.6399	38.0859	82.6357	38.0859	82.6228	38.0859	82.6183	38.0859	82.6028	38.0859	82.5985	38.0859	82.5805	38.0859	82.5765	38.0859	82.5562	38.0859	82.5528	38.0859	82.5305	38.0859	82.5277	38.0859	82.5042	38.0859	82.5018	38.0859	82.4779	38.0859	82.476	38.0859	82.4528	38.0859	82.451	38.0859	82.4297	38.0859	82.428	38.0859	82.4099	38.0859	82.4085	38.0859	82.3946	38.0859	82.3935	38.0859	82.3848	38.0859	82.3842	38.0859	82.3812
39.5508	83.288	39.5508	83.2864	39.5508	83.2847	39.5508	83.2797	39.5508	83.2766	39.5508	83.268	39.5508	83.264	39.5508	83.2515	39.5508	83.2471	39.5508	83.2303	39.5508	83.2265	39.5508	83.205	39.5508	83.2024	39.5508	83.1762	39.5508	83.1756	39.5508	83.1447	39.5508	83.1465	39.5508	83.1112	39.5508	83.1158	39.5508	83.077	39.5508	83.0842	39.5508	83.043	39.5508	83.0526	39.5508	83.0105	39.5508	83.0219	39.5508	82.9808	39.5508	82.9931	39.5508	82.955	39.5508	82.9672	39.5508	82.9344	39.5508	82.9453	39.5508	82.9199	39.5508	82.9281	39.5508	82.912	39.5508	82.9164	39.5508	82.9109
41.0156	84.0008	41.0156	83.9934	41.0156	84.0018	41.0156	83.9796	41.0156	83.9963	41.0156	83.9597	41.0156	83.9847	41.0156	83.934	41.0156	83.9673	41.0156	83.9033	41.0156	83.9445	41.0156	83.8685	41.0156	83.9167	41.0156	83.8308	41.0156	83.8846	41.0156	83.7913	41.0156	83.8488	41.0156	83.7514	41.0156	83.81	41.0156	83.7124	41.0156	83.7692	41.0156	83.6753	41.0156	83.7279	41.0156	83.6411	41.0156	83.6876	41.0156	83.6109	41.0156	83.65	41.0156	83.5854	41.0156	83.6167	41.0156	83.5656	41.0156	83.589	41.0156	83.5521	41.0156	83.5677	41.0156	83.5455	41.0156	83.5533	41.0156	83.5459
42.4805	84.9071	42.4805	84.9053	42.4805	84.9035	42.4805	84.8981	42.4805	84.8945	42.4805	84.8856	42.4805	84.8805	42.4805	84.8681	42.4805	84.8617	42.4805	84.8461	42.4805	84.8387	42.4805	84.8201	42.4805	84.8118	42.4805	84.7909	42.4805	84.7819	42.4805	84.7594	42.4805	84.7496	42.4805	84.7267	42.4805	84.7159	42.4805	84.6938	42.4805	84.682	42.4805	84.6617	42.4805	84.6489	42.4805	84.6313	42.4805	84.6181	42.4805	84.6037	42.4805	84.5907	42.4805	84.5795	42.4805	84.5678	42.4805	84.5597	42.4805	84.5501	42.4805	84.5446	42.4805	84.5379	42.4805	84.5348	42.4805	84.5314	42.4805	84.5303
43.9453	85.5949	43.9453	85.6002	43.9453	85.5833	43.9453	85.5991	43.9453	85.5659	43.9453	85.5918	43.9453	85.543	43.9453	85.5782	43.9453	85.5151	43.9453	85.5588	43.9453	85.4831	43.9453	85.5341	43.9453	85.4477	43.9453	85.5048	43.9453	85.41	43.9453	85.472	43.9453	85.3712	43.9453	85.4366	43.9453	85.3328	43.9453	85.3999	43.9453	85.2961	43.9453	85.3631	43.9453	85.2626	43.9453	85.3275	43.9453	85.2336	43.9453	85.2942	43.9453	85.2102	43.9453	85.264	43.9453	85.193	43.9453	85.2376	43.9453	85.1822	43.9453	85.2157	43.9453	85.1777	43.9453	85.1985	43.9453	85.1792	43.9453	85.1863
45.4102	85.8801	45.4102	85.8816	45.4102	85.8718	45.4102	85.8763	45.4102	85.8571	45.4102	85.8645	45.4102	85.8363	45.4102	85.8466	45.4102	85.8098	45.4102	85.823	45.4102	85.7786	45.4102	85.7945	45.4102	85.7434	45.4102	85.7621	45.4102	85.7055	45.4102	85.7268	45.4102	85.666	45.4102	85.6898	45.4102	85.6265	45.4102	85.6524	45.4102	85.5882	45.4102	85.6157	45.4102	85.5527	45.4102	85.5808	45.4102	85.521	45.4102	85.5487	45.4102	85.4943	45.4102	85.5202	45.4102	85.4733	45.4102	85.4958	45.4102	85.4586	45.4102	85.4761	45.4102	85.4502	45.4102	85.4613	45.4102	85.4481	45.4102	85.4519
46.875	86.0095	46.875	86.0071	46.875	86.0032	46.875	85.9962	46.875	85.9884	46.875	85.9769	46.875	85.9655	46.875	85.9498	46.875	85.935	46.875	85.9157	46.875	85.8979	46.875	85.8754	46.875	85.8549	46.875	85.8302	46.875	85.8076	46.875	85.7815	46.875	85.7572	46.875	85.731	46.875	85.7055	46.875	85.6804	46.875	85.6543	46.875	85.6314	46.875	85.6053	46.875	85.5856	46.875	85.5604	46.875	85.5444	46.875	85.521	46.875	85.509	46.875	85.4885	46.875	85.4801	46.875	85.4635	46.875	85.4583	46.875	85.4465	46.875	85.4437	46.875	85.4377	46.875	85.4368
48.3398	86.1875	48.3398	86.1846	48.3398	86.1807	48.3398	86.1721	48.3398	86.1644	48.3398	86.1503	48.3398	86.1388	48.3398	86.1197	48.3398	86.1045	48.3398	86.081	48.3398	86.0621	48.3398	86.0351	48.3398	86.0128	48.3398	85.9833	48.3398	85.9576	48.3398	85.9267	48.3398	85.8981	48.3398	85.8671	48.3398	85.836	48.3398	85.8059	48.3398	85.7732	48.3398	85.7451	48.3398	85.7118	48.3398	85.6866	48.3398	85.6539	48.3398	85.6321	48.3398	85.6017	48.3398	85.5836	48.3398	85.557	48.3398	85.5429	48.3398	85.5214	48.3398	85.5113	48.3398	85.4963	48.3398	85.4902	48.3398	85.4825	48.3398	85.4805
51.2695	86.1109	51.2695	86.1133	51.2695	86.102	51.2695	86.1093	51.2695	86.087	51.2695	86.0989	51.2695	86.0663	51.2695	86.0825	51.2695	86.0409	51.2695	86.0607	51.2695	86.0116	51.2695	86.0341	51.2695	85.9796	51.2695	86.0033	51.2695	85.9461	51.2695	85.9692	51.2695	85.9123	51.2695	85.9328	51.2695	85.8792	51.2695	85.8951	51.2695	85.8479	51.2695	85.8575	51.2695	85.8191	51.2695	85.8217	51.2695	85.7934	51.2695	85.7892	51.2695	85.7711	51.2695	85.7617	51.2695	85.7524	51.2695	85.7402	51.2695	85.7373	51.2695	85.7253	51.2695	85.7258	51.2695	85.7171	51.2695	85.7181	51.2695	85.715
52.7344	85.9893	52.7344	85.995	52.7344	85.9763	52.7344	85.9933	52.7344	85.9561	52.7344	85.9849	52.7344	85.9293	52.7344	85.9703	52.7344	85.8968	52.7344	85.9505	52.7344	85.8599	52.7344	85.9266	52.7344	85.8202	52.7344	85.8996	52.7344	85.7793	52.7344	85.8708	52.7344	85.7392	52.7344	85.8413	52.7344	85.7019	52.7344	85.8124	52.7344	85.669	52.7344	85.7849	52.7344	85.6421	52.7344	85.7594	52.7344	85.6221	52.7344	85.7361	52.7344	85.6096	52.7344	85.7147	52.7344	85.6045	52.7344	85.6947	52.7344	85.6061	52.7344	85.6756	52.7344	85.6134	52.7344	85.6573	52.7344	85.6253	52.7344	85.6403
54.1992	85.9413	54.1992	85.9498	54.1992	85.924	54.1992	85.9496	54.1992	85.8983	54.1992	85.9409	54.1992	85.8649	54.1992	85.9245	54.1992	85.8249	54.1992	85.9015	54.1992	85.78	54.1992	85.8732	54.1992	85.7319	54.1992	85.8412	54.1992	85.6829	54.1992	85.8074	54.1992	85.6356	54.1992	85.7737	54.1992	85.5925	54.1992	85.7417	54.1992	85.5563	54.1992	85.7127	54.1992	85.5289	54.1992	85.6874	54.1992	85.5115	54.1992	85.6654	54.1992	85.5042	54.1992	85.6458	54.1992	85.5059	54.1992	85.6273	54.1992	85.5152	54.1992	85.6086	54.1992	85.53	54.1992	85.589	54.1992	85.5485	54.1992	85.5686
55.6641	85.9944	55.6641	86.0035	55.6641	85.9724	55.6641	85.9994	55.6641	85.938	55.6641	85.9822	55.6641	85.8923	55.6641	85.9529	55.6641	85.8369	55.6641	85.9127	55.6641	85.7737	55.6641	85.8635	55.6641	85.7051	55.6641	85.8079	55.6641	85.6337	55.6641	85.7488	55.6641	85.5625	55.6641	85.6891	55.6641	85.4947	55.6641	85.6316	55.6641	85.4336	55.6641	85.5786	55.6641	85.3819	55.6641	85.531	55.6641	85.3419	55.6641	85.489	55.6641	85.3144	55.6641	85.4519	55.6641	85.2994	55.6641	85.4187	55.6641	85.2959	55.6641	85.3885	55.6641	85.3021	55.6641	85.3609	55.6641	85.3163	55.6641	85.3365
58.5938	85.9075	58.5938	85.8808	58.5938	85.9221	58.5938	85.8425	58.5938	85.924	58.5938	85.7937	58.5938	85.9133	58.5938	85.7356	58.5938	85.8902	58.5938	85.6697	58.5938	85.8552	58.5938	85.5978	58.5938	85.8092	58.5938	85.5218	58.5938	85.7533	58.5938	85.4439	58.5938	85.6891	58.5938	85.366	58.5938	85.6182	58.5938	85.2905	58.5938	85.5426	58.5938	85.2198	58.5938	85.4646	58.5938	85.1562	58.5938	85.3865	58.5938	85.1022	58.5938	85.3106	58.5938	85.0602	58.5938	85.2392	58.5938	85.0321	58.5938	85.1743	58.5938	85.0193	58.5938	85.1183	58.5938	85.0221	58.5938	85.073	58.5938	85.0404
60.0586	85.8884	60.0586	85.8749	60.0586	85.8908	60.0586	85.8503	60.0586	85.8822	60.0586	85.8151	60.0586	85.8631	60.0586	85.7699	60.0586	85.8342	60.0586	85.7159	60.0586	85.7966	60.0586	85.6543	60.0586	85.7514	60.0586	85.5867	60.0586	85.7002	60.0586	85.5154	60.0586	85.6447	60.0586	85.4426	60.0586	85.5866	60.0586	85.3712	60.0586	85.5275	60.0586	85.3044	60.0586	85.4689	60.0586	85.2451	60.0586	85.4121	60.0586	85.1964	60.0586	85.358	60.0586	85.1604	60.0586	85.3073	60.0586	85.1385	60.0586	85.2606	60.0586	85.131	60.0586	85.2188	60.0586	85.1371	60.0586	85.1831	60.0586	85.1551
62.9883	85.8362	62.9883	85.8291	62.9883	85.8296	62.9883	85.8086	62.9883	85.8094	62.9883	85.7755	62.9883	85.776	62.9883	85.731	62.9883	85.7304	62.9883	85.6765	62.9883	85.674	62.9883	85.6139	62.9883	85.6086	62.9883	85.5452	62.9883	85.5364	62.9883	85.4728	62.9883	85.4599	62.9883	85.399	62.9883	85.3818	62.9883	85.3262	62.9883	85.305	62.9883	85.2566	62.9883	85.2322	62.9883	85.1923	62.9883	85.1659	62.9883	85.135	62.9883	85.1082	62.9883	85.0859	62.9883	85.0608	62.9883	85.0459	62.9883	85.0246	62.9883	85.0155	62.9883	85.0001	62.9883	84.9954	62.9883	84.9872	62.9883	84.9858
64.4531	85.701	64.4531	85.697	64.4531	85.6918	64.4531	85.6799	64.4531	85.6694	64.4531	85.6504	64.4531	85.6344	64.4531	85.6093	64.4531	85.5875	64.4531	85.5581	64.4531	85.5301	64.4531	85.4982	64.4531	85.4638	64.4531	85.4317	64.4531	85.3905	64.4531	85.3604	64.4531	85.3125	64.4531	85.2868	64.4531	85.2325	64.4531	85.2131	64.4531	85.1534	64.4531	85.1415	64.4531	85.0779	64.4531	85.0742	64.4531	85.0091	64.4531	85.0129	64.4531	84.9493	64.4531	84.959	64.4531	84.9007	64.4531	84.9136	64.4531	84.8647	64.4531	84.8774	64.4531	84.842	64.4531	84.8512	64.4531	84.8326	64.4531	84.836
67.3828	85.5524	67.3828	85.5467	67.3828	85.5462	67.3828	85.5295	67.3828	85.5285	67.3828	85.5013	67.3828	85.5	67.3828	85.4633	67.3828	85.4618	67.3828	85.417	67.3828	85.4154	67.3828	85.3645	67.3828	85.3625	67.3828	85.3081	67.3828	85.3052	67.3828	85.2502	67.3828	85.2455	67.3828	85.1932	67.3828	85.1858	67.3828	85.1393	67.3828	85.128	67.3828	85.0903	67.3828	85.0741	67.3828	85.0472	67.3828	85.0261	67.3828	85.0105	67.3828	84.9853	67.3828	84.98	67.3828	84.9531	67.3828	84.9553	67.3828	84.9299	67.3828	84.9359	67.3828	84.916	67.3828	84.9216	67.3828	84.9107	67.3828	84.9129
