"SPL Vertical"
"On-Axis"		"10°"		"-10°"		"20°"		"-20°"		"30°"		"-30°"		"40°"		"-40°"		"50°"		"-50°"		"60°"		"-60°"		"70°"		"-70°"		"80°"		"-80°"		"90°"		"-90°"		"100°"		"-100°"		"110°"		"-110°"		"120°"		"-120°"		"130°"		"-130°"		"140°"		"-140°"		"150°"		"-150°"		"160°"		"-160°"		"170°"		"-170°"		"180°"
"Frequency / Hz"	"Sound Pressure Level / dB (re 20 µPa/V)  [2.83  V @ 1. m]"	"Frequency / Hz"	"Sound Pressure Level / dB (re 20 µPa/V)  [2.83  V @ 1. m]"	"Frequency / Hz"	"Sound Pressure Level / dB (re 20 µPa/V)  [2.83  V @ 1. m]"	"Frequency / Hz"	"Sound Pressure Level / dB (re 20 µPa/V)  [2.83  V @ 1. m]"	"Frequency / Hz"	"Sound Pressure Level / dB (re 20 µPa/V)  [2.83  V @ 1. m]"	"Frequency / Hz"	"Sound Pressure Level / dB (re 20 µPa/V)  [2.83  V @ 1. m]"	"Frequency / Hz"	"Sound Pressure Level / dB (re 20 µPa/V)  [2.83  V @ 1. m]"	"Frequency / Hz"	"Sound Pressure Level / dB (re 20 µPa/V)  [2.83  V @ 1. m]"	"Frequency / Hz"	"Sound Pressure Level / dB (re 20 µPa/V)  [2.83  V @ 1. m]"	"Frequency / Hz"	"Sound Pressure Level / dB (re 20 µPa/V)  [2.83  V @ 1. m]"	"Frequency / Hz"	"Sound Pressure Level / dB (re 20 µPa/V)  [2.83  V @ 1. m]"	"Frequency / Hz"	"Sound Pressure Level / dB (re 20 µPa/V)  [2.83  V @ 1. m]"	"Frequency / Hz"	"Sound Pressure Level / dB (re 20 µPa/V)  [2.83  V @ 1. m]"	"Frequency / Hz"	"Sound Pressure Level / dB (re 20 µPa/V)  [2.83  V @ 1. m]"	"Frequency / Hz"	"Sound Pressure Level / dB (re 20 µPa/V)  [2.83  V @ 1. m]"	"Frequency / Hz"	"Sound Pressure Level / dB (re 20 µPa/V)  [2.83  V @ 1. m]"	"Frequency / Hz"	"Sound Pressure Level / dB (re 20 µPa/V)  [2.83  V @ 1. m]"	"Frequency / Hz"	"Sound Pressure Level / dB (re 20 µPa/V)  [2.83  V @ 1. m]"	"Frequency / Hz"	"Sound Pressure Level / dB (re 20 µPa/V)  [2.83  V @ 1. m]"	"Frequency / Hz"	"Sound Pressure Level / dB (re 20 µPa/V)  [2.83  V @ 1. m]"	"Frequency / Hz"	"Sound Pressure Level / dB (re 20 µPa/V)  [2.83  V @ 1. m]"	"Frequency / Hz"	"Sound Pressure Level / dB (re 20 µPa/V)  [2.83  V @ 1. m]"	"Frequency / Hz"	"Sound Pressure Level / dB (re 20 µPa/V)  [2.83  V @ 1. m]"	"Frequency / Hz"	"Sound Pressure Level / dB (re 20 µPa/V)  [2.83  V @ 1. m]"	"Frequency / Hz"	"Sound Pressure Level / dB (re 20 µPa/V)  [2.83  V @ 1. m]"	"Frequency / Hz"	"Sound Pressure Level / dB (re 20 µPa/V)  [2.83  V @ 1. m]"	"Frequency / Hz"	"Sound Pressure Level / dB (re 20 µPa/V)  [2.83  V @ 1. m]"	"Frequency / Hz"	"Sound Pressure Level / dB (re 20 µPa/V)  [2.83  V @ 1. m]"	"Frequency / Hz"	"Sound Pressure Level / dB (re 20 µPa/V)  [2.83  V @ 1. m]"	"Frequency / Hz"	"Sound Pressure Level / dB (re 20 µPa/V)  [2.83  V @ 1. m]"	"Frequency / Hz"	"Sound Pressure Level / dB (re 20 µPa/V)  [2.83  V @ 1. m]"	"Frequency / Hz"	"Sound Pressure Level / dB (re 20 µPa/V)  [2.83  V @ 1. m]"	"Frequency / Hz"	"Sound Pressure Level / dB (re 20 µPa/V)  [2.83  V @ 1. m]"	"Frequency / Hz"	"Sound Pressure Level / dB (re 20 µPa/V)  [2.83  V @ 1. m]"	"Frequency / Hz"	"Sound Pressure Level / dB (re 20 µPa/V)  [2.83  V @ 1. m]"	"Frequency / Hz"	"Sound Pressure Level / dB (re 20 µPa/V)  [2.83  V @ 1. m]"
20.5078	57.8343	20.5078	57.8079	20.5078	57.8886	20.5078	57.8133	20.5078	57.9688	20.5078	57.8557	20.5078	58.0743	20.5078	57.9406	20.5078	58.2049	20.5078	58.0726	20.5078	58.3602	20.5078	58.2544	20.5078	58.5387	20.5078	58.4855	20.5078	58.7375	20.5078	58.7617	20.5078	58.953	20.5078	59.075	20.5078	59.1811	20.5078	59.4131	20.5078	59.4182	20.5078	59.7604	20.5078	59.6603	20.5078	60.0984	20.5078	59.9038	20.5078	60.4076	20.5078	60.1443	20.5078	60.6692	20.5078	60.3757	20.5078	60.8676	20.5078	60.5899	20.5078	60.9926	20.5078	60.7762	20.5078	61.0405	20.5078	60.9221	20.5078	61.0142
21.9727	56.2715	21.9727	56.2121	21.9727	56.3569	21.9727	56.1782	21.9727	56.4685	21.9727	56.1698	21.9727	56.6051	21.9727	56.1876	21.9727	56.7638	21.9727	56.2328	21.9727	56.9393	21.9727	56.3072	21.9727	57.1241	21.9727	56.4124	21.9727	57.3096	21.9727	56.5491	21.9727	57.4879	21.9727	56.7165	21.9727	57.6521	21.9727	56.9113	21.9727	57.7982	21.9727	57.1268	21.9727	57.9246	21.9727	57.3535	21.9727	58.0316	21.9727	57.579	21.9727	58.121	21.9727	57.7895	21.9727	58.194	21.9727	57.9721	21.9727	58.2502	21.9727	58.1171	21.9727	58.2869	21.9727	58.2191	21.9727	58.2985	21.9727	58.2782
23.4375	59.2638	23.4375	59.0445	23.4375	59.5013	23.4375	58.85	23.4375	59.7498	23.4375	58.6864	23.4375	60.0015	23.4375	58.5591	23.4375	60.2481	23.4375	58.4728	23.4375	60.4809	23.4375	58.4313	23.4375	60.6917	23.4375	58.4372	23.4375	60.8728	23.4375	58.4916	23.4375	61.0181	23.4375	58.5936	23.4375	61.1234	23.4375	58.7404	23.4375	61.187	23.4375	58.9261	23.4375	61.2096	23.4375	59.1428	23.4375	61.1939	23.4375	59.38	23.4375	61.1442	23.4375	59.6264	23.4375	61.0651	23.4375	59.8708	23.4375	60.9604	23.4375	60.1037	23.4375	60.833	23.4375	60.3188	23.4375	60.6837	23.4375	60.5124
24.9023	61.6204	24.9023	61.3926	24.9023	61.8571	24.9023	61.1798	24.9023	62.0962	24.9023	60.9872	24.9023	62.3304	24.9023	60.8191	24.9023	62.5517	24.9023	60.6795	24.9023	62.7521	24.9023	60.5719	24.9023	62.9238	24.9023	60.4994	24.9023	63.0595	24.9023	60.4645	24.9023	63.1532	24.9023	60.4692	24.9023	63.2009	24.9023	60.5146	24.9023	63.2009	24.9023	60.6002	24.9023	63.1542	24.9023	60.724	24.9023	63.0641	24.9023	60.8818	24.9023	62.9359	24.9023	61.0678	24.9023	62.7763	24.9023	61.2747	24.9023	62.592	24.9023	61.4952	24.9023	62.3894	24.9023	61.7223	24.9023	62.1739	24.9023	61.9501
26.3672	64.4052	26.3672	64.1862	26.3672	64.6305	26.3672	63.9787	26.3672	64.8562	26.3672	63.787	26.3672	65.0757	26.3672	63.6146	26.3672	65.2816	26.3672	63.4646	26.3672	65.4662	26.3672	63.3399	26.3672	65.6217	26.3672	63.2433	26.3672	65.7412	26.3672	63.1775	26.3672	65.8186	26.3672	63.1452	26.3672	65.8498	26.3672	63.149	26.3672	65.8329	26.3672	63.1907	26.3672	65.7683	26.3672	63.2712	26.3672	65.6591	26.3672	63.39	26.3672	65.5102	26.3672	63.5444	26.3672	65.3278	26.3672	63.7302	26.3672	65.1193	26.3672	63.9412	26.3672	64.8919	26.3672	64.1703	26.3672	64.6531	26.3672	64.4101
27.832	67.3145	27.832	67.1114	27.832	67.5204	27.832	66.9159	27.832	67.7238	27.832	66.7319	27.832	67.9186	27.832	66.5631	27.832	68.0982	27.832	66.4126	27.832	68.2556	27.832	66.283	27.832	68.3837	27.832	66.1772	27.832	68.4764	27.832	66.0976	27.832	68.5282	27.832	66.0466	27.832	68.5356	27.832	66.0267	27.832	68.4972	27.832	66.0399	27.832	68.414	27.832	66.0878	27.832	68.2893	27.832	66.1711	27.832	68.1285	27.832	66.2893	27.832	67.9384	27.832	66.44	27.832	67.7267	27.832	66.6194	27.832	67.5014	27.832	66.822	27.832	67.2704	27.832	67.0414
29.2969	69.5755	29.2969	69.3711	29.2969	69.784	29.2969	69.1759	29.2969	69.9905	29.2969	68.9941	29.2969	70.1885	29.2969	68.8295	29.2969	70.3708	29.2969	68.685	29.2969	70.5301	29.2969	68.563	29.2969	70.659	29.2969	68.4659	29.2969	70.7511	29.2969	68.3954	29.2969	70.8011	29.2969	68.3532	29.2969	70.8056	29.2969	68.341	29.2969	70.7636	29.2969	68.3597	29.2969	70.6763	29.2969	68.4103	29.2969	70.5476	29.2969	68.4926	29.2969	70.3836	29.2969	68.606	29.2969	70.1918	29.2969	68.7485	29.2969	69.9808	29.2969	68.917	29.2969	69.7591	29.2969	69.1077	29.2969	69.5349	29.2969	69.3155
30.7617	72.5371	30.7617	72.3483	30.7617	72.7306	30.7617	72.1688	30.7617	72.923	30.7617	72.0027	30.7617	73.1081	30.7617	71.8531	30.7617	73.279	30.7617	71.7225	30.7617	73.4285	30.7617	71.6129	30.7617	73.5497	30.7617	71.5262	30.7617	73.6367	30.7617	71.4637	30.7617	73.6843	30.7617	71.4268	30.7617	73.6897	30.7617	71.4166	30.7617	73.6517	30.7617	71.4342	30.7617	73.5717	30.7617	71.4803	30.7617	73.4534	30.7617	71.5554	30.7617	73.3024	30.7617	71.6589	30.7617	73.1255	30.7617	71.7896	30.7617	72.9306	30.7617	71.9449	30.7617	72.7254	30.7617	72.1213	30.7617	72.5175	30.7617	72.314
32.2266	75.0339	32.2266	74.8539	32.2266	75.2181	32.2266	74.6829	32.2266	75.401	32.2266	74.5249	32.2266	75.5763	32.2266	74.383	32.2266	75.7374	32.2266	74.2598	32.2266	75.8775	32.2266	74.1572	32.2266	75.9903	32.2266	74.0767	32.2266	76.07	32.2266	74.0195	32.2266	76.1123	32.2266	73.9867	32.2266	76.1143	32.2266	73.9789	32.2266	76.0756	32.2266	73.9968	32.2266	75.9976	32.2266	74.0409	32.2266	75.884	32.2266	74.1112	32.2266	75.7402	32.2266	74.2073	32.2266	75.5729	32.2266	74.3281	32.2266	75.3893	32.2266	74.4716	32.2266	75.1969	32.2266	74.6347	32.2266	75.0028	32.2266	74.8134
33.6914	77.0456	33.6914	76.8676	33.6914	77.2262	33.6914	76.6968	33.6914	77.4038	33.6914	76.5376	33.6914	77.5724	33.6914	76.3931	33.6914	77.7255	33.6914	76.2662	33.6914	77.8568	33.6914	76.1589	33.6914	77.9599	33.6914	76.0729	33.6914	78.0297	33.6914	76.0096	33.6914	78.062	33.6914	75.9698	33.6914	78.0544	33.6914	75.9544	33.6914	78.0065	33.6914	75.9639	33.6914	77.9201	33.6914	75.9989	33.6914	77.7991	33.6914	76.0596	33.6914	77.6492	33.6914	76.1459	33.6914	77.4772	33.6914	76.257	33.6914	77.2909	33.6914	76.3914	33.6914	77.0978	33.6914	76.5468	33.6914	76.9051	33.6914	76.7196
35.1562	79.1362	35.1562	78.9621	35.1562	79.3112	35.1562	78.7934	35.1562	79.4819	35.1562	78.6342	35.1562	79.6425	35.1562	78.4877	35.1562	79.7872	35.1562	78.3567	35.1562	79.9097	35.1562	78.2435	35.1562	80.0042	35.1562	78.15	35.1562	80.0659	35.1562	78.0778	35.1562	80.0907	35.1562	78.0282	35.1562	80.0764	35.1562	78.0024	35.1562	80.0227	35.1562	78.0014	35.1562	79.9312	35.1562	78.026	35.1562	79.8057	35.1562	78.0769	35.1562	79.6517	35.1562	78.1544	35.1562	79.4761	35.1562	78.2581	35.1562	79.2864	35.1562	78.3871	35.1562	79.0906	35.1562	78.5391	35.1562	78.8963	35.1562	78.7104
36.6211	80.974	36.6211	80.806	36.6211	81.143	36.6211	80.6437	36.6211	81.308	36.6211	80.4911	36.6211	81.4633	36.6211	80.3516	36.6211	81.6029	36.6211	80.2279	36.6211	81.7212	36.6211	80.122	36.6211	81.8124	36.6211	80.0355	36.6211	81.8718	36.6211	79.9697	36.6211	81.8958	36.6211	79.9253	36.6211	81.8821	36.6211	79.903	36.6211	81.8305	36.6211	79.9035	36.6211	81.7425	36.6211	79.9272	36.6211	81.6218	36.6211	79.9749	36.6211	81.4735	36.6211	80.0469	36.6211	81.3044	36.6211	80.1435	36.6211	81.1217	36.6211	80.2642	36.6211	80.9334	36.6211	80.4072	36.6211	80.7471	36.6211	80.5697
38.0859	82.6782	38.0859	82.5367	38.0859	82.8202	38.0859	82.3997	38.0859	82.9585	38.0859	82.2707	38.0859	83.0882	38.0859	82.1528	38.0859	83.2046	38.0859	82.0484	38.0859	83.3028	38.0859	81.9598	38.0859	83.3782	38.0859	81.8885	38.0859	83.427	38.0859	81.8358	38.0859	83.4463	38.0859	81.8026	38.0859	83.4347	38.0859	81.7893	38.0859	83.3922	38.0859	81.7962	38.0859	83.3206	38.0859	81.8234	38.0859	83.2231	38.0859	81.8708	38.0859	83.1043	38.0859	81.9378	38.0859	82.9693	38.0859	82.0239	38.0859	82.8239	38.0859	82.1278	38.0859	82.6739	38.0859	82.2478	38.0859	82.5247	38.0859	82.3812
39.5508	83.288	39.5508	83.1445	39.5508	83.4309	39.5508	83.0043	39.5508	83.5688	39.5508	82.8713	39.5508	83.6968	39.5508	82.7484	39.5508	83.8103	39.5508	82.6386	39.5508	83.9042	39.5508	82.544	39.5508	83.9743	39.5508	82.4666	39.5508	84.0166	39.5508	82.4079	39.5508	84.0285	39.5508	82.3689	39.5508	84.0087	39.5508	82.3503	39.5508	83.9576	39.5508	82.3523	39.5508	83.8774	39.5508	82.375	39.5508	83.7717	39.5508	82.4181	39.5508	83.6455	39.5508	82.4811	39.5508	83.5046	39.5508	82.5632	39.5508	83.3551	39.5508	82.6633	39.5508	83.2027	39.5508	82.78	39.5508	83.0531	39.5508	82.9109
41.0156	84.0008	41.0156	83.8499	41.0156	84.1505	41.0156	83.7019	41.0156	84.2942	41.0156	83.5607	41.0156	84.4271	41.0156	83.4296	41.0156	84.5439	41.0156	83.3116	41.0156	84.6398	41.0156	83.2089	41.0156	84.7101	41.0156	83.1235	41.0156	84.751	41.0156	83.057	41.0156	84.7597	41.0156	83.0104	41.0156	84.7351	41.0156	82.9846	41.0156	84.6777	41.0156	82.9802	41.0156	84.5896	41.0156	82.9974	41.0156	84.4747	41.0156	83.0365	41.0156	84.3381	41.0156	83.0975	41.0156	84.1859	41.0156	83.1801	41.0156	84.0243	41.0156	83.2836	41.0156	83.8599	41.0156	83.4063	41.0156	83.6986	41.0156	83.5459
42.4805	84.9071	42.4805	84.7635	42.4805	85.0497	42.4805	84.6231	42.4805	85.1867	42.4805	84.4898	42.4805	85.3133	42.4805	84.3669	42.4805	85.4247	42.4805	84.2574	42.4805	85.5161	42.4805	84.1635	42.4805	85.5833	42.4805	84.0872	42.4805	85.6229	42.4805	84.0296	42.4805	85.6324	42.4805	83.9918	42.4805	85.611	42.4805	83.9741	42.4805	85.5593	42.4805	83.9768	42.4805	85.4794	42.4805	83.9998	42.4805	85.3752	42.4805	84.0427	42.4805	85.2513	42.4805	84.1053	42.4805	85.1132	42.4805	84.1866	42.4805	84.9667	42.4805	84.2858	42.4805	84.8174	42.4805	84.4011	42.4805	84.6704	42.4805	84.5303
43.9453	85.5949	43.9453	85.4593	43.9453	85.7282	43.9453	85.3257	43.9453	85.8552	43.9453	85.1976	43.9453	85.9712	43.9453	85.0785	43.9453	86.0719	43.9453	84.9712	43.9453	86.1529	43.9453	84.8782	43.9453	86.2104	43.9453	84.8016	43.9453	86.2414	43.9453	84.7428	43.9453	86.2438	43.9453	84.7031	43.9453	86.2171	43.9453	84.683	43.9453	86.1623	43.9453	84.6827	43.9453	86.0816	43.9453	84.702	43.9453	85.9791	43.9453	84.7405	43.9453	85.8594	43.9453	84.7974	43.9453	85.7279	43.9453	84.8718	43.9453	85.5899	43.9453	84.9625	43.9453	85.4508	43.9453	85.068	43.9453	85.3149	43.9453	85.1863
45.4102	85.8801	45.4102	85.7502	45.4102	86.0067	45.4102	85.6211	45.4102	86.1261	45.4102	85.4963	45.4102	86.234	45.4102	85.3792	45.4102	86.3264	45.4102	85.2727	45.4102	86.3994	45.4102	85.1796	45.4102	86.4494	45.4102	85.1019	45.4102	86.4738	45.4102	85.0416	45.4102	86.471	45.4102	85	45.4102	86.4407	45.4102	84.9778	45.4102	86.3842	45.4102	84.9753	45.4102	86.3039	45.4102	84.9925	45.4102	86.2038	45.4102	85.0286	45.4102	86.0884	45.4102	85.0827	45.4102	85.963	45.4102	85.1537	45.4102	85.8323	45.4102	85.2401	45.4102	85.701	45.4102	85.3401	45.4102	85.5731	45.4102	85.4519
46.875	86.0095	46.875	85.8765	46.875	86.1376	46.875	85.7428	46.875	86.2567	46.875	85.612	46.875	86.3626	46.875	85.4878	46.875	86.4511	46.875	85.3731	46.875	86.5182	46.875	85.2708	46.875	86.5608	46.875	85.1833	46.875	86.5761	46.875	85.1124	46.875	86.5627	46.875	85.0597	46.875	86.5206	46.875	85.0261	46.875	86.4511	46.875	85.0121	46.875	86.3572	46.875	85.0179	46.875	86.2431	46.875	85.0431	46.875	86.1142	46.875	85.0874	46.875	85.976	46.875	85.1499	46.875	85.8342	46.875	85.2297	46.875	85.6943	46.875	85.3259	46.875	85.5606	46.875	85.4368
48.3398	86.1875	48.3398	86.049	48.3398	86.3195	48.3398	85.9082	48.3398	86.4408	48.3398	85.7691	48.3398	86.5472	48.3398	85.6354	48.3398	86.6346	48.3398	85.5103	48.3398	86.6994	48.3398	85.3968	48.3398	86.7383	48.3398	85.2972	48.3398	86.7489	48.3398	85.2134	48.3398	86.7298	48.3398	85.1472	48.3398	86.6808	48.3398	85.0997	48.3398	86.6033	48.3398	85.0721	48.3398	86.5	48.3398	85.0652	48.3398	86.3749	48.3398	85.0798	48.3398	86.2331	48.3398	85.1166	48.3398	86.0805	48.3398	85.1757	48.3398	85.9231	48.3398	85.2569	48.3398	85.767	48.3398	85.3592	48.3398	85.6178	48.3398	85.4805
51.2695	86.1109	51.2695	85.9864	51.2695	86.2321	51.2695	85.8629	51.2695	86.3459	51.2695	85.7443	51.2695	86.4479	51.2695	85.634	51.2695	86.5341	51.2695	85.5351	51.2695	86.6011	51.2695	85.4499	51.2695	86.6458	51.2695	85.3803	51.2695	86.6661	51.2695	85.3275	51.2695	86.661	51.2695	85.2924	51.2695	86.6308	51.2695	85.2751	51.2695	86.5766	51.2695	85.2756	51.2695	86.5012	51.2695	85.2934	51.2695	86.408	51.2695	85.3278	51.2695	86.3013	51.2695	85.3779	51.2695	86.1854	51.2695	85.4428	51.2695	86.0649	51.2695	85.5215	51.2695	85.9439	51.2695	85.6128	51.2695	85.8262	51.2695	85.715
52.7344	85.9893	52.7344	85.8676	52.7344	86.1069	52.7344	85.7457	52.7344	86.2163	52.7344	85.6274	52.7344	86.3136	52.7344	85.5165	52.7344	86.3952	52.7344	85.4162	52.7344	86.4577	52.7344	85.3296	52.7344	86.4987	52.7344	85.2592	52.7344	86.5164	52.7344	85.2068	52.7344	86.5102	52.7344	85.1739	52.7344	86.4807	52.7344	85.1608	52.7344	86.4296	52.7344	85.1674	52.7344	86.3596	52.7344	85.1928	52.7344	86.2743	52.7344	85.2356	52.7344	86.1773	52.7344	85.2939	52.7344	86.0727	52.7344	85.3655	52.7344	85.9639	52.7344	85.4485	52.7344	85.8539	52.7344	85.5407	52.7344	85.7453	52.7344	85.6403
54.1992	85.9413	54.1992	85.818	54.1992	86.0587	54.1992	85.6929	54.1992	86.1662	54.1992	85.57	54.1992	86.2598	54.1992	85.4533	54.1992	86.3361	54.1992	85.3466	54.1992	86.392	54.1992	85.2535	54.1992	86.4254	54.1992	85.1771	54.1992	86.4352	54.1992	85.12	54.1992	86.4216	54.1992	85.0841	54.1992	86.3856	54.1992	85.0701	54.1992	86.3298	54.1992	85.0779	54.1992	86.2575	54.1992	85.1064	54.1992	86.1724	54.1992	85.1534	54.1992	86.0782	54.1992	85.2163	54.1992	85.9785	54.1992	85.2921	54.1992	85.8759	54.1992	85.3779	54.1992	85.7725	54.1992	85.4708	54.1992	85.6696	54.1992	85.5686
55.6641	85.9944	55.6641	85.8755	55.6641	86.1027	55.6641	85.7495	55.6641	86.1969	55.6641	85.6205	55.6641	86.2737	55.6641	85.4925	55.6641	86.3305	55.6641	85.37	55.6641	86.3649	55.6641	85.2572	55.6641	86.3755	55.6641	85.1581	55.6641	86.3617	55.6641	85.0762	55.6641	86.324	55.6641	85.0145	55.6641	86.2641	55.6641	84.9746	55.6641	86.185	55.6641	84.9573	55.6641	86.0906	55.6641	84.9621	55.6641	85.9853	55.6641	84.9877	55.6641	85.8736	55.6641	85.0316	55.6641	85.7599	55.6641	85.091	55.6641	85.6473	55.6641	85.1632	55.6641	85.5383	55.6641	85.2457	55.6641	85.4343	55.6641	85.3365
58.5938	85.9075	58.5938	85.7853	58.5938	86.0192	58.5938	85.6564	58.5938	86.1168	58.5938	85.5247	58.5938	86.1969	58.5938	85.3941	58.5938	86.2566	58.5938	85.2685	58.5938	86.2934	58.5938	85.1514	58.5938	86.3052	58.5938	85.0458	58.5938	86.2909	58.5938	84.9543	58.5938	86.2501	58.5938	84.8785	58.5938	86.1836	58.5938	84.8199	58.5938	86.0935	58.5938	84.7791	58.5938	85.9828	58.5938	84.7569	58.5938	85.8558	58.5938	84.7536	58.5938	85.7173	58.5938	84.7699	58.5938	85.5726	58.5938	84.8065	58.5938	85.4272	58.5938	84.8639	58.5938	85.2868	58.5938	84.9422	58.5938	85.1564	58.5938	85.0404
60.0586	85.8884	60.0586	85.7693	60.0586	85.998	60.0586	85.6449	60.0586	86.0942	60.0586	85.5194	60.0586	86.1734	60.0586	85.3969	60.0586	86.2323	60.0586	85.2812	60.0586	86.2686	60.0586	85.1755	60.0586	86.2805	60.0586	85.0826	60.0586	86.2673	60.0586	85.0046	60.0586	86.2292	60.0586	84.943	60.0586	86.1677	60.0586	84.8986	60.0586	86.0852	60.0586	84.8718	60.0586	85.9851	60.0586	84.8624	60.0586	85.8714	60.0586	84.87	60.0586	85.7487	60.0586	84.8944	60.0586	85.6215	60.0586	84.9353	60.0586	85.4946	60.0586	84.9927	60.0586	85.3721	60.0586	85.0662	60.0586	85.2579	60.0586	85.1551
62.9883	85.8362	62.9883	85.7321	62.9883	85.9281	62.9883	85.6191	62.9883	86.0047	62.9883	85.501	62.9883	86.0632	62.9883	85.3814	62.9883	86.1015	62.9883	85.2641	62.9883	86.118	62.9883	85.1528	62.9883	86.1115	62.9883	85.0508	62.9883	86.082	62.9883	84.9609	62.9883	86.03	62.9883	84.8857	62.9883	85.9574	62.9883	84.8269	62.9883	85.8667	62.9883	84.7857	62.9883	85.7617	62.9883	84.7628	62.9883	85.6468	62.9883	84.758	62.9883	85.5265	62.9883	84.7711	62.9883	85.4054	62.9883	84.8013	62.9883	85.2876	62.9883	84.8477	62.9883	85.1767	62.9883	84.9095	62.9883	85.0754	62.9883	84.9858
64.4531	85.701	64.4531	85.5967	64.4531	85.7935	64.4531	85.4835	64.4531	85.8713	64.4531	85.3649	64.4531	85.9319	64.4531	85.2444	64.4531	85.9731	64.4531	85.1257	64.4531	85.9931	64.4531	85.0122	64.4531	85.9905	64.4531	84.9076	64.4531	85.9649	64.4531	84.8149	64.4531	85.9164	64.4531	84.7365	64.4531	85.8464	64.4531	84.6746	64.4531	85.7572	64.4531	84.6305	64.4531	85.6521	64.4531	84.605	64.4531	85.5352	64.4531	84.5983	64.4531	85.4111	64.4531	84.6103	64.4531	85.2844	64.4531	84.6407	64.4531	85.1597	64.4531	84.689	64.4531	85.0411	64.4531	84.7544	64.4531	84.9323	64.4531	84.836
67.3828	85.5524	67.3828	85.4431	67.3828	85.6522	67.3828	85.3279	67.3828	85.7394	67.3828	85.2101	67.3828	85.8111	67.3828	85.0935	67.3828	85.8646	67.3828	84.9818	67.3828	85.8979	67.3828	84.8787	67.3828	85.9094	67.3828	84.7875	67.3828	85.8985	67.3828	84.711	67.3828	85.8656	67.3828	84.6515	67.3828	85.812	67.3828	84.6103	67.3828	85.7401	67.3828	84.5882	67.3828	85.6531	67.3828	84.5852	67.3828	85.5544	67.3828	84.6008	67.3828	85.4479	67.3828	84.6338	67.3828	85.3371	67.3828	84.6831	67.3828	85.2254	67.3828	84.7472	67.3828	85.1157	67.3828	84.8244	67.3828	85.0107	67.3828	84.9129
