"SPL Horizontal"
"On-Axis"		"10°"		"-10°"		"20°"		"-20°"		"30°"		"-30°"		"40°"		"-40°"		"50°"		"-50°"		"60°"		"-60°"		"70°"		"-70°"		"80°"		"-80°"		"90°"		"-90°"		"100°"		"-100°"		"110°"		"-110°"		"120°"		"-120°"		"130°"		"-130°"		"140°"		"-140°"		"150°"		"-150°"		"160°"		"-160°"		"170°"		"-170°"		"180°"
"Frequency / Hz"	"Sound Pressure Level / dB (re 20 µPa/V)  [2.83  V @ 1. m]"	"Frequency / Hz"	"Sound Pressure Level / dB (re 20 µPa/V)  [2.83  V @ 1. m]"	"Frequency / Hz"	"Sound Pressure Level / dB (re 20 µPa/V)  [2.83  V @ 1. m]"	"Frequency / Hz"	"Sound Pressure Level / dB (re 20 µPa/V)  [2.83  V @ 1. m]"	"Frequency / Hz"	"Sound Pressure Level / dB (re 20 µPa/V)  [2.83  V @ 1. m]"	"Frequency / Hz"	"Sound Pressure Level / dB (re 20 µPa/V)  [2.83  V @ 1. m]"	"Frequency / Hz"	"Sound Pressure Level / dB (re 20 µPa/V)  [2.83  V @ 1. m]"	"Frequency / Hz"	"Sound Pressure Level / dB (re 20 µPa/V)  [2.83  V @ 1. m]"	"Frequency / Hz"	"Sound Pressure Level / dB (re 20 µPa/V)  [2.83  V @ 1. m]"	"Frequency / Hz"	"Sound Pressure Level / dB (re 20 µPa/V)  [2.83  V @ 1. m]"	"Frequency / Hz"	"Sound Pressure Level / dB (re 20 µPa/V)  [2.83  V @ 1. m]"	"Frequency / Hz"	"Sound Pressure Level / dB (re 20 µPa/V)  [2.83  V @ 1. m]"	"Frequency / Hz"	"Sound Pressure Level / dB (re 20 µPa/V)  [2.83  V @ 1. m]"	"Frequency / Hz"	"Sound Pressure Level / dB (re 20 µPa/V)  [2.83  V @ 1. m]"	"Frequency / Hz"	"Sound Pressure Level / dB (re 20 µPa/V)  [2.83  V @ 1. m]"	"Frequency / Hz"	"Sound Pressure Level / dB (re 20 µPa/V)  [2.83  V @ 1. m]"	"Frequency / Hz"	"Sound Pressure Level / dB (re 20 µPa/V)  [2.83  V @ 1. m]"	"Frequency / Hz"	"Sound Pressure Level / dB (re 20 µPa/V)  [2.83  V @ 1. m]"	"Frequency / Hz"	"Sound Pressure Level / dB (re 20 µPa/V)  [2.83  V @ 1. m]"	"Frequency / Hz"	"Sound Pressure Level / dB (re 20 µPa/V)  [2.83  V @ 1. m]"	"Frequency / Hz"	"Sound Pressure Level / dB (re 20 µPa/V)  [2.83  V @ 1. m]"	"Frequency / Hz"	"Sound Pressure Level / dB (re 20 µPa/V)  [2.83  V @ 1. m]"	"Frequency / Hz"	"Sound Pressure Level / dB (re 20 µPa/V)  [2.83  V @ 1. m]"	"Frequency / Hz"	"Sound Pressure Level / dB (re 20 µPa/V)  [2.83  V @ 1. m]"	"Frequency / Hz"	"Sound Pressure Level / dB (re 20 µPa/V)  [2.83  V @ 1. m]"	"Frequency / Hz"	"Sound Pressure Level / dB (re 20 µPa/V)  [2.83  V @ 1. m]"	"Frequency / Hz"	"Sound Pressure Level / dB (re 20 µPa/V)  [2.83  V @ 1. m]"	"Frequency / Hz"	"Sound Pressure Level / dB (re 20 µPa/V)  [2.83  V @ 1. m]"	"Frequency / Hz"	"Sound Pressure Level / dB (re 20 µPa/V)  [2.83  V @ 1. m]"	"Frequency / Hz"	"Sound Pressure Level / dB (re 20 µPa/V)  [2.83  V @ 1. m]"	"Frequency / Hz"	"Sound Pressure Level / dB (re 20 µPa/V)  [2.83  V @ 1. m]"	"Frequency / Hz"	"Sound Pressure Level / dB (re 20 µPa/V)  [2.83  V @ 1. m]"	"Frequency / Hz"	"Sound Pressure Level / dB (re 20 µPa/V)  [2.83  V @ 1. m]"	"Frequency / Hz"	"Sound Pressure Level / dB (re 20 µPa/V)  [2.83  V @ 1. m]"	"Frequency / Hz"	"Sound Pressure Level / dB (re 20 µPa/V)  [2.83  V @ 1. m]"	"Frequency / Hz"	"Sound Pressure Level / dB (re 20 µPa/V)  [2.83  V @ 1. m]"
20.5078	58.8852	20.5078	58.953	20.5078	58.6804	20.5078	58.8853	20.5078	58.333	20.5078	58.6791	20.5078	57.8324	20.5078	58.327	20.5078	57.1618	20.5078	57.8163	20.5078	56.2971	20.5078	57.1289	20.5078	55.2068	20.5078	56.2411	20.5078	53.8557	20.5078	55.1268	20.5078	52.2249	20.5078	53.769	20.5078	50.3867	20.5078	52.1992	20.5078	48.7182	20.5078	50.6092	20.5078	48.072	20.5078	49.5212	20.5078	48.8798	20.5078	49.5511	20.5078	50.3884	20.5078	50.5563	20.5078	51.8475	20.5078	51.8386	20.5078	52.9831	20.5078	52.9428	20.5078	53.7376	20.5078	53.7088	20.5078	54.1083	20.5078	54.0986
21.9727	56.8359	21.9727	56.8101	21.9727	56.6794	21.9727	56.602	21.9727	56.3314	21.9727	56.2022	21.9727	55.7728	21.9727	55.5899	21.9727	54.9708	21.9727	54.7286	21.9727	53.8717	21.9727	53.5591	21.9727	52.3861	21.9727	51.9858	21.9727	50.3575	21.9727	49.8558	21.9727	47.495	21.9727	46.9615	21.9727	43.3111	21.9727	43.5062	21.9727	39.2505	21.9727	42.7675	21.9727	42.8108	21.9727	46.0771	21.9727	47.2298	21.9727	49.3031	21.9727	50.2482	21.9727	51.6678	21.9727	52.3349	21.9727	53.3376	21.9727	53.7819	21.9727	54.4633	21.9727	54.7336	21.9727	55.1328	21.9727	55.2604	21.9727	55.3922
23.4375	54.4872	23.4375	54.51	23.4375	54.1733	23.4375	54.2417	23.4375	53.5398	23.4375	53.6543	23.4375	52.5194	23.4375	52.682	23.4375	50.978	23.4375	51.1937	23.4375	48.636	23.4375	48.9158	23.4375	44.8122	23.4375	45.1754	23.4375	37.5393	23.4375	37.806	23.4375	38.7201	23.4375	38.0292	23.4375	46.2602	23.4375	46.1859	23.4375	50.5716	23.4375	50.6589	23.4375	53.4813	23.4375	53.6379	23.4375	55.6115	23.4375	55.7986	23.4375	57.2209	23.4375	57.4121	23.4375	58.4346	23.4375	58.6086	23.4375	59.3181	23.4375	59.4567	23.4375	59.905	23.4375	59.9942	23.4375	60.2114	23.4375	60.2421
24.9023	55.8136	24.9023	55.8195	24.9023	55.5616	24.9023	55.5759	24.9023	55.0559	24.9023	55.0667	24.9023	54.2828	24.9023	54.2628	24.9023	53.236	24.9023	53.1265	24.9023	51.9676	24.9023	51.6443	24.9023	50.7331	24.9023	49.9758	24.9023	50.1952	24.9023	48.8812	24.9023	51.0005	24.9023	49.5866	24.9023	52.7935	24.9023	51.7592	24.9023	54.8014	24.9023	54.1559	24.9023	56.635	24.9023	56.2588	24.9023	58.1912	24.9023	57.9887	24.9023	59.4632	24.9023	59.3697	24.9023	60.4652	24.9023	60.4355	24.9023	61.2107	24.9023	61.2123	24.9023	61.7079	24.9023	61.718	24.9023	61.9596	24.9023	61.9645
26.3672	58.9855	26.3672	58.8107	26.3672	58.9993	26.3672	58.4698	26.3672	58.8554	26.3672	57.9554	26.3672	58.5559	26.3672	57.2617	26.3672	58.1049	26.3672	56.3925	26.3672	57.5151	26.3672	55.3853	26.3672	56.8219	26.3672	54.365	26.3672	56.109	26.3672	53.6196	26.3672	55.5387	26.3672	53.5526	26.3672	55.3395	26.3672	54.3209	26.3672	55.6774	26.3672	55.6276	26.3672	56.4992	26.3672	57.0702	26.3672	57.5793	26.3672	58.4077	26.3672	58.693	26.3672	59.5394	26.3672	59.697	26.3672	60.4307	26.3672	60.5169	26.3672	61.0714	26.3672	61.1166	26.3672	61.4591	26.3672	61.4786	26.3672	61.5942
27.832	61.1056	27.832	61.011	27.832	61.0296	27.832	60.7428	27.832	60.7811	27.832	60.2935	27.832	60.3536	27.832	59.652	27.832	59.7366	27.832	58.8084	27.832	58.919	27.832	57.7667	27.832	57.9	27.832	56.5815	27.832	56.7214	27.832	55.4432	27.832	55.5454	27.832	54.7719	27.832	54.7651	27.832	55.0201	27.832	54.8762	27.832	56.1264	27.832	55.9121	27.832	57.5928	27.832	57.3844	27.832	59.0246	27.832	58.8547	27.832	60.2485	27.832	60.1225	27.832	61.2086	27.832	61.122	27.832	61.8916	27.832	61.8382	27.832	62.2962	27.832	62.2709	27.832	62.4229
29.2969	61.3411	29.2969	61.2715	29.2969	61.2228	29.2969	61.012	29.2969	60.9099	29.2969	60.5523	29.2969	60.3859	29.2969	59.8738	29.2969	59.6218	29.2969	58.9491	29.2969	58.5713	29.2969	57.7465	29.2969	57.1642	29.2969	56.2504	29.2969	55.3009	29.2969	54.5437	29.2969	52.8936	29.2969	53.0519	29.2969	50.2347	29.2969	52.7158	29.2969	49.2917	29.2969	53.9111	29.2969	51.4566	29.2969	55.7625	29.2969	54.2913	29.2969	57.5282	29.2969	56.6233	29.2969	58.9727	29.2969	58.3919	29.2969	60.0625	29.2969	59.6877	29.2969	60.8107	29.2969	60.5838	29.2969	61.2331	29.2969	61.1256	29.2969	61.3382
30.7617	61.123	30.7617	61.0858	30.7617	60.9472	30.7617	60.8346	30.7617	60.5476	30.7617	60.3574	30.7617	59.8995	30.7617	59.6302	30.7617	58.9588	30.7617	58.6161	30.7617	57.6534	30.7617	57.2685	30.7617	55.87	30.7617	55.5603	30.7617	53.4617	30.7617	53.6273	30.7617	50.5129	30.7617	52.2269	30.7617	48.9675	30.7617	52.6986	30.7617	51.3237	30.7617	54.7357	30.7617	54.6042	30.7617	56.9924	30.7617	57.2566	30.7617	58.9235	30.7617	59.2658	30.7617	60.4529	30.7617	60.7667	30.7617	61.6073	30.7617	61.8553	30.7617	62.4208	30.7617	62.5896	30.7617	62.9171	30.7617	63.0022	30.7617	63.1096
32.2266	61.1103	32.2266	61.0878	32.2266	60.9076	32.2266	60.8406	32.2266	60.4674	32.2266	60.3582	32.2266	59.7636	32.2266	59.6196	32.2266	58.7537	32.2266	58.5958	32.2266	57.3782	32.2266	57.2624	32.2266	55.5828	32.2266	55.66	32.2266	53.466	32.2266	54.0998	32.2266	51.8708	32.2266	53.4811	32.2266	52.5016	32.2266	54.5375	32.2266	54.8778	32.2266	56.5435	32.2266	57.3596	32.2266	58.583	32.2266	59.4298	32.2266	60.3297	32.2266	61.0649	32.2266	61.7328	32.2266	62.3198	32.2266	62.8084	32.2266	63.2425	32.2266	63.5795	32.2266	63.8647	32.2266	64.0633	32.2266	64.2044	32.2266	64.2702
33.6914	62.062	33.6914	62.0422	33.6914	61.8647	33.6914	61.8054	33.6914	61.4406	33.6914	61.3421	33.6914	60.7697	33.6914	60.6343	33.6914	59.8238	33.6914	59.6588	33.6914	58.5749	33.6914	58.4037	33.6914	57.038	33.6914	56.9294	33.6914	55.4278	33.6914	55.5495	33.6914	54.4869	33.6914	55.0425	33.6914	55.1393	33.6914	55.9938	33.6914	56.996	33.6914	57.8235	33.6914	59.0577	33.6914	59.7394	33.6914	60.8764	33.6914	61.4142	33.6914	62.3612	33.6914	62.7772	33.6914	63.5208	33.6914	63.8326	33.6914	64.3791	33.6914	64.597	33.6914	64.9556	33.6914	65.0849	33.6914	65.2625	33.6914	65.3054
35.1562	63.1746	35.1562	63.139	35.1562	63.0086	35.1562	62.9002	35.1562	62.6351	35.1562	62.4481	35.1562	62.0404	35.1562	61.7656	35.1562	61.2056	35.1562	60.8305	35.1562	60.1149	35.1562	59.6301	35.1562	58.7867	35.1562	58.209	35.1562	57.3718	35.1562	56.8137	35.1562	56.3523	35.1562	56.1016	35.1562	56.4674	35.1562	56.7323	35.1562	57.7809	35.1562	58.3593	35.1562	59.5674	35.1562	60.1979	35.1562	61.2823	35.1562	61.8491	35.1562	62.7363	35.1562	63.2052	35.1562	63.8928	35.1562	64.2569	35.1562	64.7579	35.1562	65.0171	35.1562	65.3439	35.1562	65.4991	35.1562	65.6604	35.1562	65.7121
36.6211	63.3149	36.6211	63.2602	36.6211	63.1634	36.6211	62.9956	36.6211	62.8012	36.6211	62.5088	36.6211	62.2163	36.6211	61.7788	36.6211	61.3914	36.6211	60.7776	36.6211	60.3133	36.6211	59.4835	36.6211	59.0048	36.6211	57.9336	36.6211	57.6234	36.6211	56.4028	36.6211	56.6532	36.6211	55.6884	36.6211	56.8078	36.6211	56.5387	36.6211	58.126	36.6211	58.4002	36.6211	59.9005	36.6211	60.3757	36.6211	61.6045	36.6211	62.0958	36.6211	63.0524	36.6211	63.4871	36.6211	64.207	36.6211	64.5577	36.6211	65.0727	36.6211	65.3282	36.6211	65.6605	36.6211	65.8155	36.6211	65.9786	36.6211	66.0305
38.0859	63.5213	38.0859	63.4315	38.0859	63.3994	38.0859	63.1247	38.0859	63.0634	38.0859	62.5871	38.0859	62.5045	38.0859	61.7968	38.0859	61.7122	38.0859	60.7295	38.0859	60.6876	38.0859	59.3821	38.0859	59.4857	38.0859	57.8621	38.0859	58.3198	38.0859	56.6242	38.0859	57.6917	38.0859	56.5592	38.0859	58.1317	38.0859	57.9288	38.0859	59.4975	38.0859	59.8991	38.0859	61.1849	38.0859	61.8003	38.0859	62.789	38.0859	63.4169	38.0859	64.1611	38.0859	64.7179	38.0859	65.2663	38.0859	65.7174	38.0859	66.1042	38.0859	66.434	38.0859	66.6812	38.0859	66.8818	38.0859	67.0024	38.0859	67.0697
39.5508	64.1233	39.5508	64.0052	39.5508	64.0412	39.5508	63.6812	39.5508	63.7601	39.5508	63.1413	39.5508	63.2788	39.5508	62.3748	39.5508	62.5996	39.5508	61.3836	39.5508	61.7447	39.5508	60.2217	39.5508	60.7924	39.5508	59.0942	39.5508	59.9464	39.5508	58.478	39.5508	59.5719	39.5508	58.8892	39.5508	59.9866	39.5508	60.2203	39.5508	61.0994	39.5508	61.8965	39.5508	62.5227	39.5508	63.5109	39.5508	63.9406	39.5508	64.907	39.5508	65.1998	39.5508	66.0451	39.5508	66.2437	39.5508	66.9236	39.5508	67.055	39.5508	67.5494	39.5508	67.6297	39.5508	67.9293	39.5508	67.9675	39.5508	68.0678
41.0156	65.3197	41.0156	65.1839	41.0156	65.2748	41.0156	64.8641	41.0156	65.0499	41.0156	64.3559	41.0156	64.6437	41.0156	63.659	41.0156	64.057	41.0156	62.7924	41.0156	63.3031	41.0156	61.8305	41.0156	62.4322	41.0156	60.9684	41.0156	61.5801	41.0156	60.5607	41.0156	61.019	41.0156	60.9269	41.0156	61.0809	41.0156	61.9942	41.0156	61.8605	41.0156	63.3857	41.0156	63.0978	41.0156	64.7827	41.0156	64.4563	41.0156	66.027	41.0156	65.7248	41.0156	67.0585	41.0156	66.8082	41.0156	67.8585	41.0156	67.67	41.0156	68.4222	41.0156	68.2975	41.0156	68.7486	41.0156	68.6868	41.0156	68.837
42.4805	65.9311	42.4805	65.8744	42.4805	65.814	42.4805	65.6454	42.4805	65.5193	42.4805	65.2455	42.4805	65.042	42.4805	64.6807	42.4805	64.3796	42.4805	63.9736	42.4805	63.5436	42.4805	63.1875	42.4805	62.5881	42.4805	62.4653	42.4805	61.6666	42.4805	62.0514	42.4805	61.0903	42.4805	62.1948	42.4805	61.2191	42.4805	62.9304	42.4805	62.1049	42.4805	64.037	42.4805	63.4209	42.4805	65.2449	42.4805	64.8124	42.4805	66.376	42.4805	66.0808	42.4805	67.3426	42.4805	67.1455	42.4805	68.1071	42.4805	67.9802	42.4805	68.6544	42.4805	68.5792	42.4805	68.9784	42.4805	68.9435	42.4805	69.0756
43.9453	67.2717	43.9453	67.2307	43.9453	67.1536	43.9453	67.032	43.9453	66.8748	43.9453	66.6769	43.9453	66.4334	43.9453	66.1711	43.9453	65.832	43.9453	65.5328	43.9453	65.0872	43.9453	64.8099	43.9453	64.2522	43.9453	64.1077	43.9453	63.4556	43.9453	63.612	43.9453	62.9339	43.9453	63.5452	43.9453	62.9589	43.9453	64.0138	43.9453	63.6103	43.9453	64.9021	43.9453	64.6838	43.9453	65.9783	43.9453	65.8923	43.9453	67.0472	43.9453	67.0374	43.9453	67.9939	43.9453	68.0201	43.9453	68.7616	43.9453	68.798	43.9453	69.3239	43.9453	69.3553	43.9453	69.6689	43.9453	69.6866	43.9453	69.7907
45.4102	68.0692	45.4102	68.0237	45.4102	67.9515	45.4102	67.8148	45.4102	67.6691	45.4102	67.4408	45.4102	67.2192	45.4102	66.9015	45.4102	66.6017	45.4102	66.2051	45.4102	65.8288	45.4102	65.3838	45.4102	64.945	45.4102	64.5246	45.4102	64.0674	45.4102	63.8109	45.4102	63.4286	45.4102	63.5168	45.4102	63.3261	45.4102	63.8421	45.4102	63.8875	45.4102	64.7092	45.4102	64.9242	45.4102	65.8416	45.4102	66.1277	45.4102	66.9902	45.4102	67.2775	45.4102	68.0125	45.4102	68.2636	45.4102	68.8433	45.4102	69.0401	45.4102	69.4557	45.4102	69.5899	45.4102	69.8393	45.4102	69.9072	45.4102	69.9903
46.875	68.2531	46.875	68.1895	46.875	68.1513	46.875	67.9598	46.875	67.8826	46.875	67.5614	46.875	67.4445	46.875	66.9934	46.875	66.8367	46.875	66.2639	46.875	66.0703	46.875	65.407	46.875	65.1888	46.875	64.5189	46.875	64.3076	46.875	63.8054	46.875	63.6597	46.875	63.5667	46.875	63.5482	46.875	63.9958	46.875	64.1096	46.875	64.9669	46.875	65.1567	46.875	66.1704	46.875	66.3762	46.875	67.3562	46.875	67.5438	46.875	68.3929	46.875	68.5476	46.875	69.2244	46.875	69.3414	46.875	69.8298	46.875	69.9079	46.875	70.2021	46.875	70.2411	46.875	70.3393
48.3398	68.3816	48.3398	68.3249	48.3398	68.265	48.3398	68.0939	48.3398	67.9733	48.3398	67.6859	48.3398	67.5031	48.3398	67.0991	48.3398	66.8533	48.3398	66.3415	48.3398	66.0359	48.3398	65.4507	48.3398	65.1004	48.3398	64.5357	48.3398	64.1832	48.3398	63.8318	48.3398	63.5589	48.3398	63.6704	48.3398	63.5621	48.3398	64.2245	48.3398	64.2852	48.3398	65.3053	48.3398	65.4632	48.3398	66.5723	48.3398	66.7572	48.3398	67.7838	48.3398	67.9572	48.3398	68.8244	48.3398	68.9701	48.3398	69.6504	48.3398	69.7621	48.3398	70.2481	48.3398	70.3234	48.3398	70.6144	48.3398	70.6523	48.3398	70.7491
51.2695	69.4207	51.2695	69.3741	51.2695	69.3033	51.2695	69.164	51.2695	69.02	51.2695	68.7914	51.2695	68.5697	51.2695	68.2613	51.2695	67.9568	51.2695	67.5918	51.2695	67.2033	51.2695	66.8341	51.2695	66.3741	51.2695	66.1042	51.2695	65.6188	51.2695	65.6093	51.2695	65.1927	51.2695	65.5914	51.2695	65.349	51.2695	66.145	51.2695	66.1084	51.2695	67.1173	51.2695	67.231	51.2695	68.2535	51.2695	68.4411	51.2695	69.3586	51.2695	69.5638	51.2695	70.3263	51.2695	70.5154	51.2695	71.1079	51.2695	71.2615	51.2695	71.6824	51.2695	71.7897	51.2695	72.041	51.2695	72.0959	51.2695	72.1795
52.7344	70.0375	52.7344	70.0073	52.7344	69.9146	52.7344	69.8247	52.7344	69.6382	52.7344	69.4914	52.7344	69.2096	52.7344	69.0137	52.7344	68.6366	52.7344	68.4101	52.7344	67.9446	52.7344	67.7264	52.7344	67.1973	52.7344	67.0601	52.7344	66.5276	52.7344	66.5791	52.7344	66.1474	52.7344	66.4861	52.7344	66.2632	52.7344	66.8894	52.7344	66.9057	52.7344	67.7017	52.7344	67.8945	52.7344	68.7164	52.7344	68.9947	52.7344	69.7456	52.7344	70.0386	52.7344	70.6718	52.7344	70.9362	52.7344	71.4337	52.7344	71.6457	52.7344	72.0018	52.7344	72.1485	52.7344	72.3622	52.7344	72.4369	52.7344	72.5081
54.1992	71.0089	54.1992	70.9511	54.1992	70.9066	54.1992	70.7338	54.1992	70.6427	54.1992	70.3575	54.1992	70.216	54.1992	69.8265	54.1992	69.6291	54.1992	69.1569	54.1992	68.8995	54.1992	68.3945	54.1992	68.0803	54.1992	67.6442	54.1992	67.2974	54.1992	67.0977	54.1992	66.7793	54.1992	66.9936	54.1992	66.7857	54.1992	67.4515	54.1992	67.3958	54.1992	68.3502	54.1992	68.4183	54.1992	69.4425	54.1992	69.5773	54.1992	70.5241	54.1992	70.6783	54.1992	71.4786	54.1992	71.6225	54.1992	72.2507	54.1992	72.3679	54.1992	72.817	54.1992	72.8986	54.1992	73.1677	54.1992	73.2094	54.1992	73.299
55.6641	70.6047	55.6641	70.552	55.6641	70.5002	55.6641	70.3426	55.6641	70.2397	55.6641	69.979	55.6641	69.8281	55.6641	69.4699	55.6641	69.2814	55.6641	68.8409	55.6641	68.641	55.6641	68.1539	55.6641	67.9974	55.6641	67.5359	55.6641	67.514	55.6641	67.1894	55.6641	67.4005	55.6641	67.3163	55.6641	67.7886	55.6641	67.9591	55.6641	68.6109	55.6641	68.9552	55.6641	69.662	55.6641	70.078	55.6641	70.7454	55.6641	71.1596	55.6641	71.7373	55.6641	72.1074	55.6641	72.574	55.6641	72.8772	55.6641	73.2264	55.6641	73.45	55.6641	73.6815	55.6641	73.8183	55.6641	73.9334	55.6641	73.9794
58.5938	72.1274	58.5938	72.0968	58.5938	72.0312	58.5938	71.94	58.5938	71.8108	58.5938	71.6611	58.5938	71.473	58.5938	71.2711	58.5938	71.0335	58.5938	70.7946	58.5938	70.5251	58.5938	70.2801	58.5938	70.0097	58.5938	69.8131	58.5938	69.589	58.5938	69.5169	58.5938	69.3952	58.5938	69.5182	58.5938	69.5378	58.5938	69.8748	58.5938	70.0311	58.5938	70.5304	58.5938	70.7792	58.5938	71.3528	58.5938	71.6396	58.5938	72.2073	58.5938	72.4887	58.5938	72.9957	58.5938	73.2431	58.5938	73.6574	58.5938	73.8538	58.5938	74.1581	58.5938	74.2935	58.5938	74.4788	58.5938	74.5478	58.5938	74.6099
60.0586	72.5281	60.0586	72.4928	60.0586	72.4366	60.0586	72.3307	60.0586	72.2203	60.0586	72.0455	60.0586	71.886	60.0586	71.6468	60.0586	71.449	60.0586	71.1568	60.0586	70.9415	60.0586	70.6211	60.0586	70.425	60.0586	70.1228	60.0586	70.0001	60.0586	69.7871	60.0586	69.7979	60.0586	69.7503	60.0586	69.9281	60.0586	70.0833	60.0586	70.4066	60.0586	70.7357	60.0586	71.14	60.0586	71.5703	60.0586	71.9874	60.0586	72.4438	60.0586	72.8257	60.0586	73.2516	60.0586	73.5713	60.0586	73.93	60.0586	74.1748	60.0586	74.4438	60.0586	74.6083	60.0586	74.7744	60.0586	74.8569	60.0586	74.913
62.9883	73.4958	62.9883	73.4458	62.9883	73.4271	62.9883	73.2785	62.9883	73.2422	62.9883	72.9992	62.9883	72.9481	62.9883	72.6213	62.9883	72.5605	62.9883	72.1724	62.9883	72.1108	62.9883	71.7042	62.9883	71.6558	62.9883	71.3014	62.9883	71.2861	62.9883	71.0783	62.9883	71.1171	62.9883	71.1415	62.9883	71.2459	62.9883	71.5295	62.9883	71.6916	62.9883	72.1819	62.9883	72.378	62.9883	72.978	62.9883	73.1812	62.9883	73.7968	62.9883	73.9859	62.9883	74.549	62.9883	74.7103	62.9883	75.178	62.9883	75.3036	62.9883	75.6509	62.9883	75.7365	62.9883	75.9495	62.9883	75.9928	62.9883	76.0645
64.4531	74.0929	64.4531	74.0571	64.4531	74.0181	64.4531	73.9115	64.4531	73.8354	64.4531	73.6618	64.4531	73.5529	64.4531	73.3204	64.4531	73.1874	64.4531	72.9126	64.4531	72.7712	64.4531	72.4845	64.4531	72.3598	64.4531	72.1099	64.4531	72.0369	64.4531	71.8884	64.4531	71.904	64.4531	71.9169	64.4531	72.0417	64.4531	72.2395	64.4531	72.4625	64.4531	72.8159	64.4531	73.0994	64.4531	73.5441	64.4531	73.8438	64.4531	74.3118	64.4531	74.5925	64.4531	75.0297	64.4531	75.2691	64.4531	75.6384	64.4531	75.8242	64.4531	76.1018	64.4531	76.2279	64.4531	76.3996	64.4531	76.4631	64.4531	76.5211
67.3828	74.9569	67.3828	74.9192	67.3828	74.8947	67.3828	74.7832	67.3828	74.7351	67.3828	74.5558	67.3828	74.4861	67.3828	74.2513	67.3828	74.1646	67.3828	73.8961	67.3828	73.8013	67.3828	73.5353	67.3828	73.4471	67.3828	73.2368	67.3828	73.1758	67.3828	73.0856	67.3828	73.0738	67.3828	73.1581	67.3828	73.2094	67.3828	73.4838	67.3828	73.5949	67.3828	74.0248	67.3828	74.1766	67.3828	74.6948	67.3828	74.8624	67.3828	75.3981	67.3828	75.5598	67.3828	76.0562	67.3828	76.1968	67.3828	76.6144	67.3828	76.7248	67.3828	77.0381	67.3828	77.1135	67.3828	77.307	67.3828	77.3451	67.3828	77.4105
