"SPL Vertical"
"On-Axis"		"10°"		"-10°"		"20°"		"-20°"		"30°"		"-30°"		"40°"		"-40°"		"50°"		"-50°"		"60°"		"-60°"		"70°"		"-70°"		"80°"		"-80°"		"90°"		"-90°"		"100°"		"-100°"		"110°"		"-110°"		"120°"		"-120°"		"130°"		"-130°"		"140°"		"-140°"		"150°"		"-150°"		"160°"		"-160°"		"170°"		"-170°"		"180°"
"Frequency / Hz"	"Sound Pressure Level / dB (re 20 µPa/V)  [2.83  V @ 1. m]"	"Frequency / Hz"	"Sound Pressure Level / dB (re 20 µPa/V)  [2.83  V @ 1. m]"	"Frequency / Hz"	"Sound Pressure Level / dB (re 20 µPa/V)  [2.83  V @ 1. m]"	"Frequency / Hz"	"Sound Pressure Level / dB (re 20 µPa/V)  [2.83  V @ 1. m]"	"Frequency / Hz"	"Sound Pressure Level / dB (re 20 µPa/V)  [2.83  V @ 1. m]"	"Frequency / Hz"	"Sound Pressure Level / dB (re 20 µPa/V)  [2.83  V @ 1. m]"	"Frequency / Hz"	"Sound Pressure Level / dB (re 20 µPa/V)  [2.83  V @ 1. m]"	"Frequency / Hz"	"Sound Pressure Level / dB (re 20 µPa/V)  [2.83  V @ 1. m]"	"Frequency / Hz"	"Sound Pressure Level / dB (re 20 µPa/V)  [2.83  V @ 1. m]"	"Frequency / Hz"	"Sound Pressure Level / dB (re 20 µPa/V)  [2.83  V @ 1. m]"	"Frequency / Hz"	"Sound Pressure Level / dB (re 20 µPa/V)  [2.83  V @ 1. m]"	"Frequency / Hz"	"Sound Pressure Level / dB (re 20 µPa/V)  [2.83  V @ 1. m]"	"Frequency / Hz"	"Sound Pressure Level / dB (re 20 µPa/V)  [2.83  V @ 1. m]"	"Frequency / Hz"	"Sound Pressure Level / dB (re 20 µPa/V)  [2.83  V @ 1. m]"	"Frequency / Hz"	"Sound Pressure Level / dB (re 20 µPa/V)  [2.83  V @ 1. m]"	"Frequency / Hz"	"Sound Pressure Level / dB (re 20 µPa/V)  [2.83  V @ 1. m]"	"Frequency / Hz"	"Sound Pressure Level / dB (re 20 µPa/V)  [2.83  V @ 1. m]"	"Frequency / Hz"	"Sound Pressure Level / dB (re 20 µPa/V)  [2.83  V @ 1. m]"	"Frequency / Hz"	"Sound Pressure Level / dB (re 20 µPa/V)  [2.83  V @ 1. m]"	"Frequency / Hz"	"Sound Pressure Level / dB (re 20 µPa/V)  [2.83  V @ 1. m]"	"Frequency / Hz"	"Sound Pressure Level / dB (re 20 µPa/V)  [2.83  V @ 1. m]"	"Frequency / Hz"	"Sound Pressure Level / dB (re 20 µPa/V)  [2.83  V @ 1. m]"	"Frequency / Hz"	"Sound Pressure Level / dB (re 20 µPa/V)  [2.83  V @ 1. m]"	"Frequency / Hz"	"Sound Pressure Level / dB (re 20 µPa/V)  [2.83  V @ 1. m]"	"Frequency / Hz"	"Sound Pressure Level / dB (re 20 µPa/V)  [2.83  V @ 1. m]"	"Frequency / Hz"	"Sound Pressure Level / dB (re 20 µPa/V)  [2.83  V @ 1. m]"	"Frequency / Hz"	"Sound Pressure Level / dB (re 20 µPa/V)  [2.83  V @ 1. m]"	"Frequency / Hz"	"Sound Pressure Level / dB (re 20 µPa/V)  [2.83  V @ 1. m]"	"Frequency / Hz"	"Sound Pressure Level / dB (re 20 µPa/V)  [2.83  V @ 1. m]"	"Frequency / Hz"	"Sound Pressure Level / dB (re 20 µPa/V)  [2.83  V @ 1. m]"	"Frequency / Hz"	"Sound Pressure Level / dB (re 20 µPa/V)  [2.83  V @ 1. m]"	"Frequency / Hz"	"Sound Pressure Level / dB (re 20 µPa/V)  [2.83  V @ 1. m]"	"Frequency / Hz"	"Sound Pressure Level / dB (re 20 µPa/V)  [2.83  V @ 1. m]"	"Frequency / Hz"	"Sound Pressure Level / dB (re 20 µPa/V)  [2.83  V @ 1. m]"	"Frequency / Hz"	"Sound Pressure Level / dB (re 20 µPa/V)  [2.83  V @ 1. m]"	"Frequency / Hz"	"Sound Pressure Level / dB (re 20 µPa/V)  [2.83  V @ 1. m]"
20.5078	54.5161	20.5078	54.5516	20.5078	54.4673	20.5078	54.5701	20.5078	54.4104	20.5078	54.57	20.5078	54.3515	20.5078	54.552	20.5078	54.2961	20.5078	54.5193	20.5078	54.2487	20.5078	54.4765	20.5078	54.2125	20.5078	54.4292	20.5078	54.1896	20.5078	54.3833	20.5078	54.1809	20.5078	54.3444	20.5078	54.1864	20.5078	54.3174	20.5078	54.2057	20.5078	54.3059	20.5078	54.2371	20.5078	54.3113	20.5078	54.2785	20.5078	54.3327	20.5078	54.3262	20.5078	54.3661	20.5078	54.3758	20.5078	54.4054	20.5078	54.4218	20.5078	54.4431	20.5078	54.4584	20.5078	54.4715	20.5078	54.4805	20.5078	54.485
21.9727	53.3045	21.9727	53.3589	21.9727	53.2338	21.9727	53.394	21.9727	53.1506	21.9727	53.408	21.9727	53.059	21.9727	53.401	21.9727	52.9625	21.9727	53.3744	21.9727	52.8641	21.9727	53.3304	21.9727	52.7663	21.9727	53.2718	21.9727	52.6709	21.9727	53.2009	21.9727	52.5796	21.9727	53.1197	21.9727	52.494	21.9727	53.0292	21.9727	52.4158	21.9727	52.9306	21.9727	52.3467	21.9727	52.8254	21.9727	52.2884	21.9727	52.7161	21.9727	52.2428	21.9727	52.6066	21.9727	52.2117	21.9727	52.5017	21.9727	52.1966	21.9727	52.4066	21.9727	52.1995	21.9727	52.3262	21.9727	52.2216	21.9727	52.264
23.4375	55.8222	23.4375	55.8555	23.4375	55.7726	23.4375	55.8701	23.4375	55.7098	23.4375	55.8648	23.4375	55.6373	23.4375	55.8396	23.4375	55.5585	23.4375	55.7961	23.4375	55.4762	23.4375	55.7368	23.4375	55.3932	23.4375	55.6653	23.4375	55.3118	23.4375	55.5855	23.4375	55.234	23.4375	55.5014	23.4375	55.1618	23.4375	55.4166	23.4375	55.0971	23.4375	55.3346	23.4375	55.0415	23.4375	55.2579	23.4375	54.9966	23.4375	55.1884	23.4375	54.9632	23.4375	55.1271	23.4375	54.9419	23.4375	55.0744	23.4375	54.9323	23.4375	55.03	23.4375	54.9337	23.4375	54.9937	23.4375	54.9451	23.4375	54.9653
24.9023	56.2477	24.9023	56.2562	24.9023	56.2277	24.9023	56.2522	24.9023	56.1981	24.9023	56.2355	24.9023	56.1606	24.9023	56.2067	24.9023	56.1174	24.9023	56.1676	24.9023	56.0701	24.9023	56.1206	24.9023	56.0205	24.9023	56.0684	24.9023	55.9701	24.9023	56.014	24.9023	55.9204	24.9023	55.96	24.9023	55.8731	24.9023	55.9085	24.9023	55.8294	24.9023	55.8612	24.9023	55.7908	24.9023	55.8193	24.9023	55.7583	24.9023	55.7834	24.9023	55.7322	24.9023	55.7539	24.9023	55.7129	24.9023	55.7305	24.9023	55.6999	24.9023	55.713	24.9023	55.6927	24.9023	55.7007	24.9023	55.6906	24.9023	55.6934
26.3672	57.1262	26.3672	57.1356	26.3672	57.1059	26.3672	57.133	26.3672	57.0765	26.3672	57.1181	26.3672	57.0401	26.3672	57.0916	26.3672	56.9986	26.3672	57.055	26.3672	56.9539	26.3672	57.0106	26.3672	56.9077	26.3672	56.961	26.3672	56.8614	26.3672	56.9092	26.3672	56.8165	26.3672	56.8577	26.3672	56.7743	26.3672	56.8089	26.3672	56.7361	26.3672	56.7649	26.3672	56.703	26.3672	56.7271	26.3672	56.6759	26.3672	56.6961	26.3672	56.6552	26.3672	56.672	26.3672	56.6407	26.3672	56.6544	26.3672	56.6317	26.3672	56.6421	26.3672	56.6274	26.3672	56.634	26.3672	56.6268	26.3672	56.629
27.832	58.1179	27.832	58.1157	27.832	58.1107	27.832	58.1039	27.832	58.0947	27.832	58.0827	27.832	58.071	27.832	58.053	27.832	58.0406	27.832	58.0162	27.832	58.0049	27.832	57.9743	27.832	57.9652	27.832	57.9294	27.832	57.9232	27.832	57.884	27.832	57.8805	27.832	57.8402	27.832	57.8388	27.832	57.8	27.832	57.7999	27.832	57.765	27.832	57.7652	27.832	57.7361	27.832	57.7359	27.832	57.7137	27.832	57.7127	27.832	57.6974	27.832	57.6956	27.832	57.6864	27.832	57.6842	27.832	57.6795	27.832	57.6775	27.832	57.6756	27.832	57.6744	27.832	57.6739
29.2969	58.6689	29.2969	58.6678	29.2969	58.6603	29.2969	58.6565	29.2969	58.6427	29.2969	58.6351	29.2969	58.6169	29.2969	58.6046	29.2969	58.584	29.2969	58.5662	29.2969	58.5454	29.2969	58.5218	29.2969	58.5023	29.2969	58.4737	29.2969	58.4563	29.2969	58.4242	29.2969	58.4089	29.2969	58.3753	29.2969	58.3619	29.2969	58.329	29.2969	58.3172	29.2969	58.2869	29.2969	58.2762	29.2969	58.2501	29.2969	58.2405	29.2969	58.2193	29.2969	58.2108	29.2969	58.1947	29.2969	58.1875	29.2969	58.1763	29.2969	58.1707	29.2969	58.1635	29.2969	58.1597	29.2969	58.1558	29.2969	58.1538	29.2969	58.1526
30.7617	59.3553	30.7617	59.3445	30.7617	59.3539	30.7617	59.3216	30.7617	59.3408	30.7617	59.287	30.7617	59.3167	30.7617	59.2418	30.7617	59.2826	30.7617	59.1874	30.7617	59.2394	30.7617	59.1256	30.7617	59.1887	30.7617	59.0585	30.7617	59.1319	30.7617	58.9883	30.7617	59.0706	30.7617	58.9173	30.7617	59.0067	30.7617	58.8475	30.7617	58.9419	30.7617	58.7813	30.7617	58.8781	30.7617	58.7208	30.7617	58.8169	30.7617	58.6682	30.7617	58.7597	30.7617	58.6254	30.7617	58.7077	30.7617	58.5941	30.7617	58.6622	30.7617	58.5755	30.7617	58.6243	30.7617	58.5698	30.7617	58.5954	30.7617	58.5768
32.2266	60.6392	32.2266	60.6411	32.2266	60.6263	32.2266	60.6315	32.2266	60.6031	32.2266	60.6108	32.2266	60.5703	32.2266	60.5795	32.2266	60.5293	32.2266	60.5389	32.2266	60.4812	32.2266	60.4907	32.2266	60.4274	32.2266	60.4366	32.2266	60.3694	32.2266	60.3788	32.2266	60.3091	32.2266	60.3192	32.2266	60.2482	32.2266	60.2597	32.2266	60.1888	32.2266	60.202	32.2266	60.1328	32.2266	60.1477	32.2266	60.0822	32.2266	60.0982	32.2266	60.0385	32.2266	60.0545	32.2266	60.0031	32.2266	60.0178	32.2266	59.9768	32.2266	59.9887	32.2266	59.9602	32.2266	59.9679	32.2266	59.9533	32.2266	59.956
33.6914	61.1234	33.6914	61.1209	33.6914	61.1159	33.6914	61.1082	33.6914	61.0987	33.6914	61.0855	33.6914	61.0726	33.6914	61.0536	33.6914	61.0385	33.6914	61.0138	33.6914	60.9973	33.6914	60.9675	33.6914	60.9502	33.6914	60.9165	33.6914	60.8985	33.6914	60.8625	33.6914	60.8436	33.6914	60.8072	33.6914	60.787	33.6914	60.752	33.6914	60.7304	33.6914	60.6983	33.6914	60.6757	33.6914	60.6473	33.6914	60.6244	33.6914	60.6003	33.6914	60.5783	33.6914	60.5587	33.6914	60.5389	33.6914	60.5236	33.6914	60.5074	33.6914	60.4965	33.6914	60.485	33.6914	60.4785	33.6914	60.4725	33.6914	60.4703
35.1562	61.8591	35.1562	61.8527	35.1562	61.8544	35.1562	61.8353	35.1562	61.8388	35.1562	61.8074	35.1562	61.8129	35.1562	61.7695	35.1562	61.7775	35.1562	61.7229	35.1562	61.7336	35.1562	61.6688	35.1562	61.6826	35.1562	61.6091	35.1562	61.6262	35.1562	61.5455	35.1562	61.5659	35.1562	61.4803	35.1562	61.5038	35.1562	61.4156	35.1562	61.4416	35.1562	61.3536	35.1562	61.3813	35.1562	61.2963	35.1562	61.3246	35.1562	61.2457	35.1562	61.2731	35.1562	61.2033	35.1562	61.2281	35.1562	61.1703	35.1562	61.1909	35.1562	61.1475	35.1562	61.1623	35.1562	61.1354	35.1562	61.1432	35.1562	61.1341
36.6211	62.3549	36.6211	62.3481	36.6211	62.3518	36.6211	62.3315	36.6211	62.339	36.6211	62.3056	36.6211	62.3168	36.6211	62.2712	36.6211	62.2859	36.6211	62.2293	36.6211	62.2472	36.6211	62.1814	36.6211	62.202	36.6211	62.129	36.6211	62.1517	36.6211	62.074	36.6211	62.0981	36.6211	62.0183	36.6211	62.0432	36.6211	61.9638	36.6211	61.9888	36.6211	61.9123	36.6211	61.9369	36.6211	61.8655	36.6211	61.889	36.6211	61.8248	36.6211	61.8465	36.6211	61.7913	36.6211	61.8102	36.6211	61.7656	36.6211	61.781	36.6211	61.7481	36.6211	61.759	36.6211	61.7389	36.6211	61.7446	36.6211	61.7378
38.0859	63.2173	38.0859	63.2067	38.0859	63.2138	38.0859	63.1822	38.0859	63.1965	38.0859	63.1444	38.0859	63.166	38.0859	63.0944	38.0859	63.1231	38.0859	63.0335	38.0859	63.069	38.0859	62.9636	38.0859	63.0052	38.0859	62.8865	38.0859	62.9335	38.0859	62.8044	38.0859	62.8557	38.0859	62.7197	38.0859	62.7741	38.0859	62.6348	38.0859	62.6909	38.0859	62.5521	38.0859	62.6084	38.0859	62.474	38.0859	62.529	38.0859	62.4033	38.0859	62.4548	38.0859	62.3424	38.0859	62.3881	38.0859	62.2939	38.0859	62.3312	38.0859	62.2598	38.0859	62.2863	38.0859	62.2416	38.0859	62.2555	38.0859	62.2402
39.5508	63.6366	39.5508	63.6203	39.5508	63.6406	39.5508	63.5926	39.5508	63.6322	39.5508	63.5544	39.5508	63.6111	39.5508	63.5068	39.5508	63.578	39.5508	63.4513	39.5508	63.5336	39.5508	63.389	39.5508	63.4792	39.5508	63.3215	39.5508	63.4164	39.5508	63.2503	39.5508	63.347	39.5508	63.1772	39.5508	63.2733	39.5508	63.1039	39.5508	63.1974	39.5508	63.0324	39.5508	63.1217	39.5508	62.9651	39.5508	63.0484	39.5508	62.9042	39.5508	62.9797	39.5508	62.8522	39.5508	62.9175	39.5508	62.8114	39.5508	62.864	39.5508	62.7839	39.5508	62.8209	39.5508	62.771	39.5508	62.7901	39.5508	62.7731
41.0156	64.7547	41.0156	64.7159	41.0156	64.7813	41.0156	64.6668	41.0156	64.7936	41.0156	64.6087	41.0156	64.7898	41.0156	64.5424	41.0156	64.7681	41.0156	64.4678	41.0156	64.7272	41.0156	64.3841	41.0156	64.6664	41.0156	64.2899	41.0156	64.5853	41.0156	64.1838	41.0156	64.4843	41.0156	64.0646	41.0156	64.3639	41.0156	63.9322	41.0156	64.2254	41.0156	63.7878	41.0156	64.071	41.0156	63.6349	41.0156	63.9038	41.0156	63.4804	41.0156	63.729	41.0156	63.334	41.0156	63.554	41.0156	63.2084	41.0156	63.3891	41.0156	63.1172	41.0156	63.2466	41.0156	63.0718	41.0156	63.1396	41.0156	63.0792
42.4805	64.5752	42.4805	64.5599	42.4805	64.5883	42.4805	64.5431	42.4805	64.5982	42.4805	64.5258	42.4805	64.6045	42.4805	64.5085	42.4805	64.6068	42.4805	64.4919	42.4805	64.6053	42.4805	64.4765	42.4805	64.6005	42.4805	64.4627	42.4805	64.5929	42.4805	64.4511	42.4805	64.5833	42.4805	64.442	42.4805	64.5723	42.4805	64.4358	42.4805	64.5606	42.4805	64.4326	42.4805	64.5486	42.4805	64.4322	42.4805	64.5366	42.4805	64.4345	42.4805	64.5248	42.4805	64.4391	42.4805	64.5132	42.4805	64.4455	42.4805	64.5021	42.4805	64.4532	42.4805	64.4913	42.4805	64.4618	42.4805	64.481	42.4805	64.4712
43.9453	65.2727	43.9453	65.2674	43.9453	65.2721	43.9453	65.2567	43.9453	65.2657	43.9453	65.2409	43.9453	65.2534	43.9453	65.2207	43.9453	65.2356	43.9453	65.1967	43.9453	65.2129	43.9453	65.17	43.9453	65.186	43.9453	65.1416	43.9453	65.1559	43.9453	65.1125	43.9453	65.124	43.9453	65.0839	43.9453	65.0913	43.9453	65.0565	43.9453	65.0593	43.9453	65.0309	43.9453	65.0289	43.9453	65.0077	43.9453	65.0013	43.9453	64.9871	43.9453	64.9772	43.9453	64.9692	43.9453	64.9575	43.9453	64.9541	43.9453	64.9425	43.9453	64.942	43.9453	64.9327	43.9453	64.9333	43.9453	64.9282	43.9453	64.9285
45.4102	65.7534	45.4102	65.7437	45.4102	65.7545	45.4102	65.7261	45.4102	65.7467	45.4102	65.7012	45.4102	65.73	45.4102	65.6699	45.4102	65.7049	45.4102	65.6329	45.4102	65.6721	45.4102	65.5911	45.4102	65.6325	45.4102	65.5454	45.4102	65.5875	45.4102	65.4968	45.4102	65.5386	45.4102	65.4462	45.4102	65.487	45.4102	65.395	45.4102	65.4344	45.4102	65.3444	45.4102	65.3821	45.4102	65.296	45.4102	65.3315	45.4102	65.2515	45.4102	65.284	45.4102	65.2126	45.4102	65.2411	45.4102	65.1812	45.4102	65.2043	45.4102	65.1588	45.4102	65.1751	45.4102	65.1466	45.4102	65.1551	45.4102	65.1454
46.875	66.3202	46.875	66.312	46.875	66.3204	46.875	66.2967	46.875	66.3126	46.875	66.2749	46.875	66.2967	46.875	66.2473	46.875	66.2733	46.875	66.2147	46.875	66.2431	46.875	66.1778	46.875	66.2075	46.875	66.1374	46.875	66.1677	46.875	66.0945	46.875	66.1254	46.875	66.0501	46.875	66.0818	46.875	66.0055	46.875	66.0384	46.875	65.962	46.875	65.9963	46.875	65.9211	46.875	65.9565	46.875	65.8845	46.875	65.9196	46.875	65.8537	46.875	65.8866	46.875	65.8299	46.875	65.858	46.875	65.8142	46.875	65.8349	46.875	65.8071	46.875	65.8181	46.875	65.8086
48.3398	66.7822	48.3398	66.7703	48.3398	66.7854	48.3398	66.7505	48.3398	66.7793	48.3398	66.7237	48.3398	66.7636	48.3398	66.6906	48.3398	66.7386	48.3398	66.6521	48.3398	66.7051	48.3398	66.6088	48.3398	66.6642	48.3398	66.5616	48.3398	66.6174	48.3398	66.5115	48.3398	66.5665	48.3398	66.4595	48.3398	66.5132	48.3398	66.4071	48.3398	66.4593	48.3398	66.3559	48.3398	66.4064	48.3398	66.3074	48.3398	66.3559	48.3398	66.2637	48.3398	66.3091	48.3398	66.2266	48.3398	66.267	48.3398	66.1976	48.3398	66.231	48.3398	66.1781	48.3398	66.2021	48.3398	66.1688	48.3398	66.1814	48.3398	66.17
51.2695	67.7911	51.2695	67.775	51.2695	67.7972	51.2695	67.7497	51.2695	67.7928	51.2695	67.716	51.2695	67.7779	51.2695	67.6751	51.2695	67.753	51.2695	67.6284	51.2695	67.7187	51.2695	67.577	51.2695	67.6762	51.2695	67.5221	51.2695	67.6269	51.2695	67.465	51.2695	67.5723	51.2695	67.4068	51.2695	67.5139	51.2695	67.3488	51.2695	67.4535	51.2695	67.2921	51.2695	67.3925	51.2695	67.2385	51.2695	67.3323	51.2695	67.1896	51.2695	67.2745	51.2695	67.1476	51.2695	67.2208	51.2695	67.1145	51.2695	67.1732	51.2695	67.0925	51.2695	67.1337	51.2695	67.0832	51.2695	67.1044	51.2695	67.0872
52.7344	68.1991	52.7344	68.1857	52.7344	68.2033	52.7344	68.1637	52.7344	68.1978	52.7344	68.1343	52.7344	68.1825	52.7344	68.0987	52.7344	68.1581	52.7344	68.0582	52.7344	68.1252	52.7344	68.0141	52.7344	68.0853	52.7344	67.9676	52.7344	68.0399	52.7344	67.9198	52.7344	67.9907	52.7344	67.872	52.7344	67.9394	52.7344	67.8249	52.7344	67.8877	52.7344	67.7797	52.7344	67.8369	52.7344	67.7374	52.7344	67.7884	52.7344	67.6991	52.7344	67.7434	52.7344	67.6661	52.7344	67.703	52.7344	67.6398	52.7344	67.6685	52.7344	67.6214	52.7344	67.6411	52.7344	67.6119	52.7344	67.622	52.7344	67.6121
54.1992	68.6942	54.1992	68.685	54.1992	68.6942	54.1992	68.6672	54.1992	68.6847	54.1992	68.6418	54.1992	68.6659	54.1992	68.6101	54.1992	68.6385	54.1992	68.5732	54.1992	68.6037	54.1992	68.5326	54.1992	68.5629	54.1992	68.4895	54.1992	68.518	54.1992	68.445	54.1992	68.4709	54.1992	68.4001	54.1992	68.4234	54.1992	68.356	54.1992	68.3769	54.1992	68.3134	54.1992	68.3327	54.1992	68.2734	54.1992	68.2916	54.1992	68.2371	54.1992	68.2544	54.1992	68.2057	54.1992	68.2215	54.1992	68.1803	54.1992	68.1939	54.1992	68.1622	54.1992	68.1722	54.1992	68.1522	54.1992	68.1575	54.1992	68.1506
55.6641	69.1333	55.6641	69.1261	55.6641	69.1308	55.6641	69.1097	55.6641	69.1182	55.6641	69.0849	55.6641	69.0959	55.6641	69.0528	55.6641	69.0645	55.6641	69.0145	55.6641	69.0252	55.6641	68.9712	55.6641	68.9797	55.6641	68.9243	55.6641	68.9299	55.6641	68.875	55.6641	68.8779	55.6641	68.8248	55.6641	68.8257	55.6641	68.775	55.6641	68.7752	55.6641	68.7269	55.6641	68.7279	55.6641	68.682	55.6641	68.6846	55.6641	68.6416	55.6641	68.6462	55.6641	68.607	55.6641	68.6133	55.6641	68.5794	55.6641	68.5862	55.6641	68.5597	55.6641	68.5655	55.6641	68.5486	55.6641	68.5518	55.6641	68.546
58.5938	70.1001	58.5938	70.0946	58.5938	70.0914	58.5938	70.0747	58.5938	70.0688	58.5938	70.0411	58.5938	70.0334	58.5938	69.9947	58.5938	69.9865	58.5938	69.9371	58.5938	69.9296	58.5938	69.87	58.5938	69.865	58.5938	69.7956	58.5938	69.7946	58.5938	69.7162	58.5938	69.721	58.5938	69.6344	58.5938	69.6464	58.5938	69.5528	58.5938	69.573	58.5938	69.4743	58.5938	69.5027	58.5938	69.4015	58.5938	69.4371	58.5938	69.3372	58.5938	69.3775	58.5938	69.2839	58.5938	69.3249	58.5938	69.2432	58.5938	69.2802	58.5938	69.2164	58.5938	69.2445	58.5938	69.2038	58.5938	69.219	58.5938	69.205
60.0586	70.4779	60.0586	70.4632	60.0586	70.4788	60.0586	70.4352	60.0586	70.4656	60.0586	70.3952	60.0586	70.4387	60.0586	70.3443	60.0586	70.399	60.0586	70.2844	60.0586	70.3477	60.0586	70.2173	60.0586	70.2867	60.0586	70.1448	60.0586	70.218	60.0586	70.069	60.0586	70.144	60.0586	69.9919	60.0586	70.0671	60.0586	69.9154	60.0586	69.9895	60.0586	69.8417	60.0586	69.9136	60.0586	69.7728	60.0586	69.8411	60.0586	69.7111	60.0586	69.7741	60.0586	69.6586	60.0586	69.714	60.0586	69.6175	60.0586	69.6627	60.0586	69.5896	60.0586	69.6218	60.0586	69.5761	60.0586	69.5928	60.0586	69.5773
62.9883	71.2217	62.9883	71.2081	62.9883	71.2223	62.9883	71.1821	62.9883	71.2097	62.9883	71.1449	62.9883	71.1845	62.9883	71.0978	62.9883	71.1475	62.9883	71.0425	62.9883	71.1002	62.9883	70.9807	62.9883	71.0443	62.9883	70.9143	62.9883	70.9818	62.9883	70.8448	62.9883	70.9147	62.9883	70.7741	62.9883	70.8449	62.9883	70.7036	62.9883	70.7744	62.9883	70.6352	62.9883	70.7047	62.9883	70.5706	62.9883	70.6374	62.9883	70.512	62.9883	70.574	62.9883	70.4614	62.9883	70.5162	62.9883	70.4213	62.9883	70.466	62.9883	70.3935	62.9883	70.4253	62.9883	70.3798	62.9883	70.3963	62.9883	70.3808
64.4531	71.5741	64.4531	71.5612	64.4531	71.5753	64.4531	71.537	64.4531	71.5648	64.4531	71.5024	64.4531	71.5431	64.4531	71.4589	64.4531	71.5113	64.4531	71.408	64.4531	71.4707	64.4531	71.3514	64.4531	71.4231	64.4531	71.291	64.4531	71.3702	64.4531	71.2286	64.4531	71.3139	64.4531	71.1658	64.4531	71.2557	64.4531	71.1041	64.4531	71.1972	64.4531	71.0453	64.4531	71.1393	64.4531	70.991	64.4531	71.0832	64.4531	70.9428	64.4531	71.0298	64.4531	70.9027	64.4531	70.9802	64.4531	70.8724	64.4531	70.9359	64.4531	70.8534	64.4531	70.8986	64.4531	70.8466	64.4531	70.8702	64.4531	70.8524
67.3828	72.3718	67.3828	72.3563	67.3828	72.3756	67.3828	72.3295	67.3828	72.3677	67.3828	72.2923	67.3828	72.3488	67.3828	72.2459	67.3828	72.3201	67.3828	72.192	67.3828	72.2828	67.3828	72.1324	67.3828	72.2389	67.3828	72.069	67.3828	72.1901	67.3828	72.0038	67.3828	72.1383	67.3828	71.9387	67.3828	72.085	67.3828	71.8759	67.3828	72.0312	67.3828	71.8172	67.3828	71.9778	67.3828	71.7648	67.3828	71.9253	67.3828	71.7207	67.3828	71.874	67.3828	71.6867	67.3828	71.8247	67.3828	71.6645	67.3828	71.7783	67.3828	71.655	67.3828	71.7364	67.3828	71.6585	67.3828	71.701	67.3828	71.6743
