"SPL Vertical"
"On-Axis"		"10°"		"-10°"		"20°"		"-20°"		"30°"		"-30°"		"40°"		"-40°"		"50°"		"-50°"		"60°"		"-60°"		"70°"		"-70°"		"80°"		"-80°"		"90°"		"-90°"		"100°"		"-100°"		"110°"		"-110°"		"120°"		"-120°"		"130°"		"-130°"		"140°"		"-140°"		"150°"		"-150°"		"160°"		"-160°"		"170°"		"-170°"		"180°"
"Frequency [Hz]"	"Sound Pessure Level [dB]  / [2.83V 1m] "	"Frequency [Hz]"	"Sound Pessure Level [dB]  / [2.83V 1m] "	"Frequency [Hz]"	"Sound Pessure Level [dB]  / [2.83V 1m] "	"Frequency [Hz]"	"Sound Pessure Level [dB]  / [2.83V 1m] "	"Frequency [Hz]"	"Sound Pessure Level [dB]  / [2.83V 1m] "	"Frequency [Hz]"	"Sound Pessure Level [dB]  / [2.83V 1m] "	"Frequency [Hz]"	"Sound Pessure Level [dB]  / [2.83V 1m] "	"Frequency [Hz]"	"Sound Pessure Level [dB]  / [2.83V 1m] "	"Frequency [Hz]"	"Sound Pessure Level [dB]  / [2.83V 1m] "	"Frequency [Hz]"	"Sound Pessure Level [dB]  / [2.83V 1m] "	"Frequency [Hz]"	"Sound Pessure Level [dB]  / [2.83V 1m] "	"Frequency [Hz]"	"Sound Pessure Level [dB]  / [2.83V 1m] "	"Frequency [Hz]"	"Sound Pessure Level [dB]  / [2.83V 1m] "	"Frequency [Hz]"	"Sound Pessure Level [dB]  / [2.83V 1m] "	"Frequency [Hz]"	"Sound Pessure Level [dB]  / [2.83V 1m] "	"Frequency [Hz]"	"Sound Pessure Level [dB]  / [2.83V 1m] "	"Frequency [Hz]"	"Sound Pessure Level [dB]  / [2.83V 1m] "	"Frequency [Hz]"	"Sound Pessure Level [dB]  / [2.83V 1m] "	"Frequency [Hz]"	"Sound Pessure Level [dB]  / [2.83V 1m] "	"Frequency [Hz]"	"Sound Pessure Level [dB]  / [2.83V 1m] "	"Frequency [Hz]"	"Sound Pessure Level [dB]  / [2.83V 1m] "	"Frequency [Hz]"	"Sound Pessure Level [dB]  / [2.83V 1m] "	"Frequency [Hz]"	"Sound Pessure Level [dB]  / [2.83V 1m] "	"Frequency [Hz]"	"Sound Pessure Level [dB]  / [2.83V 1m] "	"Frequency [Hz]"	"Sound Pessure Level [dB]  / [2.83V 1m] "	"Frequency [Hz]"	"Sound Pessure Level [dB]  / [2.83V 1m] "	"Frequency [Hz]"	"Sound Pessure Level [dB]  / [2.83V 1m] "	"Frequency [Hz]"	"Sound Pessure Level [dB]  / [2.83V 1m] "	"Frequency [Hz]"	"Sound Pessure Level [dB]  / [2.83V 1m] "	"Frequency [Hz]"	"Sound Pessure Level [dB]  / [2.83V 1m] "	"Frequency [Hz]"	"Sound Pessure Level [dB]  / [2.83V 1m] "	"Frequency [Hz]"	"Sound Pessure Level [dB]  / [2.83V 1m] "	"Frequency [Hz]"	"Sound Pessure Level [dB]  / [2.83V 1m] "	"Frequency [Hz]"	"Sound Pessure Level [dB]  / [2.83V 1m] "	"Frequency [Hz]"	"Sound Pessure Level [dB]  / [2.83V 1m] "	"Frequency [Hz]"	"Sound Pessure Level [dB]  / [2.83V 1m] "
20.5078	50.7245	20.5078	49.8429	20.5078	51.3819	20.5078	48.8182	20.5078	51.7822	20.5078	47.8629	20.5078	51.9026	20.5078	47.4026	20.5078	51.7198	20.5078	47.8702	20.5078	51.2206	20.5078	49.2025	20.5078	50.4601	20.5078	50.9377	20.5078	49.7341	20.5078	52.7126	20.5078	49.7837	20.5078	54.3714	20.5078	51.1865	20.5078	55.8703	20.5078	53.4039	20.5078	57.206	20.5078	55.6533	20.5078	58.3851	20.5078	57.5988	20.5078	59.4134	20.5078	59.1687	20.5078	60.292	20.5078	60.3735	20.5078	61.0165	20.5078	61.2426	20.5078	61.5764	20.5078	61.8069	20.5078	61.9566	20.5078	62.0961	20.5078	62.1375
21.9727	49.8256	21.9727	49.0245	21.9727	50.4963	21.9727	48.312	21.9727	50.9271	21.9727	48.05	21.9727	51.0565	21.9727	48.5556	21.9727	50.8398	21.9727	49.7734	21.9727	50.2585	21.9727	51.3582	21.9727	49.4171	21.9727	53.0137	21.9727	48.8328	21.9727	54.5939	21.9727	49.5355	21.9727	56.0479	21.9727	51.6929	21.9727	57.3653	21.9727	54.2834	21.9727	58.5489	21.9727	56.6388	21.9727	59.6034	21.9727	58.5882	21.9727	60.5307	21.9727	60.1309	21.9727	61.3288	21.9727	61.3031	21.9727	61.9903	21.9727	62.1438	21.9727	62.5035	21.9727	62.6887	21.9727	62.8519	21.9727	62.9695	21.9727	63.0151
23.4375	53.4401	23.4375	52.7974	23.4375	53.9655	23.4375	52.1467	23.4375	54.3107	23.4375	51.669	23.4375	54.4346	23.4375	51.5945	23.4375	54.3077	23.4375	52.0737	23.4375	53.9197	23.4375	53.0485	23.4375	53.3253	23.4375	54.3145	23.4375	52.7611	23.4375	55.6768	23.4375	52.7661	23.4375	57.0158	23.4375	53.8224	23.4375	58.2732	23.4375	55.6657	23.4375	59.4247	23.4375	57.6712	23.4375	60.4602	23.4375	59.4732	23.4375	61.3742	23.4375	60.9543	23.4375	62.1608	23.4375	62.1005	23.4375	62.8116	23.4375	62.931	23.4375	63.3142	23.4375	63.4734	23.4375	63.6529	23.4375	63.7566	23.4375	63.8079
24.9023	56.762	24.9023	56.3003	24.9023	57.1355	24.9023	55.8169	24.9023	57.3757	24.9023	55.4101	24.9023	57.4515	24.9023	55.2061	24.9023	57.3422	24.9023	55.3233	24.9023	57.0479	24.9023	55.8102	24.9023	56.6189	24.9023	56.6146	24.9023	56.2184	24.9023	57.6223	24.9023	56.1725	24.9023	58.7188	24.9023	56.8144	24.9023	59.8204	24.9023	58.1162	24.9023	60.8754	24.9023	59.709	24.9023	61.8533	24.9023	61.2544	24.9023	62.7349	24.9023	62.5816	24.9023	63.5058	24.9023	63.6327	24.9023	64.1522	24.9023	64.4009	24.9023	64.6589	24.9023	64.9002	24.9023	65.0082	24.9023	65.1519	24.9023	65.1801
26.3672	58.4671	26.3672	58.0703	26.3672	58.7985	26.3672	57.6611	26.3672	59.0264	26.3672	57.3125	26.3672	59.1229	26.3672	57.1154	26.3672	59.0702	26.3672	57.1587	26.3672	58.8675	26.3672	57.4934	26.3672	58.553	26.3672	58.1057	26.3672	58.2439	26.3672	58.9265	26.3672	58.1699	26.3672	59.8672	26.3672	58.5938	26.3672	60.8497	26.3672	59.5764	26.3672	61.8174	26.3672	60.8946	26.3672	62.732	26.3672	62.2568	26.3672	63.5677	26.3672	63.4726	26.3672	64.3051	26.3672	64.4567	26.3672	64.9272	26.3672	65.1845	26.3672	65.4169	26.3672	65.66	26.3672	65.7559	26.3672	65.8994	26.3672	65.9239
27.832	60.7983	27.832	60.4298	27.832	61.0967	27.832	60.034	27.832	61.2941	27.832	59.6698	27.832	61.3685	27.832	59.4127	27.832	61.3069	27.832	59.344	27.832	61.1125	27.832	59.5255	27.832	60.8225	27.832	59.9712	27.832	60.5378	27.832	60.641	27.832	60.4456	27.832	61.4618	27.832	60.7618	27.832	62.3572	27.832	61.5613	27.832	63.2648	27.832	62.69	27.832	64.1395	27.832	63.9027	27.832	64.9493	27.832	65.0143	27.832	65.6707	27.832	65.9287	27.832	66.2839	27.832	66.6103	27.832	66.7704	27.832	67.055	27.832	67.1112	27.832	67.2742	27.832	67.2861
29.2969	62.266	29.2969	61.941	29.2969	62.5318	29.2969	61.5972	29.2969	62.7094	29.2969	61.2881	29.2969	62.7787	29.2969	61.0791	29.2969	62.7301	29.2969	61.038	29.2969	62.5714	29.2969	61.215	29.2969	62.3429	29.2969	61.6225	29.2969	62.1402	29.2969	62.2301	29.2969	62.1243	29.2969	62.9792	29.2969	62.4655	29.2969	63.8049	29.2969	63.2153	29.2969	64.651	29.2969	64.2477	29.2969	65.4744	29.2969	65.3593	29.2969	66.2431	29.2969	66.3871	29.2969	66.9326	29.2969	67.239	29.2969	67.5222	29.2969	67.8766	29.2969	67.9927	29.2969	68.2924	29.2969	68.3249	29.2969	68.4944	29.2969	68.4988
30.7617	63.8914	30.7617	63.6084	30.7617	64.1351	30.7617	63.3219	30.7617	64.3123	30.7617	63.0774	30.7617	64.4051	30.7617	62.9274	30.7617	64.406	30.7617	62.9228	30.7617	64.3248	30.7617	63.1001	30.7617	64.2001	30.7617	63.4685	30.7617	64.1129	30.7617	64.0065	30.7617	64.1861	30.7617	64.671	30.7617	64.5399	30.7617	65.4113	30.7617	65.2086	30.7617	66.1805	30.7617	66.1036	30.7617	66.9393	30.7617	67.0725	30.7617	67.6571	30.7617	67.9802	30.7617	68.3086	30.7617	68.7407	30.7617	68.8725	30.7617	69.3118	30.7617	69.3286	30.7617	69.6809	30.7617	69.6571	30.7617	69.8519	30.7617	69.838
32.2266	65.6329	32.2266	65.3896	32.2266	65.8444	32.2266	65.1433	32.2266	66.0022	32.2266	64.9298	32.2266	66.0922	32.2266	64.79	32.2266	66.1093	32.2266	64.7651	32.2266	66.0634	32.2266	64.8874	32.2266	65.9865	32.2266	65.1711	32.2266	65.9423	32.2266	65.6078	32.2266	66.0237	32.2266	66.1691	32.2266	66.3226	32.2266	66.8157	32.2266	66.8744	32.2266	67.5061	32.2266	67.6251	32.2266	68.2024	32.2266	68.4605	32.2266	68.8725	32.2266	69.2644	32.2266	69.4887	32.2266	69.9526	32.2266	70.0273	32.2266	70.4777	32.2266	70.466	32.2266	70.82	32.2266	70.7839	32.2266	70.9779	32.2266	70.9607
33.6914	66.7825	33.6914	66.5747	33.6914	66.9725	33.6914	66.375	33.6914	67.1247	33.6914	66.2151	33.6914	67.2265	33.6914	66.1288	33.6914	67.2753	33.6914	66.1484	33.6914	67.282	33.6914	66.2971	33.6914	67.2774	33.6914	66.5837	33.6914	67.3164	33.6914	66.9999	33.6914	67.4725	33.6914	67.5223	33.6914	67.8113	33.6914	68.1195	33.6914	68.352	33.6914	68.7572	33.6914	69.0475	33.6914	69.4033	33.6914	69.806	33.6914	70.0291	33.6914	70.532	33.6914	70.609	33.6914	71.1527	33.6914	71.1201	33.6914	71.6247	33.6914	71.541	33.6914	71.9283	33.6914	71.8508	33.6914	72.0607	33.6914	72.0301
35.1562	68.4125	35.1562	68.2131	35.1562	68.597	35.1562	68.0205	35.1562	68.75	35.1562	67.8607	35.1562	68.8607	35.1562	67.7621	35.1562	68.9262	35.1562	67.7523	35.1562	68.9551	35.1562	67.8535	35.1562	68.9714	35.1562	68.0773	35.1562	69.0187	35.1562	68.4214	35.1562	69.1554	35.1562	68.8704	35.1562	69.437	35.1562	69.399	35.1562	69.8862	35.1562	69.9773	35.1562	70.4739	35.1562	70.5745	35.1562	71.1289	35.1562	71.1619	35.1562	71.7685	35.1562	71.7129	35.1562	72.3235	35.1562	72.2036	35.1562	72.7486	35.1562	72.6113	35.1562	73.0211	35.1562	72.915	35.1562	73.1348	35.1562	73.0951
36.6211	69.773	36.6211	69.5964	36.6211	69.9412	36.6211	69.4302	36.6211	70.0862	36.6211	69.2965	36.6211	70.1984	36.6211	69.2188	36.6211	70.2754	36.6211	69.2194	36.6211	70.3246	36.6211	69.3161	36.6211	70.3665	36.6211	69.5184	36.6211	70.4371	36.6211	69.8253	36.6211	70.5835	36.6211	70.2251	36.6211	70.8497	36.6211	70.6981	36.6211	71.2546	36.6211	71.2194	36.6211	71.7762	36.6211	71.7625	36.6211	72.3574	36.6211	72.3013	36.6211	72.928	36.6211	72.8109	36.6211	73.4263	36.6211	73.2679	36.6211	73.8095	36.6211	73.6503	36.6211	74.0543	36.6211	73.9375	36.6211	74.1533	36.6211	74.1105
38.0859	71.0935	38.0859	70.9325	38.0859	71.2497	38.0859	70.7829	38.0859	71.3886	38.0859	70.6632	38.0859	71.5022	38.0859	70.5933	38.0859	71.5887	38.0859	70.5921	38.0859	71.6548	38.0859	70.6752	38.0859	71.7185	38.0859	70.8517	38.0859	71.8094	38.0859	71.1223	38.0859	71.9659	38.0859	71.479	38.0859	72.223	38.0859	71.9062	38.0859	72.5958	38.0859	72.3829	38.0859	73.0664	38.0859	72.8856	38.0859	73.588	38.0859	73.3899	38.0859	74.1005	38.0859	73.8721	38.0859	74.5487	38.0859	74.3089	38.0859	74.8923	38.0859	74.6785	38.0859	75.1082	38.0859	74.9603	38.0859	75.1883	38.0859	75.1354
39.5508	72.2336	39.5508	72.0851	39.5508	72.3812	39.5508	71.9493	39.5508	72.5168	39.5508	71.8425	39.5508	72.634	39.5508	71.7816	39.5508	72.7315	39.5508	71.7832	39.5508	72.8152	39.5508	71.8607	39.5508	72.9004	39.5508	72.0225	39.5508	73.0117	39.5508	72.27	39.5508	73.18	39.5508	72.5973	39.5508	73.433	39.5508	72.9914	39.5508	73.7823	39.5508	73.4344	39.5508	74.2133	39.5508	73.9051	39.5508	74.6868	39.5508	74.3811	39.5508	75.1513	39.5508	74.8396	39.5508	75.5576	39.5508	75.2582	39.5508	75.8682	39.5508	75.6154	39.5508	76.0605	39.5508	75.8907	39.5508	76.1257	39.5508	76.0659
41.0156	73.4557	41.0156	73.3219	41.0156	73.5931	41.0156	73.2029	41.0156	73.725	41.0156	73.1119	41.0156	73.8456	41.0156	73.0624	41.0156	73.9537	41.0156	73.0675	41.0156	74.0538	41.0156	73.1379	41.0156	74.1577	41.0156	73.2808	41.0156	74.2842	41.0156	73.498	41.0156	74.4571	41.0156	73.7858	41.0156	74.6975	41.0156	74.1346	41.0156	75.0142	41.0156	74.5304	41.0156	75.396	41.0156	74.9554	41.0156	75.8115	41.0156	75.3901	41.0156	76.218	41.0156	75.8136	41.0156	76.5729	41.0156	76.2048	41.0156	76.8422	41.0156	76.5429	41.0156	77.0044	41.0156	76.8079	41.0156	77.0506	41.0156	76.982
42.4805	74.044	42.4805	73.8982	42.4805	74.1905	42.4805	73.7638	42.4805	74.3291	42.4805	73.6527	42.4805	74.4538	42.4805	73.5773	42.4805	74.5625	42.4805	73.55	42.4805	74.6581	42.4805	73.5817	42.4805	74.7501	42.4805	73.6804	42.4805	74.8548	42.4805	73.85	42.4805	74.9933	42.4805	74.0892	42.4805	75.1861	42.4805	74.3911	42.4805	75.4442	42.4805	74.7438	42.4805	75.7613	42.4805	75.1313	42.4805	76.1124	42.4805	75.5348	42.4805	76.46	42.4805	75.9338	42.4805	76.7647	42.4805	76.3073	42.4805	76.9939	42.4805	76.6343	42.4805	77.1263	42.4805	76.8952	42.4805	77.1523	42.4805	77.0725
43.9453	75.0132	43.9453	74.8821	43.9453	75.148	43.9453	74.7638	43.9453	75.2789	43.9453	74.6689	43.9453	75.4011	43.9453	74.6086	43.9453	75.5133	43.9453	74.5937	43.9453	75.6188	43.9453	74.6337	43.9453	75.7262	43.9453	74.7356	43.9453	75.8496	43.9453	74.9028	43.9453	76.0065	43.9453	75.1341	43.9453	76.2126	43.9453	75.4234	43.9453	76.4748	43.9453	75.7599	43.9453	76.7854	43.9453	76.1293	43.9453	77.1211	43.9453	76.5141	43.9453	77.4483	43.9453	76.8953	43.9453	77.7317	43.9453	77.2532	43.9453	77.9422	43.9453	77.568	43.9453	78.0605	43.9453	77.8209	43.9453	78.0779	43.9453	77.9953
45.4102	75.8874	45.4102	75.7644	45.4102	76.0164	45.4102	75.6549	45.4102	76.1453	45.4102	75.5679	45.4102	76.27	45.4102	75.5128	45.4102	76.3896	45.4102	75.4988	45.4102	76.5067	45.4102	75.5343	45.4102	76.6279	45.4102	75.6259	45.4102	76.7643	45.4102	75.777	45.4102	76.9291	45.4102	75.9872	45.4102	77.134	45.4102	76.2519	45.4102	77.3834	45.4102	76.5622	45.4102	77.6701	45.4102	76.9055	45.4102	77.9739	45.4102	77.2664	45.4102	78.2659	45.4102	77.6272	45.4102	78.5154	45.4102	77.9694	45.4102	78.6962	45.4102	78.2739	45.4102	78.7909	45.4102	78.5228	45.4102	78.7918	45.4102	78.6998
46.875	76.7474	46.875	76.6221	46.875	76.8786	46.875	76.5095	46.875	77.0104	46.875	76.4179	46.875	77.1395	46.875	76.356	46.875	77.2651	46.875	76.3328	46.875	77.3895	46.875	76.3565	46.875	77.5186	46.875	76.4336	46.875	77.6613	46.875	76.5679	46.875	77.8282	46.875	76.76	46.875	78.0285	46.875	77.006	46.875	78.265	46.875	77.2983	46.875	78.5309	46.875	77.6255	46.875	78.8082	46.875	77.9729	46.875	79.0712	46.875	78.3239	46.875	79.2923	46.875	78.6603	46.875	79.4476	46.875	78.9635	46.875	79.5209	46.875	79.2156	46.875	79.5047	46.875	79.4003
48.3398	77.3042	48.3398	77.1807	48.3398	77.4385	48.3398	77.0744	48.3398	77.5785	48.3398	76.9926	48.3398	77.7209	48.3398	76.943	48.3398	77.8643	48.3398	76.9333	48.3398	78.0102	48.3398	76.9699	48.3398	78.1626	48.3398	77.058	48.3398	78.3278	48.3398	77.2001	48.3398	78.5133	48.3398	77.3958	48.3398	78.7249	48.3398	77.6412	48.3398	78.9636	48.3398	77.9291	48.3398	79.2221	48.3398	78.2489	48.3398	79.4845	48.3398	78.5874	48.3398	79.7285	48.3398	78.9292	48.3398	79.9299	48.3398	79.2576	48.3398	80.0673	48.3398	79.555	48.3398	80.1263	48.3398	79.8044	48.3398	80.1002	48.3398	79.9904
51.2695	78.5404	51.2695	78.4259	51.2695	78.6674	51.2695	78.3283	51.2695	78.8032	51.2695	78.2525	51.2695	78.9447	51.2695	78.2037	51.2695	79.0902	51.2695	78.187	51.2695	79.2394	51.2695	78.2069	51.2695	79.3931	51.2695	78.2676	51.2695	79.5538	51.2695	78.3714	51.2695	79.7244	51.2695	78.5192	51.2695	79.9071	51.2695	78.7095	51.2695	80.1015	51.2695	78.9382	51.2695	80.3022	51.2695	79.1983	51.2695	80.4984	51.2695	79.4802	51.2695	80.6743	51.2695	79.7718	51.2695	80.8121	51.2695	80.0588	51.2695	80.8957	51.2695	80.3261	51.2695	80.9138	51.2695	80.5581	51.2695	80.8615	51.2695	80.7404
52.7344	79.0312	52.7344	78.9187	52.7344	79.1567	52.7344	78.8228	52.7344	79.2916	52.7344	78.7478	52.7344	79.4335	52.7344	78.698	52.7344	79.5804	52.7344	78.678	52.7344	79.7312	52.7344	78.692	52.7344	79.8861	52.7344	78.7436	52.7344	80.0461	52.7344	78.8354	52.7344	80.2126	52.7344	78.9685	52.7344	80.3866	52.7344	79.142	52.7344	80.5671	52.7344	79.3526	52.7344	80.7492	52.7344	79.5944	52.7344	80.9234	52.7344	79.8588	52.7344	81.076	52.7344	80.1345	52.7344	81.1917	52.7344	80.4084	52.7344	81.2565	52.7344	80.6659	52.7344	81.2602	52.7344	80.8922	52.7344	81.1986	52.7344	81.0735
54.1992	79.5081	54.1992	79.3966	54.1992	79.6342	54.1992	79.303	54.1992	79.7718	54.1992	79.2309	54.1992	79.9182	54.1992	79.1838	54.1992	80.0714	54.1992	79.1656	54.1992	80.2295	54.1992	79.1797	54.1992	80.3917	54.1992	79.2293	54.1992	80.5576	54.1992	79.3167	54.1992	80.7272	54.1992	79.4429	54.1992	80.9003	54.1992	79.6073	54.1992	81.075	54.1992	79.8073	54.1992	81.2465	54.1992	80.0376	54.1992	81.4063	54.1992	80.2906	54.1992	81.5426	54.1992	80.5562	54.1992	81.6418	54.1992	80.8221	54.1992	81.6915	54.1992	81.0743	54.1992	81.6828	54.1992	81.2987	54.1992	81.6121	54.1992	81.4817
55.6641	79.9985	55.6641	79.8889	55.6641	80.1229	55.6641	79.7971	55.6641	80.2594	55.6641	79.7263	55.6641	80.4055	55.6641	79.6796	55.6641	80.5588	55.6641	79.6602	55.6641	80.7177	55.6641	79.6714	55.6641	80.8805	55.6641	79.7158	55.6641	81.0463	55.6641	79.7957	55.6641	81.2142	55.6641	79.912	55.6641	81.3831	55.6641	80.0647	55.6641	81.5503	55.6641	80.2516	55.6641	81.7112	55.6641	80.4685	55.6641	81.8578	55.6641	80.7085	55.6641	81.9794	55.6641	80.9624	55.6641	82.064	55.6641	81.2187	55.6641	82.1005	55.6641	81.4642	55.6641	82.0811	55.6641	81.6852	55.6641	82.0029	55.6641	81.8685
58.5938	80.7077	58.5938	80.6007	58.5938	80.8315	58.5938	80.5127	58.5938	80.9701	58.5938	80.4456	58.5938	81.121	58.5938	80.4014	58.5938	81.2815	58.5938	80.3821	58.5938	81.4488	58.5938	80.3896	58.5938	81.6196	58.5938	80.426	58.5938	81.7907	58.5938	80.4929	58.5938	81.9589	58.5938	80.5915	58.5938	82.1207	58.5938	80.7221	58.5938	82.2725	58.5938	80.8837	58.5938	82.4095	58.5938	81.0736	58.5938	82.5256	58.5938	81.2869	58.5938	82.6128	58.5938	81.5163	58.5938	82.6628	58.5938	81.7523	58.5938	82.6678	58.5938	81.9836	58.5938	82.6226	58.5938	82.1976	58.5938	82.5262	58.5938	82.382
60.0586	81.0467	60.0586	80.938	60.0586	81.1721	60.0586	80.8476	60.0586	81.3118	60.0586	80.7772	60.0586	81.4636	60.0586	80.7285	60.0586	81.6245	60.0586	80.7031	60.0586	81.7911	60.0586	80.7029	60.0586	81.9598	60.0586	80.7296	60.0586	82.1265	60.0586	80.785	60.0586	82.2872	60.0586	80.8701	60.0586	82.4381	60.0586	80.9858	60.0586	82.5751	60.0586	81.1313	60.0586	82.6936	60.0586	81.3047	60.0586	82.7885	60.0586	81.5018	60.0586	82.8534	60.0586	81.7162	60.0586	82.8818	60.0586	81.9394	60.0586	82.8678	60.0586	82.161	60.0586	82.8077	60.0586	82.3693	60.0586	82.7014	60.0586	82.5528
62.9883	81.6451	62.9883	81.536	62.9883	81.7715	62.9883	81.4457	62.9883	81.9136	62.9883	81.3751	62.9883	82.0689	62.9883	81.3253	62.9883	82.2343	62.9883	81.297	62.9883	82.4056	62.9883	81.2915	62.9883	82.578	62.9883	81.31	62.9883	82.7464	62.9883	81.3538	62.9883	82.9052	62.9883	81.4241	62.9883	83.0491	62.9883	81.5218	62.9883	83.1733	62.9883	81.6471	62.9883	83.2732	62.9883	81.7991	62.9883	83.3444	62.9883	81.975	62.9883	83.3825	62.9883	82.1702	62.9883	83.3831	62.9883	82.3777	62.9883	83.3428	62.9883	82.5887	62.9883	83.2605	62.9883	82.7927	62.9883	83.1376	62.9883	82.979
64.4531	81.9493	64.4531	81.8405	64.4531	82.0756	64.4531	81.7503	64.4531	82.2178	64.4531	81.6792	64.4531	82.3735	64.4531	81.6281	64.4531	82.5395	64.4531	81.5974	64.4531	82.7116	64.4531	81.588	64.4531	82.8845	64.4531	81.601	64.4531	83.0523	64.4531	81.6375	64.4531	83.209	64.4531	81.6989	64.4531	83.3486	64.4531	81.7862	64.4531	83.4658	64.4531	81.9	64.4531	83.5559	64.4531	82.0399	64.4531	83.6148	64.4531	82.204	64.4531	83.6388	64.4531	82.3885	64.4531	83.6249	64.4531	82.5873	64.4531	83.5709	64.4531	82.7923	64.4531	83.4768	64.4531	82.9937	64.4531	83.345	64.4531	83.1813
67.3828	82.407	67.3828	82.2936	67.3828	82.5385	67.3828	82.1992	67.3828	82.6866	67.3828	82.1241	67.3828	82.8488	67.3828	82.0683	67.3828	83.0213	67.3828	82.032	67.3828	83.1992	67.3828	82.0155	67.3828	83.3764	67.3828	82.0196	67.3828	83.5458	67.3828	82.0453	67.3828	83.7004	67.3828	82.0937	67.3828	83.8331	67.3828	82.1661	67.3828	83.938	67.3828	82.2637	67.3828	84.0103	67.3828	82.3866	67.3828	84.0464	67.3828	82.5342	67.3828	84.0441	67.3828	82.7036	67.3828	84.0024	67.3828	82.8905	67.3828	83.9218	67.3828	83.088	67.3828	83.8045	67.3828	83.2876	67.3828	83.655	67.3828	83.4798
68.8477	82.5588	68.8477	82.4434	68.8477	82.693	68.8477	82.3474	68.8477	82.8443	68.8477	82.2711	68.8477	83.0101	68.8477	82.2145	68.8477	83.1865	68.8477	82.1775	68.8477	83.368	68.8477	82.1602	68.8477	83.5483	68.8477	82.1629	68.8477	83.72	68.8477	82.1866	68.8477	83.8754	68.8477	82.2323	68.8477	84.0072	68.8477	82.3012	68.8477	84.1088	68.8477	82.3943	68.8477	84.1754	68.8477	82.5121	68.8477	84.2037	68.8477	82.6542	68.8477	84.192	68.8477	82.8185	68.8477	84.1401	68.8477	83.001	68.8477	84.0496	68.8477	83.1955	68.8477	83.9236	68.8477	83.3942	68.8477	83.7673	68.8477	83.588
