"SPL Vertical"
"On-Axis"		"10°"		"-10°"		"20°"		"-20°"		"30°"		"-30°"		"40°"		"-40°"		"50°"		"-50°"		"60°"		"-60°"		"70°"		"-70°"		"80°"		"-80°"		"90°"		"-90°"		"100°"		"-100°"		"110°"		"-110°"		"120°"		"-120°"		"130°"		"-130°"		"140°"		"-140°"		"150°"		"-150°"		"160°"		"-160°"		"170°"		"-170°"		"180°"
"Frequency [Hz]"	"Sound Pessure Level [dB]  / [2.83V 1m] "	"Frequency [Hz]"	"Sound Pessure Level [dB]  / [2.83V 1m] "	"Frequency [Hz]"	"Sound Pessure Level [dB]  / [2.83V 1m] "	"Frequency [Hz]"	"Sound Pessure Level [dB]  / [2.83V 1m] "	"Frequency [Hz]"	"Sound Pessure Level [dB]  / [2.83V 1m] "	"Frequency [Hz]"	"Sound Pessure Level [dB]  / [2.83V 1m] "	"Frequency [Hz]"	"Sound Pessure Level [dB]  / [2.83V 1m] "	"Frequency [Hz]"	"Sound Pessure Level [dB]  / [2.83V 1m] "	"Frequency [Hz]"	"Sound Pessure Level [dB]  / [2.83V 1m] "	"Frequency [Hz]"	"Sound Pessure Level [dB]  / [2.83V 1m] "	"Frequency [Hz]"	"Sound Pessure Level [dB]  / [2.83V 1m] "	"Frequency [Hz]"	"Sound Pessure Level [dB]  / [2.83V 1m] "	"Frequency [Hz]"	"Sound Pessure Level [dB]  / [2.83V 1m] "	"Frequency [Hz]"	"Sound Pessure Level [dB]  / [2.83V 1m] "	"Frequency [Hz]"	"Sound Pessure Level [dB]  / [2.83V 1m] "	"Frequency [Hz]"	"Sound Pessure Level [dB]  / [2.83V 1m] "	"Frequency [Hz]"	"Sound Pessure Level [dB]  / [2.83V 1m] "	"Frequency [Hz]"	"Sound Pessure Level [dB]  / [2.83V 1m] "	"Frequency [Hz]"	"Sound Pessure Level [dB]  / [2.83V 1m] "	"Frequency [Hz]"	"Sound Pessure Level [dB]  / [2.83V 1m] "	"Frequency [Hz]"	"Sound Pessure Level [dB]  / [2.83V 1m] "	"Frequency [Hz]"	"Sound Pessure Level [dB]  / [2.83V 1m] "	"Frequency [Hz]"	"Sound Pessure Level [dB]  / [2.83V 1m] "	"Frequency [Hz]"	"Sound Pessure Level [dB]  / [2.83V 1m] "	"Frequency [Hz]"	"Sound Pessure Level [dB]  / [2.83V 1m] "	"Frequency [Hz]"	"Sound Pessure Level [dB]  / [2.83V 1m] "	"Frequency [Hz]"	"Sound Pessure Level [dB]  / [2.83V 1m] "	"Frequency [Hz]"	"Sound Pessure Level [dB]  / [2.83V 1m] "	"Frequency [Hz]"	"Sound Pessure Level [dB]  / [2.83V 1m] "	"Frequency [Hz]"	"Sound Pessure Level [dB]  / [2.83V 1m] "	"Frequency [Hz]"	"Sound Pessure Level [dB]  / [2.83V 1m] "	"Frequency [Hz]"	"Sound Pessure Level [dB]  / [2.83V 1m] "	"Frequency [Hz]"	"Sound Pessure Level [dB]  / [2.83V 1m] "	"Frequency [Hz]"	"Sound Pessure Level [dB]  / [2.83V 1m] "	"Frequency [Hz]"	"Sound Pessure Level [dB]  / [2.83V 1m] "	"Frequency [Hz]"	"Sound Pessure Level [dB]  / [2.83V 1m] "
20.5078	79.0277	20.5078	78.9748	20.5078	79.0669	20.5078	78.9102	20.5078	79.0907	20.5078	78.8361	20.5078	79.0978	20.5078	78.7549	20.5078	79.0872	20.5078	78.6689	20.5078	79.0586	20.5078	78.5807	20.5078	79.012	20.5078	78.4929	20.5078	78.9485	20.5078	78.4076	20.5078	78.8699	20.5078	78.3272	20.5078	78.7791	20.5078	78.2536	20.5078	78.6796	20.5078	78.1887	20.5078	78.576	20.5078	78.1338	20.5078	78.4729	20.5078	78.09	20.5078	78.3749	20.5078	78.0583	20.5078	78.2858	20.5078	78.039	20.5078	78.2085	20.5078	78.0328	20.5078	78.1448	20.5078	78.0398	20.5078	78.0955	20.5078	78.0606
21.9727	81.6501	21.9727	81.5887	21.9727	81.6989	21.9727	81.5167	21.9727	81.7334	21.9727	81.4363	21.9727	81.7519	21.9727	81.3499	21.9727	81.7536	21.9727	81.2598	21.9727	81.7376	21.9727	81.1684	21.9727	81.7038	21.9727	81.0783	21.9727	81.6528	21.9727	80.9918	21.9727	81.5857	21.9727	80.9111	21.9727	81.5048	21.9727	80.8384	21.9727	81.4128	21.9727	80.7756	21.9727	81.3132	21.9727	80.7243	21.9727	81.2099	21.9727	80.686	21.9727	81.1071	21.9727	80.6619	21.9727	81.0087	21.9727	80.6526	21.9727	80.9181	21.9727	80.6589	21.9727	80.8382	21.9727	80.6808	21.9727	80.7711	21.9727	80.7184
23.4375	83.6376	23.4375	83.5733	23.4375	83.6907	23.4375	83.4998	23.4375	83.7305	23.4375	83.4195	23.4375	83.7552	23.4375	83.3343	23.4375	83.7631	23.4375	83.2466	23.4375	83.7531	23.4375	83.1583	23.4375	83.7245	23.4375	83.0717	23.4375	83.6774	23.4375	82.9888	23.4375	83.6129	23.4375	82.9117	23.4375	83.5329	23.4375	82.8421	23.4375	83.4401	23.4375	82.7819	23.4375	83.3382	23.4375	82.7325	23.4375	83.2316	23.4375	82.6953	23.4375	83.1248	23.4375	82.6714	23.4375	83.0225	23.4375	82.6618	23.4375	82.9286	23.4375	82.6671	23.4375	82.8463	23.4375	82.6881	23.4375	82.778	23.4375	82.7251
24.9023	85.2628	24.9023	85.2027	24.9023	85.3115	24.9023	85.1329	24.9023	85.3467	24.9023	85.0554	24.9023	85.3668	24.9023	84.9722	24.9023	85.3703	24.9023	84.8852	24.9023	85.3559	24.9023	84.7965	24.9023	85.323	24.9023	84.7082	24.9023	85.2718	24.9023	84.6222	24.9023	85.2032	24.9023	84.5407	24.9023	85.1192	24.9023	84.4657	24.9023	85.0228	24.9023	84.399	24.9023	84.9176	24.9023	84.3425	24.9023	84.808	24.9023	84.2979	24.9023	84.6987	24.9023	84.2665	24.9023	84.5943	24.9023	84.2499	24.9023	84.499	24.9023	84.2491	24.9023	84.4165	24.9023	84.2651	24.9023	84.349	24.9023	84.2984
26.3672	87.0755	26.3672	87.0162	26.3672	87.1242	26.3672	86.9481	26.3672	87.1605	26.3672	86.8731	26.3672	87.1826	26.3672	86.7932	26.3672	87.189	26.3672	86.7103	26.3672	87.1787	26.3672	86.6263	26.3672	87.151	26.3672	86.5432	26.3672	87.106	26.3672	86.4629	26.3672	87.0446	26.3672	86.3874	26.3672	86.9686	26.3672	86.3186	26.3672	86.8807	26.3672	86.2582	26.3672	86.7842	26.3672	86.2079	26.3672	86.6831	26.3672	86.1694	26.3672	86.5814	26.3672	86.144	26.3672	86.4833	26.3672	86.1329	26.3672	86.3926	26.3672	86.1371	26.3672	86.3125	26.3672	86.1572	26.3672	86.2456	26.3672	86.1935
27.832	89.0438	27.832	88.9815	27.832	89.0949	27.832	88.9106	27.832	89.1327	27.832	88.8332	27.832	89.1553	27.832	88.7516	27.832	89.1609	27.832	88.6682	27.832	89.1488	27.832	88.5849	27.832	89.1188	27.832	88.5039	27.832	89.0715	27.832	88.4271	27.832	89.0086	27.832	88.3562	27.832	88.9324	27.832	88.2931	27.832	88.8462	27.832	88.2393	27.832	88.7533	27.832	88.196	27.832	88.6576	27.832	88.1645	27.832	88.5629	27.832	88.1456	27.832	88.4725	27.832	88.1399	27.832	88.3894	27.832	88.1479	27.832	88.3161	27.832	88.1697	27.832	88.2544	27.832	88.2053
29.2969	90.46	29.2969	90.4026	29.2969	90.5052	29.2969	90.3351	29.2969	90.5363	29.2969	90.2595	29.2969	90.5518	29.2969	90.1782	29.2969	90.5504	29.2969	90.0932	29.2969	90.5315	29.2969	90.0069	29.2969	90.495	29.2969	89.9213	29.2969	90.4415	29.2969	89.8386	29.2969	90.3727	29.2969	89.7608	29.2969	90.2908	29.2969	89.6899	29.2969	90.1991	29.2969	89.6278	29.2969	90.1011	29.2969	89.576	29.2969	90.0009	29.2969	89.536	29.2969	89.9025	29.2969	89.509	29.2969	89.8096	29.2969	89.496	29.2969	89.7253	29.2969	89.4975	29.2969	89.6521	29.2969	89.514	29.2969	89.5918	29.2969	89.5456
30.7617	92.1729	30.7617	92.1174	30.7617	92.2182	30.7617	92.0535	30.7617	92.2514	30.7617	91.9832	30.7617	92.2712	30.7617	91.9086	30.7617	92.2763	30.7617	91.8316	30.7617	92.2661	30.7617	91.7543	30.7617	92.2403	30.7617	91.6788	30.7617	92.1994	30.7617	91.6068	30.7617	92.1445	30.7617	91.5401	30.7617	92.0773	30.7617	91.4806	30.7617	92.0004	30.7617	91.4296	30.7617	91.9165	30.7617	91.3885	30.7617	91.8289	30.7617	91.3585	30.7617	91.7411	30.7617	91.3405	30.7617	91.6562	30.7617	91.3353	30.7617	91.5774	30.7617	91.3433	30.7617	91.5071	30.7617	91.3648	30.7617	91.4474	30.7617	91.3997
32.2266	93.3925	32.2266	93.3367	32.2266	93.4372	32.2266	93.2717	32.2266	93.4689	32.2266	93.1996	32.2266	93.486	32.2266	93.1226	32.2266	93.4873	32.2266	93.0426	32.2266	93.4721	32.2266	92.962	32.2266	93.4403	32.2266	92.8827	32.2266	93.3926	32.2266	92.8069	32.2266	93.3304	32.2266	92.7365	32.2266	93.2559	32.2266	92.6731	32.2266	93.1722	32.2266	92.6185	32.2266	93.0826	32.2266	92.574	32.2266	92.9908	32.2266	92.5407	32.2266	92.9004	32.2266	92.5195	32.2266	92.8146	32.2266	92.511	32.2266	92.7363	32.2266	92.5158	32.2266	92.6677	32.2266	92.5341	32.2266	92.6105	32.2266	92.5657
33.6914	94.7605	33.6914	94.7028	33.6914	94.8066	33.6914	94.6355	33.6914	94.8393	33.6914	94.5608	33.6914	94.857	33.6914	94.4808	33.6914	94.8584	33.6914	94.3978	33.6914	94.8428	33.6914	94.3139	33.6914	94.8101	33.6914	94.2313	33.6914	94.761	33.6914	94.1521	33.6914	94.697	33.6914	94.0784	33.6914	94.6204	33.6914	94.0121	33.6914	94.5341	33.6914	93.9549	33.6914	94.4417	33.6914	93.9084	33.6914	94.3469	33.6914	93.8737	33.6914	94.2533	33.6914	93.852	33.6914	94.1644	33.6914	93.8438	33.6914	94.0829	33.6914	93.8496	33.6914	94.0112	33.6914	93.8696	33.6914	93.951	33.6914	93.9036
35.1562	95.8093	35.1562	95.7501	35.1562	95.856	35.1562	95.6804	35.1562	95.8882	35.1562	95.6024	35.1562	95.9044	35.1562	95.5186	35.1562	95.9035	35.1562	95.4312	35.1562	95.8849	35.1562	95.3427	35.1562	95.8486	35.1562	95.2553	35.1562	95.7956	35.1562	95.1714	35.1562	95.7274	35.1562	95.0931	35.1562	95.6465	35.1562	95.0225	35.1562	95.5559	35.1562	94.9613	35.1562	95.4592	35.1562	94.9112	35.1562	95.3603	35.1562	94.8736	35.1562	95.2628	35.1562	94.8496	35.1562	95.1703	35.1562	94.8399	35.1562	95.0856	35.1562	94.8449	35.1562	95.0111	35.1562	94.865	35.1562	94.9488	35.1562	94.8997
36.6211	96.5131	36.6211	96.4541	36.6211	96.5599	36.6211	96.3848	36.6211	96.5926	36.6211	96.3075	36.6211	96.6096	36.6211	96.2245	36.6211	96.6099	36.6211	96.1381	36.6211	96.5929	36.6211	96.0507	36.6211	96.5586	36.6211	95.9647	36.6211	96.5079	36.6211	95.8823	36.6211	96.4424	36.6211	95.8058	36.6211	96.3644	36.6211	95.7371	36.6211	96.2768	36.6211	95.6781	36.6211	96.1831	36.6211	95.6304	36.6211	96.087	36.6211	95.5952	36.6211	95.9919	36.6211	95.5736	36.6211	95.9013	36.6211	95.5663	36.6211	95.8178	36.6211	95.5735	36.6211	95.7439	36.6211	95.5954	36.6211	95.6814	36.6211	95.6315
38.0859	97.0254	38.0859	96.9658	38.0859	97.0726	38.0859	96.8956	38.0859	97.1054	38.0859	96.8174	38.0859	97.1223	38.0859	96.7333	38.0859	97.1222	38.0859	96.6458	38.0859	97.1045	38.0859	96.5574	38.0859	97.0695	38.0859	96.4705	38.0859	97.0181	38.0859	96.3874	38.0859	96.9518	38.0859	96.3103	38.0859	96.8731	38.0859	96.2413	38.0859	96.785	38.0859	96.1823	38.0859	96.6911	38.0859	96.1348	38.0859	96.595	38.0859	96.1001	38.0859	96.5001	38.0859	96.0791	38.0859	96.4096	38.0859	96.0725	38.0859	96.3264	38.0859	96.0805	38.0859	96.2526	38.0859	96.103	38.0859	96.1899	38.0859	96.1397
39.5508	97.2693	39.5508	97.2105	39.5508	97.3154	39.5508	97.1411	39.5508	97.347	39.5508	97.0634	39.5508	97.3627	39.5508	96.9797	39.5508	97.3616	39.5508	96.8926	39.5508	97.3431	39.5508	96.8046	39.5508	97.3076	39.5508	96.718	39.5508	97.2561	39.5508	96.6354	39.5508	97.1902	39.5508	96.5589	39.5508	97.1123	39.5508	96.4905	39.5508	97.0254	39.5508	96.4322	39.5508	96.933	39.5508	96.3853	39.5508	96.8385	39.5508	96.3513	39.5508	96.7453	39.5508	96.3309	39.5508	96.6566	39.5508	96.3247	39.5508	96.575	39.5508	96.3328	39.5508	96.5025	39.5508	96.3552	39.5508	96.4409	39.5508	96.3915
41.0156	97.4047	41.0156	97.3444	41.0156	97.4516	41.0156	97.2726	41.0156	97.4833	41.0156	97.1919	41.0156	97.4983	41.0156	97.1048	41.0156	97.4958	41.0156	97.0139	41.0156	97.4755	41.0156	96.9219	41.0156	97.4377	41.0156	96.8315	41.0156	97.3837	41.0156	96.7454	41.0156	97.3153	41.0156	96.6661	41.0156	97.2351	41.0156	96.5956	41.0156	97.1462	41.0156	96.5361	41.0156	97.0521	41.0156	96.489	41.0156	96.9564	41.0156	96.4556	41.0156	96.8624	41.0156	96.4365	41.0156	96.7731	41.0156	96.4321	41.0156	96.691	41.0156	96.4424	41.0156	96.6179	41.0156	96.4668	41.0156	96.5555	41.0156	96.5047
42.4805	97.4911	42.4805	97.4303	42.4805	97.5388	42.4805	97.3585	42.4805	97.5715	42.4805	97.2779	42.4805	97.5877	42.4805	97.191	42.4805	97.5866	42.4805	97.1004	42.4805	97.5678	42.4805	97.0087	42.4805	97.5316	42.4805	96.9184	42.4805	97.4789	42.4805	96.8322	42.4805	97.4118	42.4805	96.7524	42.4805	97.3325	42.4805	96.6813	42.4805	97.2443	42.4805	96.6208	42.4805	97.1503	42.4805	96.5727	42.4805	97.0541	42.4805	96.5382	42.4805	96.959	42.4805	96.5183	42.4805	96.8679	42.4805	96.5136	42.4805	96.7833	42.4805	96.524	42.4805	96.7075	42.4805	96.5495	42.4805	96.6423	42.4805	96.5892
43.9453	97.5362	43.9453	97.475	43.9453	97.5836	43.9453	97.4022	43.9453	97.6154	43.9453	97.3202	43.9453	97.6303	43.9453	97.2315	43.9453	97.6272	43.9453	97.1388	43.9453	97.606	43.9453	97.0449	43.9453	97.5671	43.9453	96.9524	43.9453	97.5116	43.9453	96.8639	43.9453	97.4416	43.9453	96.7819	43.9453	97.3597	43.9453	96.7087	43.9453	97.2689	43.9453	96.6462	43.9453	97.1726	43.9453	96.5962	43.9453	97.0744	43.9453	96.56	43.9453	96.9776	43.9453	96.5386	43.9453	96.8851	43.9453	96.5324	43.9453	96.7997	43.9453	96.5417	43.9453	96.7233	43.9453	96.5661	43.9453	96.658	43.9453	96.6052
45.4102	97.4738	45.4102	97.4145	45.4102	97.5196	45.4102	97.3437	45.4102	97.5502	45.4102	97.2638	45.4102	97.5642	45.4102	97.1772	45.4102	97.5608	45.4102	97.0865	45.4102	97.5397	45.4102	96.9946	45.4102	97.5015	45.4102	96.904	45.4102	97.4473	45.4102	96.8175	45.4102	97.3792	45.4102	96.7375	45.4102	97.2997	45.4102	96.6664	45.4102	97.2119	45.4102	96.6062	45.4102	97.1193	45.4102	96.5585	45.4102	97.0251	45.4102	96.5246	45.4102	96.9325	45.4102	96.5054	45.4102	96.8443	45.4102	96.5011	45.4102	96.7627	45.4102	96.5116	45.4102	96.6896	45.4102	96.5366	45.4102	96.6267	45.4102	96.5753
46.875	97.4678	46.875	97.4087	46.875	97.5134	46.875	97.3383	46.875	97.5439	46.875	97.2587	46.875	97.5578	46.875	97.1725	46.875	97.5544	46.875	97.0824	46.875	97.5335	46.875	96.9911	46.875	97.4955	46.875	96.9014	46.875	97.4416	46.875	96.8158	46.875	97.3739	46.875	96.737	46.875	97.2948	46.875	96.6672	46.875	97.2077	46.875	96.6083	46.875	97.1158	46.875	96.562	46.875	97.0225	46.875	96.5294	46.875	96.931	46.875	96.5111	46.875	96.844	46.875	96.5073	46.875	96.7639	46.875	96.518	46.875	96.6923	46.875	96.5427	46.875	96.6307	46.875	96.5805
48.3398	97.455	48.3398	97.3934	48.3398	97.503	48.3398	97.3203	48.3398	97.5356	48.3398	97.2381	48.3398	97.5516	48.3398	97.1494	48.3398	97.5501	48.3398	97.057	48.3398	97.531	48.3398	96.9638	48.3398	97.4947	48.3398	96.8726	48.3398	97.4425	48.3398	96.7862	48.3398	97.3764	48.3398	96.7074	48.3398	97.299	48.3398	96.6383	48.3398	97.2134	48.3398	96.5811	48.3398	97.1228	48.3398	96.5372	48.3398	97.0305	48.3398	96.5077	48.3398	96.9394	48.3398	96.4932	48.3398	96.8521	48.3398	96.4936	48.3398	96.7708	48.3398	96.5085	48.3398	96.6972	48.3398	96.5374	48.3398	96.6329	48.3398	96.5792
51.2695	97.4435	51.2695	97.3803	51.2695	97.4923	51.2695	97.3048	51.2695	97.5249	51.2695	97.2196	51.2695	97.54	51.2695	97.1274	51.2695	97.5369	51.2695	97.0312	51.2695	97.5157	51.2695	96.934	51.2695	97.477	51.2695	96.8389	51.2695	97.4225	51.2695	96.749	51.2695	97.3543	51.2695	96.667	51.2695	97.2752	51.2695	96.5957	51.2695	97.1885	51.2695	96.5371	51.2695	97.0974	51.2695	96.4929	51.2695	97.0051	51.2695	96.4641	51.2695	96.9142	51.2695	96.4513	51.2695	96.827	51.2695	96.4542	51.2695	96.7454	51.2695	96.4721	51.2695	96.6709	51.2695	96.5042	51.2695	96.6049	51.2695	96.5489
52.7344	97.4439	52.7344	97.3826	52.7344	97.4904	52.7344	97.3085	52.7344	97.5203	52.7344	97.2243	52.7344	97.5325	52.7344	97.1326	52.7344	97.5265	52.7344	97.0366	52.7344	97.5023	52.7344	96.9392	52.7344	97.461	52.7344	96.8437	52.7344	97.4041	52.7344	96.7532	52.7344	97.334	52.7344	96.6704	52.7344	97.2537	52.7344	96.5981	52.7344	97.1663	52.7344	96.5385	52.7344	97.0751	52.7344	96.4931	52.7344	96.9833	52.7344	96.463	52.7344	96.8935	52.7344	96.4486	52.7344	96.8078	52.7344	96.4499	52.7344	96.7281	52.7344	96.4659	52.7344	96.6558	52.7344	96.4959	52.7344	96.5921	52.7344	96.5384
54.1992	97.4677	54.1992	97.4081	54.1992	97.5121	54.1992	97.3355	54.1992	97.5398	54.1992	97.2523	54.1992	97.5498	54.1992	97.1613	54.1992	97.5415	54.1992	97.0656	54.1992	97.5155	54.1992	96.9683	54.1992	97.4726	54.1992	96.8727	54.1992	97.4147	54.1992	96.7819	54.1992	97.3443	54.1992	96.699	54.1992	97.2642	54.1992	96.6265	54.1992	97.1777	54.1992	96.5667	54.1992	97.0879	54.1992	96.5212	54.1992	96.998	54.1992	96.4911	54.1992	96.9102	54.1992	96.4767	54.1992	96.8268	54.1992	96.4777	54.1992	96.7492	54.1992	96.4934	54.1992	96.6787	54.1992	96.5227	54.1992	96.6167	54.1992	96.5642
55.6641	97.5021	55.6641	97.4421	55.6641	97.5469	55.6641	97.3691	55.6641	97.575	55.6641	97.2856	55.6641	97.5854	55.6641	97.1944	55.6641	97.5776	55.6641	97.0987	55.6641	97.552	55.6641	97.0018	55.6641	97.5097	55.6641	96.907	55.6641	97.4527	55.6641	96.8176	55.6641	97.3833	55.6641	96.7366	55.6641	97.3047	55.6641	96.6667	55.6641	97.2202	55.6641	96.6101	55.6641	97.1331	55.6641	96.5681	55.6641	97.0462	55.6641	96.5417	55.6641	96.9618	55.6641	96.531	55.6641	96.8818	55.6641	96.5353	55.6641	96.8073	55.6641	96.5537	55.6641	96.7394	55.6641	96.5847	55.6641	96.6789	55.6641	96.6269
58.5938	97.4016	58.5938	97.3414	58.5938	97.4453	58.5938	97.2671	58.5938	97.4711	58.5938	97.1811	58.5938	97.4781	58.5938	97.0864	58.5938	97.4658	58.5938	96.9864	58.5938	97.435	58.5938	96.8845	58.5938	97.3868	58.5938	96.7843	58.5938	97.3235	58.5938	96.6893	58.5938	97.2477	58.5938	96.6028	58.5938	97.1631	58.5938	96.5277	58.5938	97.0731	58.5938	96.4662	58.5938	96.9814	58.5938	96.4202	58.5938	96.8908	58.5938	96.3904	58.5938	96.804	58.5938	96.3771	58.5938	96.7224	58.5938	96.3795	58.5938	96.6473	58.5938	96.3964	58.5938	96.5794	58.5938	96.4264	58.5938	96.5192	58.5938	96.4679
60.0586	97.4439	60.0586	97.3825	60.0586	97.4891	60.0586	97.3071	60.0586	97.5165	60.0586	97.2204	60.0586	97.525	60.0586	97.1254	60.0586	97.5141	60.0586	97.0253	60.0586	97.4844	60.0586	96.9236	60.0586	97.4371	60.0586	96.8238	60.0586	97.3742	60.0586	96.7292	60.0586	97.2987	60.0586	96.643	60.0586	97.2139	60.0586	96.5682	60.0586	97.1236	60.0586	96.507	60.0586	97.0312	60.0586	96.4611	60.0586	96.9397	60.0586	96.4312	60.0586	96.8517	60.0586	96.4177	60.0586	96.7688	60.0586	96.42	60.0586	96.6922	60.0586	96.437	60.0586	96.6229	60.0586	96.4673	60.0586	96.5616	60.0586	96.5093
62.9883	97.4336	62.9883	97.3696	62.9883	97.4804	62.9883	97.2906	62.9883	97.5081	62.9883	97.1995	62.9883	97.5156	62.9883	97.0997	62.9883	97.5027	62.9883	96.9947	62.9883	97.4701	62.9883	96.8883	62.9883	97.4192	62.9883	96.7842	62.9883	97.3525	62.9883	96.6863	62.9883	97.2733	62.9883	96.5979	62.9883	97.1852	62.9883	96.5219	62.9883	97.0922	62.9883	96.4607	62.9883	96.9979	62.9883	96.4158	62.9883	96.9055	62.9883	96.3879	62.9883	96.8173	62.9883	96.3767	62.9883	96.7348	62.9883	96.3815	62.9883	96.6588	62.9883	96.4008	62.9883	96.59	62.9883	96.4329	62.9883	96.5288	62.9883	96.4761
64.4531	97.3927	64.4531	97.3258	64.4531	97.4414	64.4531	97.2434	64.4531	97.4703	64.4531	97.1483	64.4531	97.4782	64.4531	97.0442	64.4531	97.4649	64.4531	96.9349	64.4531	97.4313	64.4531	96.8242	64.4531	97.379	64.4531	96.7163	64.4531	97.3105	64.4531	96.615	64.4531	97.2292	64.4531	96.5237	64.4531	97.1388	64.4531	96.4457	64.4531	97.0433	64.4531	96.3831	64.4531	96.9464	64.4531	96.3375	64.4531	96.8513	64.4531	96.3095	64.4531	96.7601	64.4531	96.299	64.4531	96.6747	64.4531	96.3049	64.4531	96.5957	64.4531	96.3257	64.4531	96.5241	64.4531	96.3597	64.4531	96.4602	64.4531	96.405
67.3828	97.0954	67.3828	97.0246	67.3828	97.1484	67.3828	96.9387	67.3828	97.182	67.3828	96.8409	67.3828	97.1951	67.3828	96.7347	67.3828	97.1878	67.3828	96.6245	67.3828	97.161	67.3828	96.5144	67.3828	97.1165	67.3828	96.4088	67.3828	97.0571	67.3828	96.3119	67.3828	96.9861	67.3828	96.2276	67.3828	96.9073	67.3828	96.159	67.3828	96.8243	67.3828	96.1084	67.3828	96.7402	67.3828	96.077	67.3828	96.6575	67.3828	96.0649	67.3828	96.5777	67.3828	96.0711	67.3828	96.5012	67.3828	96.0935	67.3828	96.4283	67.3828	96.1296	67.3828	96.3589	67.3828	96.1767	67.3828	96.2932	67.3828	96.2319
68.8477	97.0216	68.8477	96.952	68.8477	97.0734	68.8477	96.867	68.8477	97.1058	68.8477	96.7698	68.8477	97.1177	68.8477	96.6639	68.8477	97.1094	68.8477	96.5534	68.8477	97.0817	68.8477	96.4425	68.8477	97.0365	68.8477	96.3357	68.8477	96.9768	68.8477	96.2374	68.8477	96.906	68.8477	96.1517	68.8477	96.828	68.8477	96.0819	68.8477	96.7465	68.8477	96.0305	68.8477	96.6645	68.8477	95.9992	68.8477	96.5844	68.8477	95.988	68.8477	96.5074	68.8477	95.9958	68.8477	96.4335	68.8477	96.0206	68.8477	96.3626	68.8477	96.0594	68.8477	96.2943	68.8477	96.109	68.8477	96.2286	68.8477	96.1662
