"SPL Vertical"
"On-Axis"		"10°"		"-10°"		"20°"		"-20°"		"30°"		"-30°"		"40°"		"-40°"		"50°"		"-50°"		"60°"		"-60°"		"70°"		"-70°"		"80°"		"-80°"		"90°"		"-90°"		"100°"		"-100°"		"110°"		"-110°"		"120°"		"-120°"		"130°"		"-130°"		"140°"		"-140°"		"150°"		"-150°"		"160°"		"-160°"		"170°"		"-170°"		"180°"
"Frequency [Hz]"	"Sound Pessure Level [dB]  / [2.83V 1m] "	"Frequency [Hz]"	"Sound Pessure Level [dB]  / [2.83V 1m] "	"Frequency [Hz]"	"Sound Pessure Level [dB]  / [2.83V 1m] "	"Frequency [Hz]"	"Sound Pessure Level [dB]  / [2.83V 1m] "	"Frequency [Hz]"	"Sound Pessure Level [dB]  / [2.83V 1m] "	"Frequency [Hz]"	"Sound Pessure Level [dB]  / [2.83V 1m] "	"Frequency [Hz]"	"Sound Pessure Level [dB]  / [2.83V 1m] "	"Frequency [Hz]"	"Sound Pessure Level [dB]  / [2.83V 1m] "	"Frequency [Hz]"	"Sound Pessure Level [dB]  / [2.83V 1m] "	"Frequency [Hz]"	"Sound Pessure Level [dB]  / [2.83V 1m] "	"Frequency [Hz]"	"Sound Pessure Level [dB]  / [2.83V 1m] "	"Frequency [Hz]"	"Sound Pessure Level [dB]  / [2.83V 1m] "	"Frequency [Hz]"	"Sound Pessure Level [dB]  / [2.83V 1m] "	"Frequency [Hz]"	"Sound Pessure Level [dB]  / [2.83V 1m] "	"Frequency [Hz]"	"Sound Pessure Level [dB]  / [2.83V 1m] "	"Frequency [Hz]"	"Sound Pessure Level [dB]  / [2.83V 1m] "	"Frequency [Hz]"	"Sound Pessure Level [dB]  / [2.83V 1m] "	"Frequency [Hz]"	"Sound Pessure Level [dB]  / [2.83V 1m] "	"Frequency [Hz]"	"Sound Pessure Level [dB]  / [2.83V 1m] "	"Frequency [Hz]"	"Sound Pessure Level [dB]  / [2.83V 1m] "	"Frequency [Hz]"	"Sound Pessure Level [dB]  / [2.83V 1m] "	"Frequency [Hz]"	"Sound Pessure Level [dB]  / [2.83V 1m] "	"Frequency [Hz]"	"Sound Pessure Level [dB]  / [2.83V 1m] "	"Frequency [Hz]"	"Sound Pessure Level [dB]  / [2.83V 1m] "	"Frequency [Hz]"	"Sound Pessure Level [dB]  / [2.83V 1m] "	"Frequency [Hz]"	"Sound Pessure Level [dB]  / [2.83V 1m] "	"Frequency [Hz]"	"Sound Pessure Level [dB]  / [2.83V 1m] "	"Frequency [Hz]"	"Sound Pessure Level [dB]  / [2.83V 1m] "	"Frequency [Hz]"	"Sound Pessure Level [dB]  / [2.83V 1m] "	"Frequency [Hz]"	"Sound Pessure Level [dB]  / [2.83V 1m] "	"Frequency [Hz]"	"Sound Pessure Level [dB]  / [2.83V 1m] "	"Frequency [Hz]"	"Sound Pessure Level [dB]  / [2.83V 1m] "	"Frequency [Hz]"	"Sound Pessure Level [dB]  / [2.83V 1m] "	"Frequency [Hz]"	"Sound Pessure Level [dB]  / [2.83V 1m] "	"Frequency [Hz]"	"Sound Pessure Level [dB]  / [2.83V 1m] "	"Frequency [Hz]"	"Sound Pessure Level [dB]  / [2.83V 1m] "
20.5078	52.4102	20.5078	52.234	20.5078	52.5885	20.5078	52.0668	20.5078	52.7615	20.5078	51.914	20.5078	52.9222	20.5078	51.7796	20.5078	53.0647	20.5078	51.6656	20.5078	53.1845	20.5078	51.5729	20.5078	53.2786	20.5078	51.5018	20.5078	53.3453	20.5078	51.4522	20.5078	53.3838	20.5078	51.4246	20.5078	53.3937	20.5078	51.42	20.5078	53.3751	20.5078	51.4398	20.5078	53.3281	20.5078	51.4859	20.5078	53.2529	20.5078	51.56	20.5078	53.1499	20.5078	51.6628	20.5078	53.0204	20.5078	51.7937	20.5078	52.8668	20.5078	51.9498	20.5078	52.6934	20.5078	52.1258	20.5078	52.5066	20.5078	52.3144
21.9727	52.2942	21.9727	52.2753	21.9727	52.3289	21.9727	52.2707	21.9727	52.3788	21.9727	52.2784	21.9727	52.4418	21.9727	52.2958	21.9727	52.5134	21.9727	52.3211	21.9727	52.5878	21.9727	52.3527	21.9727	52.6592	21.9727	52.3897	21.9727	52.7222	21.9727	52.4317	21.9727	52.7734	21.9727	52.4781	21.9727	52.8114	21.9727	52.5284	21.9727	52.837	21.9727	52.5818	21.9727	52.8526	21.9727	52.6366	21.9727	52.8612	21.9727	52.6907	21.9727	52.8663	21.9727	52.7416	21.9727	52.8701	21.9727	52.7865	21.9727	52.8734	21.9727	52.823	21.9727	52.8754	21.9727	52.8496	21.9727	52.874	21.9727	52.8662
23.4375	53.9936	23.4375	53.8651	23.4375	54.1402	23.4375	53.7586	23.4375	54.2985	23.4375	53.6761	23.4375	54.4607	23.4375	53.6175	23.4375	54.6181	23.4375	53.5815	23.4375	54.7623	23.4375	53.5665	23.4375	54.8864	23.4375	53.5705	23.4375	54.9853	23.4375	53.5917	23.4375	55.0558	23.4375	53.6288	23.4375	55.0968	23.4375	53.6804	23.4375	55.1088	23.4375	53.7458	23.4375	55.0935	23.4375	53.8239	23.4375	55.0534	23.4375	53.9139	23.4375	54.9919	23.4375	54.0145	23.4375	54.9124	23.4375	54.1239	23.4375	54.8183	23.4375	54.2399	23.4375	54.713	23.4375	54.3598	23.4375	54.5994	23.4375	54.4807
24.9023	54.6954	24.9023	54.4453	24.9023	54.9336	24.9023	54.1963	24.9023	55.1474	24.9023	53.9602	24.9023	55.3264	24.9023	53.7461	24.9023	55.4635	24.9023	53.5602	24.9023	55.5553	24.9023	53.4054	24.9023	55.6013	24.9023	53.2827	24.9023	55.6036	24.9023	53.1911	24.9023	55.5652	24.9023	53.1294	24.9023	55.4898	24.9023	53.0961	24.9023	55.3809	24.9023	53.0905	24.9023	55.2422	24.9023	53.1125	24.9023	55.0774	24.9023	53.1623	24.9023	54.8907	24.9023	53.2409	24.9023	54.6873	24.9023	53.3485	24.9023	54.4729	24.9023	53.485	24.9023	54.2544	24.9023	53.6484	24.9023	54.0393	24.9023	53.835
26.3672	53.1612	26.3672	53.1395	26.3672	53.208	26.3672	53.1416	26.3672	53.2789	26.3672	53.1644	26.3672	53.3709	26.3672	53.2046	26.3672	53.4788	26.3672	53.2584	26.3672	53.5963	26.3672	53.323	26.3672	53.7168	26.3672	53.3959	26.3672	53.8345	26.3672	53.4755	26.3672	53.9449	26.3672	53.5606	26.3672	54.0446	26.3672	53.6499	26.3672	54.1316	26.3672	53.7425	26.3672	54.2051	26.3672	53.8369	26.3672	54.2644	26.3672	53.931	26.3672	54.3093	26.3672	54.0224	26.3672	54.3395	26.3672	54.1081	26.3672	54.3542	26.3672	54.1849	26.3672	54.353	26.3672	54.2499	26.3672	54.3351	26.3672	54.3004
27.832	55.6436	27.832	55.5329	27.832	55.753	27.832	55.4245	27.832	55.8572	27.832	55.3216	27.832	55.9521	27.832	55.2267	27.832	56.0336	27.832	55.1415	27.832	56.0985	27.832	55.0674	27.832	56.144	27.832	55.0054	27.832	56.1681	27.832	54.9563	27.832	56.1696	27.832	54.9207	27.832	56.1482	27.832	54.8991	27.832	56.1045	27.832	54.8923	27.832	56.0399	27.832	54.9009	27.832	55.9569	27.832	54.9254	27.832	55.8585	27.832	54.9662	27.832	55.7488	27.832	55.0235	27.832	55.6321	27.832	55.0967	27.832	55.513	27.832	55.1846	27.832	55.3961	27.832	55.2854
29.2969	55.0093	29.2969	54.983	29.2969	55.0447	29.2969	54.965	29.2969	55.0889	29.2969	54.9545	29.2969	55.1413	29.2969	54.9507	29.2969	55.2	29.2969	54.953	29.2969	55.2624	29.2969	54.9609	29.2969	55.3253	29.2969	54.9743	29.2969	55.3851	29.2969	54.9932	29.2969	55.4388	29.2969	55.0178	29.2969	55.484	29.2969	55.048	29.2969	55.5188	29.2969	55.0839	29.2969	55.5426	29.2969	55.125	29.2969	55.5551	29.2969	55.1708	29.2969	55.5567	29.2969	55.2203	29.2969	55.5477	29.2969	55.272	29.2969	55.5289	29.2969	55.3244	29.2969	55.5012	29.2969	55.3753	29.2969	55.4654	29.2969	55.423
30.7617	56.0812	30.7617	56.0634	30.7617	56.1209	30.7617	56.0656	30.7617	56.1834	30.7617	56.0847	30.7617	56.2672	30.7617	56.1177	30.7617	56.3687	30.7617	56.1619	30.7617	56.4821	30.7617	56.2153	30.7617	56.6008	30.7617	56.2764	30.7617	56.7181	30.7617	56.3439	30.7617	56.828	30.7617	56.4171	30.7617	56.926	30.7617	56.495	30.7617	57.0091	30.7617	56.5767	30.7617	57.0757	30.7617	56.6607	30.7617	57.1255	30.7617	56.7455	30.7617	57.1588	30.7617	56.8287	30.7617	57.1761	30.7617	56.9081	30.7617	57.1781	30.7617	56.9809	30.7617	57.1654	30.7617	57.0449	30.7617	57.1384	30.7617	57.0979
32.2266	57.5763	32.2266	57.5228	32.2266	57.6384	32.2266	57.4782	32.2266	57.7077	32.2266	57.4423	32.2266	57.7817	32.2266	57.4144	32.2266	57.8571	32.2266	57.394	32.2266	57.9294	32.2266	57.3808	32.2266	57.9943	32.2266	57.3745	32.2266	58.0479	32.2266	57.3753	32.2266	58.0871	32.2266	57.3831	32.2266	58.1102	32.2266	57.3982	32.2266	58.1165	32.2266	57.4207	32.2266	58.1067	32.2266	57.4506	32.2266	58.0823	32.2266	57.4879	32.2266	58.0454	32.2266	57.532	32.2266	57.9986	32.2266	57.5823	32.2266	57.9442	32.2266	57.6378	32.2266	57.8848	32.2266	57.6974	32.2266	57.8226	32.2266	57.7595
33.6914	58.5847	33.6914	58.5343	33.6914	58.6419	33.6914	58.4909	33.6914	58.7051	33.6914	58.4546	33.6914	58.7726	33.6914	58.4252	33.6914	58.842	33.6914	58.4031	33.6914	58.9101	33.6914	58.3884	33.6914	58.9733	33.6914	58.3816	33.6914	59.0283	33.6914	58.3833	33.6914	59.0723	33.6914	58.3938	33.6914	59.1032	33.6914	58.4134	33.6914	59.1201	33.6914	58.4422	33.6914	59.1227	33.6914	58.4799	33.6914	59.1116	33.6914	58.5259	33.6914	59.0879	33.6914	58.5791	33.6914	59.0528	33.6914	58.6383	33.6914	59.0079	33.6914	58.7016	33.6914	58.955	33.6914	58.767	33.6914	58.8959	33.6914	58.8325
35.1562	58.91	35.1562	58.844	35.1562	58.9822	35.1562	58.7854	35.1562	59.0585	35.1562	58.7349	35.1562	59.136	35.1562	58.6925	35.1562	59.211	35.1562	58.6582	35.1562	59.2798	35.1562	58.6316	35.1562	59.3382	35.1562	58.6128	35.1562	59.383	35.1562	58.6016	35.1562	59.4116	35.1562	58.5981	35.1562	59.4226	35.1562	58.6026	35.1562	59.4155	35.1562	58.6152	35.1562	59.3912	35.1562	58.6364	35.1562	59.3512	35.1562	58.6662	35.1562	59.2979	35.1562	58.7048	35.1562	59.2343	35.1562	58.7521	35.1562	59.1635	35.1562	58.8077	35.1562	59.0888	35.1562	58.8707	35.1562	59.0134	35.1562	58.9399
36.6211	60.3534	36.6211	60.2999	36.6211	60.4126	36.6211	60.2528	36.6211	60.4762	36.6211	60.2124	36.6211	60.5423	36.6211	60.179	36.6211	60.6084	36.6211	60.1527	36.6211	60.6717	36.6211	60.134	36.6211	60.7289	36.6211	60.1231	36.6211	60.7774	36.6211	60.1204	36.6211	60.8149	36.6211	60.1264	36.6211	60.8398	36.6211	60.1413	36.6211	60.8514	36.6211	60.1654	36.6211	60.8494	36.6211	60.1986	36.6211	60.8345	36.6211	60.2404	36.6211	60.8074	36.6211	60.2902	36.6211	60.7694	36.6211	60.3469	36.6211	60.7219	36.6211	60.4088	36.6211	60.6665	36.6211	60.474	36.6211	60.6052	36.6211	60.5403
38.0859	61.1692	38.0859	61.1145	38.0859	61.2281	38.0859	61.0656	38.0859	61.2897	38.0859	61.0234	38.0859	61.3519	38.0859	60.9887	38.0859	61.4125	38.0859	60.9621	38.0859	61.4689	38.0859	60.944	38.0859	61.5188	38.0859	60.9345	38.0859	61.5599	38.0859	60.9338	38.0859	61.5908	38.0859	60.942	38.0859	61.6102	38.0859	60.9588	38.0859	61.618	38.0859	60.9841	38.0859	61.6143	38.0859	61.0176	38.0859	61.5995	38.0859	61.0587	38.0859	61.5746	38.0859	61.1064	38.0859	61.5405	38.0859	61.1598	38.0859	61.4983	38.0859	61.2171	38.0859	61.4493	38.0859	61.2768	38.0859	61.3948	38.0859	61.3367
39.5508	62.2211	39.5508	62.1872	39.5508	62.257	39.5508	62.1555	39.5508	62.2954	39.5508	62.1264	39.5508	62.3362	39.5508	62.1008	39.5508	62.3793	39.5508	62.0797	39.5508	62.4239	39.5508	62.0645	39.5508	62.4686	39.5508	62.0566	39.5508	62.5119	39.5508	62.057	39.5508	62.552	39.5508	62.0667	39.5508	62.5873	39.5508	62.0862	39.5508	62.6163	39.5508	62.1156	39.5508	62.6379	39.5508	62.1546	39.5508	62.6508	39.5508	62.2024	39.5508	62.6538	39.5508	62.2573	39.5508	62.6458	39.5508	62.3175	39.5508	62.6262	39.5508	62.3801	39.5508	62.5948	39.5508	62.4423	39.5508	62.5524	39.5508	62.5008
41.0156	63.0064	41.0156	62.9576	41.0156	63.0593	41.0156	62.9137	41.0156	63.1154	41.0156	62.8757	41.0156	63.1737	41.0156	62.8444	41.0156	63.2327	41.0156	62.8211	41.0156	63.2908	41.0156	62.8068	41.0156	63.3458	41.0156	62.8025	41.0156	63.396	41.0156	62.8091	41.0156	63.4397	41.0156	62.8269	41.0156	63.4754	41.0156	62.8559	41.0156	63.5022	41.0156	62.8958	41.0156	63.5194	41.0156	62.9457	41.0156	63.5264	41.0156	63.004	41.0156	63.5228	41.0156	63.0688	41.0156	63.5081	41.0156	63.1377	41.0156	63.4821	41.0156	63.2079	41.0156	63.4449	41.0156	63.2764	41.0156	63.3972	41.0156	63.3404
42.4805	61.9566	42.4805	61.8738	42.4805	62.0353	42.4805	61.789	42.4805	62.107	42.4805	61.7041	42.4805	62.1688	42.4805	61.6207	42.4805	62.2176	42.4805	61.5403	42.4805	62.2505	42.4805	61.4643	42.4805	62.2651	42.4805	61.394	42.4805	62.2598	42.4805	61.3309	42.4805	62.2344	42.4805	61.2766	42.4805	62.1893	42.4805	61.2325	42.4805	62.1264	42.4805	61.2	42.4805	62.0482	42.4805	61.1805	42.4805	61.9581	42.4805	61.1751	42.4805	61.8597	42.4805	61.1848	42.4805	61.757	42.4805	61.2102	42.4805	61.6539	42.4805	61.2513	42.4805	61.5541	42.4805	61.3077	42.4805	61.4612	42.4805	61.3783
43.9453	63.7539	43.9453	63.677	43.9453	63.8268	43.9453	63.5988	43.9453	63.8932	43.9453	63.5215	43.9453	63.9507	43.9453	63.4475	43.9453	63.9968	43.9453	63.3788	43.9453	64.0298	43.9453	63.3172	43.9453	64.0483	43.9453	63.2642	43.9453	64.0513	43.9453	63.2209	43.9453	64.039	43.9453	63.1886	43.9453	64.0118	43.9453	63.1677	43.9453	63.9711	43.9453	63.1589	43.9453	63.9188	43.9453	63.1624	43.9453	63.8569	43.9453	63.178	43.9453	63.7879	43.9453	63.2054	43.9453	63.7141	43.9453	63.2441	43.9453	63.6378	43.9453	63.2929	43.9453	63.5613	43.9453	63.3506	43.9453	63.4867	43.9453	63.4158
45.4102	64.4176	45.4102	64.3393	45.4102	64.4912	45.4102	64.2589	45.4102	64.5577	45.4102	64.1787	45.4102	64.6149	45.4102	64.1013	45.4102	64.6606	45.4102	64.0288	45.4102	64.6933	45.4102	63.9633	45.4102	64.7115	45.4102	63.9067	45.4102	64.7146	45.4102	63.8603	45.4102	64.7024	45.4102	63.8253	45.4102	64.6753	45.4102	63.8024	45.4102	64.6345	45.4102	63.7922	45.4102	64.5814	45.4102	63.7948	45.4102	64.5179	45.4102	63.8101	45.4102	64.4464	45.4102	63.8377	45.4102	64.3692	45.4102	63.8769	45.4102	64.2889	45.4102	63.927	45.4102	64.2081	45.4102	63.9868	45.4102	64.1293	45.4102	64.0548
46.875	64.8271	46.875	64.7461	46.875	64.9021	46.875	64.6618	46.875	64.9683	46.875	64.5768	46.875	65.0234	46.875	64.4937	46.875	65.0652	46.875	64.4147	46.875	65.092	46.875	64.342	46.875	65.1027	46.875	64.2773	46.875	65.0966	46.875	64.2221	46.875	65.0738	46.875	64.1776	46.875	65.035	46.875	64.1446	46.875	64.9815	46.875	64.1239	46.875	64.9153	46.875	64.1158	46.875	64.8387	46.875	64.1205	46.875	64.7546	46.875	64.1381	46.875	64.6662	46.875	64.1685	46.875	64.5766	46.875	64.2113	46.875	64.4891	46.875	64.266	46.875	64.4066	46.875	64.3316
48.3398	65.4338	48.3398	65.3564	48.3398	65.5098	48.3398	65.2798	48.3398	65.5816	48.3398	65.2062	48.3398	65.6463	48.3398	65.1372	48.3398	65.7011	48.3398	65.0742	48.3398	65.7434	48.3398	65.0185	48.3398	65.7711	48.3398	64.9709	48.3398	65.7828	48.3398	64.9324	48.3398	65.7778	48.3398	64.9037	48.3398	65.7561	48.3398	64.8852	48.3398	65.7185	48.3398	64.8775	48.3398	65.6667	48.3398	64.8807	48.3398	65.6027	48.3398	64.895	48.3398	65.5292	48.3398	64.9205	48.3398	65.4493	48.3398	64.957	48.3398	65.3661	48.3398	65.0043	48.3398	65.283	48.3398	65.0618	48.3398	65.2029	48.3398	65.1285
51.2695	66.4668	51.2695	66.3871	51.2695	66.5411	51.2695	66.3048	51.2695	66.6073	51.2695	66.2226	51.2695	66.6629	51.2695	66.1432	51.2695	66.706	51.2695	66.0689	51.2695	66.7351	51.2695	66.0018	51.2695	66.7492	51.2695	65.9436	51.2695	66.7481	51.2695	65.8959	51.2695	66.7319	51.2695	65.8596	51.2695	66.7013	51.2695	65.8356	51.2695	66.6575	51.2695	65.8242	51.2695	66.602	51.2695	65.8257	51.2695	66.5369	51.2695	65.8397	51.2695	66.4643	51.2695	65.866	51.2695	66.3868	51.2695	65.9038	51.2695	66.3068	51.2695	65.9523	51.2695	66.2268	51.2695	66.0104	51.2695	66.1494	51.2695	66.0766
52.7344	66.9668	52.7344	66.8902	52.7344	67.0395	52.7344	66.8126	52.7344	67.1056	52.7344	66.7366	52.7344	67.1628	52.7344	66.6647	52.7344	67.209	52.7344	66.5991	52.7344	67.243	52.7344	66.5416	52.7344	67.2637	52.7344	66.4938	52.7344	67.2708	52.7344	66.4566	52.7344	67.2643	52.7344	66.431	52.7344	67.2448	52.7344	66.4172	52.7344	67.2129	52.7344	66.4154	52.7344	67.1699	52.7344	66.4256	52.7344	67.117	52.7344	66.4472	52.7344	67.0559	52.7344	66.4797	52.7344	66.9885	52.7344	66.5223	52.7344	66.9169	52.7344	66.574	52.7344	66.8434	52.7344	66.6336	52.7344	66.7702	52.7344	66.6996
54.1992	67.3111	54.1992	67.2371	54.1992	67.3818	54.1992	67.1621	54.1992	67.4466	54.1992	67.0886	54.1992	67.5034	54.1992	67.0188	54.1992	67.5501	54.1992	66.9547	54.1992	67.5853	54.1992	66.8982	54.1992	67.6077	54.1992	66.8506	54.1992	67.6167	54.1992	66.8131	54.1992	67.6118	54.1992	66.7865	54.1992	67.5933	54.1992	66.7714	54.1992	67.5619	54.1992	66.768	54.1992	67.5184	54.1992	66.7761	54.1992	67.4645	54.1992	66.7956	54.1992	67.4019	54.1992	66.826	54.1992	67.3328	54.1992	66.8666	54.1992	67.2596	54.1992	66.9167	54.1992	67.1848	54.1992	66.975	54.1992	67.1109	54.1992	67.0403
55.6641	67.9109	55.6641	67.8348	55.6641	67.9825	55.6641	67.7569	55.6641	68.0473	55.6641	67.6798	55.6641	68.1032	55.6641	67.6059	55.6641	68.1484	55.6641	67.5376	55.6641	68.1815	55.6641	67.477	55.6641	68.2015	55.6641	67.4256	55.6641	68.2079	55.6641	67.385	55.6641	68.2005	55.6641	67.3562	55.6641	68.1798	55.6641	67.3397	55.6641	68.1464	55.6641	67.3359	55.6641	68.1017	55.6641	67.3446	55.6641	68.047	55.6641	67.3656	55.6641	67.9843	55.6641	67.3981	55.6641	67.9155	55.6641	67.4413	55.6641	67.8427	55.6641	67.494	55.6641	67.768	55.6641	67.5547	55.6641	67.6936	55.6641	67.6219
58.5938	68.89	58.5938	68.8172	58.5938	68.9599	58.5938	68.7436	58.5938	69.0244	58.5938	68.6717	58.5938	69.0814	58.5938	68.6036	58.5938	69.1289	58.5938	68.5411	58.5938	69.1654	58.5938	68.486	58.5938	69.1898	58.5938	68.4397	58.5938	69.2012	58.5938	68.4034	58.5938	69.1995	58.5938	68.3779	58.5938	69.1847	58.5938	68.3639	58.5938	69.1572	58.5938	68.3616	58.5938	69.1179	58.5938	68.3712	58.5938	69.0677	58.5938	68.3923	58.5938	69.0083	58.5938	68.4245	58.5938	68.9414	58.5938	68.4673	58.5938	68.8694	58.5938	68.5196	58.5938	68.7947	58.5938	68.5802	58.5938	68.7199	58.5938	68.6477
60.0586	69.233	60.0586	69.1619	60.0586	69.303	60.0586	69.0921	60.0586	69.3695	60.0586	69.0257	60.0586	69.4303	60.0586	68.965	60.0586	69.4834	60.0586	68.9118	60.0586	69.5275	60.0586	68.868	60.0586	69.5613	60.0586	68.835	60.0586	69.5843	60.0586	68.8139	60.0586	69.5965	60.0586	68.8055	60.0586	69.5979	60.0586	68.8101	60.0586	69.5891	60.0586	68.8277	60.0586	69.5706	60.0586	68.8576	60.0586	69.5427	60.0586	68.8989	60.0586	69.506	60.0586	68.9502	60.0586	69.4609	60.0586	69.0095	60.0586	69.4079	60.0586	69.0749	60.0586	69.3482	60.0586	69.144	60.0586	69.2829	60.0586	69.2141
62.9883	70.2722	62.9883	70.1905	62.9883	70.3488	62.9883	70.1063	62.9883	70.4177	62.9883	70.0222	62.9883	70.4764	62.9883	69.9405	62.9883	70.5225	62.9883	69.8635	62.9883	70.5541	62.9883	69.7932	62.9883	70.5698	62.9883	69.7316	62.9883	70.5687	62.9883	69.6802	62.9883	70.5509	62.9883	69.6403	62.9883	70.5172	62.9883	69.613	62.9883	70.4689	62.9883	69.5989	62.9883	70.4081	62.9883	69.5984	62.9883	70.3372	62.9883	69.6113	62.9883	70.2591	62.9883	69.6373	62.9883	70.1766	62.9883	69.6756	62.9883	70.0923	62.9883	69.7252	62.9883	70.0088	62.9883	69.7849	62.9883	69.9284	62.9883	69.8532
64.4531	70.7431	64.4531	70.6598	64.4531	70.8207	64.4531	70.5735	64.4531	70.8901	64.4531	70.4868	64.4531	70.9484	64.4531	70.4018	64.4531	70.9932	64.4531	70.3209	64.4531	71.0224	64.4531	70.246	64.4531	71.0345	64.4531	70.179	64.4531	71.0287	64.4531	70.1215	64.4531	71.005	64.4531	70.0749	64.4531	70.9642	64.4531	70.0405	64.4531	70.9078	64.4531	70.0189	64.4531	70.8382	64.4531	70.0107	64.4531	70.7581	64.4531	70.0162	64.4531	70.6706	64.4531	70.0352	64.4531	70.5791	64.4531	70.0673	64.4531	70.4869	64.4531	70.1121	64.4531	70.3972	64.4531	70.1687	64.4531	70.3128	64.4531	70.236
67.3828	71.7277	67.3828	71.648	67.3828	71.7969	67.3828	71.5603	67.3828	71.8532	67.3828	71.4675	67.3828	71.895	67.3828	71.3726	67.3828	71.9209	67.3828	71.2785	67.3828	71.9298	67.3828	71.1878	67.3828	71.9212	67.3828	71.103	67.3828	71.8952	67.3828	71.0262	67.3828	71.8521	67.3828	70.9589	67.3828	71.7929	67.3828	70.9027	67.3828	71.7191	67.3828	70.8586	67.3828	71.633	67.3828	70.8278	67.3828	71.5371	67.3828	70.811	67.3828	71.4348	67.3828	70.8091	67.3828	71.3297	67.3828	70.8228	67.3828	71.2259	67.3828	70.8527	67.3828	71.1274	67.3828	70.899	67.3828	71.0381	67.3828	70.9612
68.8477	71.9685	68.8477	71.8946	68.8477	72.0358	68.8477	71.8163	68.8477	72.0943	68.8477	71.7361	68.8477	72.1425	68.8477	71.6563	68.8477	72.1786	68.8477	71.5795	68.8477	72.2015	68.8477	71.5077	68.8477	72.2101	68.8477	71.443	68.8477	72.2038	68.8477	71.3869	68.8477	72.1824	68.8477	71.3406	68.8477	72.1461	68.8477	71.3051	68.8477	72.0957	68.8477	71.2811	68.8477	72.0327	68.8477	71.269	68.8477	71.9592	68.8477	71.2692	68.8477	71.8775	68.8477	71.2822	68.8477	71.7907	68.8477	71.308	68.8477	71.7023	68.8477	71.3466	68.8477	71.6157	68.8477	71.3979	68.8477	71.5343	68.8477	71.4609
