"SPL Horizontal"
"On-Axis"		"10°"		"-10°"		"20°"		"-20°"		"30°"		"-30°"		"40°"		"-40°"		"50°"		"-50°"		"60°"		"-60°"		"70°"		"-70°"		"80°"		"-80°"		"90°"		"-90°"		"100°"		"-100°"		"110°"		"-110°"		"120°"		"-120°"		"130°"		"-130°"		"140°"		"-140°"		"150°"		"-150°"		"160°"		"-160°"		"170°"		"-170°"		"180°"
"Frequency [Hz]"	"Sound Pessure Level [dB]  / [2.83V 1m] "	"Frequency [Hz]"	"Sound Pessure Level [dB]  / [2.83V 1m] "	"Frequency [Hz]"	"Sound Pessure Level [dB]  / [2.83V 1m] "	"Frequency [Hz]"	"Sound Pessure Level [dB]  / [2.83V 1m] "	"Frequency [Hz]"	"Sound Pessure Level [dB]  / [2.83V 1m] "	"Frequency [Hz]"	"Sound Pessure Level [dB]  / [2.83V 1m] "	"Frequency [Hz]"	"Sound Pessure Level [dB]  / [2.83V 1m] "	"Frequency [Hz]"	"Sound Pessure Level [dB]  / [2.83V 1m] "	"Frequency [Hz]"	"Sound Pessure Level [dB]  / [2.83V 1m] "	"Frequency [Hz]"	"Sound Pessure Level [dB]  / [2.83V 1m] "	"Frequency [Hz]"	"Sound Pessure Level [dB]  / [2.83V 1m] "	"Frequency [Hz]"	"Sound Pessure Level [dB]  / [2.83V 1m] "	"Frequency [Hz]"	"Sound Pessure Level [dB]  / [2.83V 1m] "	"Frequency [Hz]"	"Sound Pessure Level [dB]  / [2.83V 1m] "	"Frequency [Hz]"	"Sound Pessure Level [dB]  / [2.83V 1m] "	"Frequency [Hz]"	"Sound Pessure Level [dB]  / [2.83V 1m] "	"Frequency [Hz]"	"Sound Pessure Level [dB]  / [2.83V 1m] "	"Frequency [Hz]"	"Sound Pessure Level [dB]  / [2.83V 1m] "	"Frequency [Hz]"	"Sound Pessure Level [dB]  / [2.83V 1m] "	"Frequency [Hz]"	"Sound Pessure Level [dB]  / [2.83V 1m] "	"Frequency [Hz]"	"Sound Pessure Level [dB]  / [2.83V 1m] "	"Frequency [Hz]"	"Sound Pessure Level [dB]  / [2.83V 1m] "	"Frequency [Hz]"	"Sound Pessure Level [dB]  / [2.83V 1m] "	"Frequency [Hz]"	"Sound Pessure Level [dB]  / [2.83V 1m] "	"Frequency [Hz]"	"Sound Pessure Level [dB]  / [2.83V 1m] "	"Frequency [Hz]"	"Sound Pessure Level [dB]  / [2.83V 1m] "	"Frequency [Hz]"	"Sound Pessure Level [dB]  / [2.83V 1m] "	"Frequency [Hz]"	"Sound Pessure Level [dB]  / [2.83V 1m] "	"Frequency [Hz]"	"Sound Pessure Level [dB]  / [2.83V 1m] "	"Frequency [Hz]"	"Sound Pessure Level [dB]  / [2.83V 1m] "	"Frequency [Hz]"	"Sound Pessure Level [dB]  / [2.83V 1m] "	"Frequency [Hz]"	"Sound Pessure Level [dB]  / [2.83V 1m] "	"Frequency [Hz]"	"Sound Pessure Level [dB]  / [2.83V 1m] "	"Frequency [Hz]"	"Sound Pessure Level [dB]  / [2.83V 1m] "	"Frequency [Hz]"	"Sound Pessure Level [dB]  / [2.83V 1m] "	"Frequency [Hz]"	"Sound Pessure Level [dB]  / [2.83V 1m] "
20.5078	44.9624	20.5078	45.0296	20.5078	44.6633	20.5078	44.9636	20.5078	44.0763	20.5078	44.9317	20.5078	43.1858	20.5078	45.1718	20.5078	42.084	20.5078	45.8896	20.5078	41.1819	20.5078	47.0928	20.5078	41.3418	20.5078	48.5915	20.5078	42.9414	20.5078	50.165	20.5078	45.229	20.5078	51.6667	20.5078	47.5059	20.5078	53.0232	20.5078	49.5336	20.5078	54.2041	20.5078	51.2791	20.5078	55.1992	20.5078	52.7629	20.5078	56.0065	20.5078	54.0115	20.5078	56.6275	20.5078	55.0467	20.5078	57.0639	20.5078	55.8838	20.5078	57.3179	20.5078	56.5326	20.5078	57.391	20.5078	56.9985	20.5078	57.2844
21.9727	49.1355	21.9727	49.0443	21.9727	48.9573	21.9727	48.7004	21.9727	48.4997	21.9727	48.1447	21.9727	47.7606	21.9727	47.4869	21.9727	46.7734	21.9727	46.9799	21.9727	45.694	21.9727	47.0227	21.9727	44.9669	21.9727	47.8705	21.9727	45.2576	21.9727	49.3296	21.9727	46.6778	21.9727	51.0016	21.9727	48.6148	21.9727	52.614	21.9727	50.5502	21.9727	54.0491	21.9727	52.2849	21.9727	55.2695	21.9727	53.7759	21.9727	56.2696	21.9727	55.0284	21.9727	57.0532	21.9727	56.0573	21.9727	57.6266	21.9727	56.8754	21.9727	57.9953	21.9727	57.4916	21.9727	58.1637	21.9727	57.9107	21.9727	58.1348
23.4375	48.9629	23.4375	48.6686	23.4375	48.8823	23.4375	47.9846	23.4375	48.4215	23.4375	46.8963	23.4375	47.5535	23.4375	45.4815	23.4375	46.2468	23.4375	44.2382	23.4375	44.5691	23.4375	44.405	23.4375	43.115	23.4375	46.3809	23.4375	43.4206	23.4375	48.9481	23.4375	45.7062	23.4375	51.3174	23.4375	48.4257	23.4375	53.3194	23.4375	50.8426	23.4375	54.9677	23.4375	52.8615	23.4375	56.3041	23.4375	54.5273	23.4375	57.365	23.4375	55.8933	23.4375	58.177	23.4375	56.9996	23.4375	58.7589	23.4375	57.8731	23.4375	59.1234	23.4375	58.5306	23.4375	59.279	23.4375	58.9818	23.4375	59.231
24.9023	50.6246	24.9023	50.371	24.9023	50.5958	24.9023	49.8528	24.9023	50.287	24.9023	49.1422	24.9023	49.7212	24.9023	48.454	24.9023	48.9767	24.9023	48.2363	24.9023	48.2707	24.9023	48.9448	24.9023	48.0376	24.9023	50.4897	24.9023	48.7031	24.9023	52.3689	24.9023	50.1787	24.9023	54.2084	24.9023	51.993	24.9023	55.8554	24.9023	53.7887	24.9023	57.2694	24.9023	55.4158	24.9023	58.4492	24.9023	56.8329	24.9023	59.4045	24.9023	58.0373	24.9023	60.1456	24.9023	59.0368	24.9023	60.6811	24.9023	59.8396	24.9023	61.0175	24.9023	60.4513	24.9023	61.1598	24.9023	60.8751	24.9023	61.1115
26.3672	52.7527	26.3672	52.5136	26.3672	52.7213	26.3672	52.0165	26.3672	52.4178	26.3672	51.3093	26.3672	51.85	26.3672	50.5426	26.3672	51.0563	26.3672	50.0701	26.3672	50.1702	26.3672	50.3777	26.3672	49.5342	26.3672	51.5962	26.3672	49.677	26.3672	53.323	26.3672	50.8114	26.3672	55.1208	26.3672	52.538	26.3672	56.7707	26.3672	54.3745	26.3672	58.2006	26.3672	56.0775	26.3672	59.3973	26.3672	57.5692	26.3672	60.3662	26.3672	58.8371	26.3672	61.1164	26.3672	59.8877	26.3672	61.6563	26.3672	60.7304	26.3672	61.9925	26.3672	61.3726	26.3672	62.1298	26.3672	61.8189	26.3672	62.0714
27.832	54.4049	27.832	54.1889	27.832	54.391	27.832	53.7615	27.832	54.148	27.832	53.1828	27.832	53.6943	27.832	52.6057	27.832	53.0854	27.832	52.3279	27.832	52.4588	27.832	52.6963	27.832	52.0868	27.832	53.7849	27.832	52.3124	27.832	55.3072	27.832	53.26	27.832	56.927	27.832	54.6933	27.832	58.4475	27.832	56.2795	27.832	59.7876	27.832	57.8062	27.832	60.922	27.832	59.1804	27.832	61.8474	27.832	60.3705	27.832	62.5672	27.832	61.3695	27.832	63.0863	27.832	62.1782	27.832	63.4091	27.832	62.7988	27.832	63.5393	27.832	63.2326	27.832	63.4798
29.2969	56.2938	29.2969	56.103	29.2969	56.2832	29.2969	55.728	29.2969	56.0713	29.2969	55.2201	29.2969	55.6746	29.2969	54.7006	29.2969	55.1391	29.2969	54.3974	29.2969	54.5714	29.2969	54.5949	29.2969	54.1762	29.2969	55.4193	29.2969	54.2297	29.2969	56.704	29.2969	54.8984	29.2969	58.1639	29.2969	56.0721	29.2969	59.59	29.2969	57.4825	29.2969	60.8764	29.2969	58.908	29.2969	61.9805	29.2969	60.2283	29.2969	62.8882	29.2969	61.3913	29.2969	63.5972	29.2969	62.3779	29.2969	64.1091	29.2969	63.1823	29.2969	64.4266	29.2969	63.8027	29.2969	64.5524	29.2969	64.2387	29.2969	64.4891
30.7617	58.5862	30.7617	58.4064	30.7617	58.5793	30.7617	58.0516	30.7617	58.3866	30.7617	57.5578	30.7617	58.0209	30.7617	57.0114	30.7617	57.5158	30.7617	56.583	30.7617	56.9467	30.7617	56.521	30.7617	56.4612	30.7617	57.016	30.7617	56.2835	30.7617	58.0237	30.7617	56.6164	30.7617	59.3102	30.7617	57.4733	30.7617	60.6448	30.7617	58.6659	30.7617	61.8872	30.7617	59.9684	30.7617	62.9707	30.7617	61.2268	30.7617	63.8689	30.7617	62.3614	30.7617	64.573	30.7617	63.3368	30.7617	65.0817	30.7617	64.1383	30.7617	65.3963	30.7617	64.76	30.7617	65.5191	30.7617	65.1988	30.7617	65.4525
32.2266	59.2619	32.2266	59.0945	32.2266	59.2423	32.2266	58.7539	32.2266	59.0357	32.2266	58.2795	32.2266	58.655	32.2266	57.7615	32.2266	58.1372	32.2266	57.3737	32.2266	57.5671	32.2266	57.3596	32.2266	57.1099	32.2266	57.8952	32.2266	57.0066	32.2266	58.925	32.2266	57.4496	32.2266	60.2181	32.2266	58.4106	32.2266	61.5528	32.2266	59.6711	32.2266	62.7944	32.2266	61.0049	32.2266	63.8789	32.2266	62.2704	32.2266	64.7804	32.2266	63.3988	32.2266	65.4902	32.2266	64.3613	32.2266	66.0068	32.2266	65.147	32.2266	66.3315	32.2266	65.7521	32.2266	66.4662	32.2266	66.1746	32.2266	66.4133
33.6914	60.9633	33.6914	60.8911	33.6914	60.9009	33.6914	60.6936	33.6914	60.7097	33.6914	60.4006	33.6914	60.4112	33.6914	60.0759	33.6914	60.0505	33.6914	59.8309	33.6914	59.7092	33.6914	59.8177	33.6914	59.5108	33.6914	60.1676	33.6914	59.5967	33.6914	60.9004	33.6914	60.0544	33.6914	61.9062	33.6914	60.8547	33.6914	63.0261	33.6914	61.8735	33.6914	64.129	33.6914	62.9704	33.6914	65.1327	33.6914	64.0396	33.6914	65.9927	33.6914	65.0164	33.6914	66.6868	33.6914	65.8645	33.6914	67.2047	33.6914	66.5642	33.6914	67.5423	33.6914	67.104	33.6914	67.699	33.6914	67.4764	33.6914	67.6761
35.1562	62.9096	35.1562	62.8269	35.1562	62.8755	35.1562	62.6351	35.1562	62.7308	35.1562	62.3606	35.1562	62.4955	35.1562	62.059	35.1562	62.2084	35.1562	61.8247	35.1562	61.9341	35.1562	61.7854	35.1562	61.7663	35.1562	62.0565	35.1562	61.8122	35.1562	62.67	35.1562	62.1487	35.1562	63.5485	35.1562	62.7769	35.1562	64.5587	35.1562	63.6207	35.1562	65.5776	35.1562	64.5711	35.1562	66.5209	35.1562	65.5305	35.1562	67.3386	35.1562	66.4297	35.1562	68.0039	35.1562	67.2249	35.1562	68.5027	35.1562	67.8893	35.1562	68.829	35.1562	68.4064	35.1562	68.9805	35.1562	68.7652	35.1562	68.9582
36.6211	64.5087	36.6211	64.4406	36.6211	64.466	36.6211	64.2684	36.6211	64.3178	36.6211	64.0144	36.6211	64.0812	36.6211	63.7247	36.6211	63.7898	36.6211	63.4784	36.6211	63.5001	36.6211	63.3857	36.6211	63.2957	36.6211	63.5571	36.6211	63.2766	36.6211	64.0443	36.6211	63.5243	36.6211	64.802	36.6211	64.0566	36.6211	65.7183	36.6211	64.8156	36.6211	66.6734	36.6211	65.7013	36.6211	67.5768	36.6211	66.6157	36.6211	68.3708	36.6211	67.4851	36.6211	69.0224	36.6211	68.2608	36.6211	69.5139	36.6211	68.9127	36.6211	69.8366	36.6211	69.4216	36.6211	69.9871	36.6211	69.7754	36.6211	69.9657
38.0859	66.026	38.0859	65.9707	38.0859	65.9811	38.0859	65.8216	38.0859	65.8406	38.0859	65.5994	38.0859	65.6203	38.0859	65.3458	38.0859	65.3506	38.0859	65.1299	38.0859	65.0818	38.0859	65.0463	38.0859	64.8874	38.0859	65.1908	38.0859	64.8554	38.0859	65.6138	38.0859	65.0605	38.0859	66.2864	38.0859	65.5266	38.0859	67.1175	38.0859	66.2111	38.0859	68.0007	38.0859	67.0285	38.0859	68.8487	38.0859	67.8879	38.0859	69.6024	38.0859	68.7165	38.0859	70.2255	38.0859	69.4634	38.0859	70.6976	38.0859	70.0957	38.0859	71.0077	38.0859	70.5923	38.0859	71.1511	38.0859	70.9392	38.0859	71.1274
39.5508	67.3998	39.5508	67.3428	39.5508	67.3618	39.5508	67.1965	39.5508	67.2337	39.5508	66.9799	39.5508	67.0306	39.5508	66.7311	39.5508	66.7813	39.5508	66.5134	39.5508	66.5322	39.5508	66.4136	39.5508	66.3494	39.5508	66.5219	39.5508	66.3115	39.5508	66.8908	39.5508	66.4865	39.5508	67.5024	39.5508	66.9001	39.5508	68.2772	39.5508	67.5204	39.5508	69.1151	39.5508	68.2739	39.5508	69.9299	39.5508	69.0777	39.5508	70.6607	39.5508	69.8613	39.5508	71.2693	39.5508	70.5733	39.5508	71.7332	39.5508	71.1792	39.5508	72.0404	39.5508	71.656	39.5508	72.1854	39.5508	71.9887	39.5508	72.1672
41.0156	68.6995	41.0156	68.643	41.0156	68.6705	41.0156	68.5074	41.0156	68.5611	41.0156	68.3127	41.0156	68.3868	41.0156	68.0975	41.0156	68.1759	41.0156	67.9228	41.0156	67.9723	41.0156	67.8675	41.0156	67.8353	41.0156	68.0088	41.0156	67.832	41.0156	68.3869	41.0156	68.0183	41.0156	68.981	41.0156	68.4141	41.0156	69.7198	41.0156	68.9929	41.0156	70.5145	41.0156	69.6938	41.0156	71.2875	41.0156	70.4453	41.0156	71.9822	41.0156	71.1839	41.0156	72.5614	41.0156	71.8609	41.0156	73.0028	41.0156	72.442	41.0156	73.2937	41.0156	72.9031	41.0156	73.4281	41.0156	73.2278	41.0156	73.4051
42.4805	70.1932	42.4805	70.1629	42.4805	70.1527	42.4805	70.0674	42.4805	70.0452	42.4805	69.9232	42.4805	69.8838	42.4805	69.7613	42.4805	69.6925	42.4805	69.6287	42.4805	69.5076	42.4805	69.5863	42.4805	69.3787	42.4805	69.6949	42.4805	69.3624	42.4805	69.9929	42.4805	69.5079	42.4805	70.4756	42.4805	69.8384	42.4805	71.0962	42.4805	70.3387	42.4805	71.7851	42.4805	70.961	42.4805	72.473	42.4805	71.6431	42.4805	73.104	42.4805	72.325	42.4805	73.6382	42.4805	72.9582	42.4805	74.0495	42.4805	73.5066	42.4805	74.3221	42.4805	73.9446	42.4805	74.4479	42.4805	74.2545	42.4805	74.4245
43.9453	71.3862	43.9453	71.3539	43.9453	71.3536	43.9453	71.2622	43.9453	71.2599	43.9453	71.1274	43.9453	71.1179	43.9453	70.9792	43.9453	70.9506	43.9453	70.8623	43.9453	70.7923	43.9453	70.8329	43.9453	70.6885	43.9453	70.9466	43.9453	70.6899	43.9453	71.2376	43.9453	70.8399	43.9453	71.7016	43.9453	71.1584	43.9453	72.2958	43.9453	71.6322	43.9453	72.9559	43.9453	72.2191	43.9453	73.6171	43.9453	72.8634	43.9453	74.2258	43.9453	73.5098	43.9453	74.7429	43.9453	74.1123	43.9453	75.1424	43.9453	74.6357	43.9453	75.4084	43.9453	75.0546	43.9453	75.5327	43.9453	75.3509	43.9453	75.5126
45.4102	72.7156	45.4102	72.694	45.4102	72.6824	45.4102	72.6227	45.4102	72.598	45.4102	72.5158	45.4102	72.4741	45.4102	72.3991	45.4102	72.3309	45.4102	72.3102	45.4102	72.1985	45.4102	72.2958	45.4102	72.1154	45.4102	72.402	45.4102	72.1242	45.4102	72.6584	45.4102	72.2615	45.4102	73.0652	45.4102	72.5454	45.4102	73.5904	45.4102	72.9675	45.4102	74.1817	45.4102	73.4946	45.4102	74.7823	45.4102	74.0794	45.4102	75.3421	45.4102	74.6727	45.4102	75.8225	45.4102	75.2311	45.4102	76.1967	45.4102	75.7201	45.4102	76.4473	45.4102	76.1137	45.4102	76.5648	45.4102	76.3932	45.4102	76.546
46.875	73.9235	46.875	73.9119	46.875	73.8878	46.875	73.8572	46.875	73.808	46.875	73.7722	46.875	73.6945	46.875	73.6792	46.875	73.5656	46.875	73.6106	46.875	73.4478	46.875	73.6058	46.875	73.3748	46.875	73.7041	46.875	73.3836	46.875	73.9318	46.875	73.5062	46.875	74.2919	46.875	73.7599	46.875	74.7601	46.875	74.1395	46.875	75.293	46.875	74.6179	46.875	75.8406	46.875	75.1543	46.875	76.3562	46.875	75.7041	46.875	76.8023	46.875	76.2263	46.875	77.1516	46.875	76.6872	46.875	77.3859	46.875	77.0606	46.875	77.4948	46.875	77.3274	46.875	77.4746
48.3398	74.9822	48.3398	74.9694	48.3398	74.948	48.3398	74.9135	48.3398	74.87	48.3398	74.8259	48.3398	74.7582	48.3398	74.7271	48.3398	74.6299	48.3398	74.6473	48.3398	74.5096	48.3398	74.6237	48.3398	74.429	48.3398	74.6942	48.3398	74.4229	48.3398	74.8866	48.3398	74.5221	48.3398	75.207	48.3398	74.7446	48.3398	75.636	48.3398	75.0878	48.3398	76.134	48.3398	75.5286	48.3398	76.6531	48.3398	76.0296	48.3398	77.1471	48.3398	76.5483	48.3398	77.5781	48.3398	77.0447	48.3398	77.9177	48.3398	77.485	48.3398	78.1471	48.3398	77.8427	48.3398	78.2553	48.3398	78.0983	48.3398	78.2384
51.2695	76.8166	51.2695	76.8184	51.2695	76.7799	51.2695	76.7879	51.2695	76.7113	51.2695	76.7344	51.2695	76.6195	51.2695	76.674	51.2695	76.5189	51.2695	76.6299	51.2695	76.4296	51.2695	76.6301	51.2695	76.3765	51.2695	76.7032	51.2695	76.3861	51.2695	76.8706	51.2695	76.4817	51.2695	77.139	51.2695	76.6769	51.2695	77.4962	51.2695	76.9709	51.2695	77.914	51.2695	77.3471	51.2695	78.3549	51.2695	77.7773	51.2695	78.78	51.2695	78.2271	51.2695	79.155	51.2695	78.6625	51.2695	79.4531	51.2695	79.0528	51.2695	79.655	51.2695	79.3729	51.2695	79.7495	51.2695	79.6038	51.2695	79.7318
52.7344	77.6686	52.7344	77.6731	52.7344	77.6328	52.7344	77.6487	52.7344	77.569	52.7344	77.6033	52.7344	77.4854	52.7344	77.5509	52.7344	77.395	52.7344	77.512	52.7344	77.316	52.7344	77.5115	52.7344	77.2703	52.7344	77.575	52.7344	77.2813	52.7344	77.7226	52.7344	77.3695	52.7344	77.9619	52.7344	77.5472	52.7344	78.2842	52.7344	77.8147	52.7344	78.6656	52.7344	78.1582	52.7344	79.0727	52.7344	78.5533	52.7344	79.4693	52.7344	78.9693	52.7344	79.8224	52.7344	79.3743	52.7344	80.1051	52.7344	79.7392	52.7344	80.2983	52.7344	80.0395	52.7344	80.39	52.7344	80.256	52.7344	80.3754
54.1992	78.4651	54.1992	78.4701	54.1992	78.4329	54.1992	78.4497	54.1992	78.3764	54.1992	78.4112	54.1992	78.303	54.1992	78.3673	54.1992	78.2248	54.1992	78.3364	54.1992	78.1578	54.1992	78.3406	54.1992	78.1216	54.1992	78.4032	54.1992	78.1368	54.1992	78.5422	54.1992	78.2216	54.1992	78.7651	54.1992	78.3876	54.1992	79.0649	54.1992	78.6353	54.1992	79.4206	54.1992	78.9535	54.1992	79.8018	54.1992	79.3206	54.1992	80.1751	54.1992	79.7088	54.1992	80.5088	54.1992	80.0887	54.1992	80.7771	54.1992	80.4326	54.1992	80.961	54.1992	80.7165	54.1992	81.0486	54.1992	80.9218	54.1992	81.0351
55.6641	79.2516	55.6641	79.2559	55.6641	79.221	55.6641	79.2358	55.6641	79.1669	55.6641	79.1976	55.6641	79.0963	55.6641	79.1533	55.6641	79.0201	55.6641	79.1198	55.6641	78.9534	55.6641	79.1179	55.6641	78.9143	55.6641	79.1692	55.6641	78.9221	55.6641	79.2915	55.6641	78.9942	55.6641	79.4927	55.6641	79.142	55.6641	79.7677	55.6641	79.3672	55.6641	80.098	55.6641	79.6605	55.6641	80.4555	55.6641	80.0022	55.6641	80.8081	55.6641	80.3668	55.6641	81.1254	55.6641	80.7259	55.6641	81.3817	55.6641	81.0527	55.6641	81.5578	55.6641	81.3238	55.6641	81.6419	55.6641	81.5203	55.6641	81.6289
58.5938	80.5809	58.5938	80.5906	58.5938	80.5527	58.5938	80.5833	58.5938	80.5087	58.5938	80.5644	58.5938	80.4547	58.5938	80.5435	58.5938	80.4003	58.5938	80.5344	58.5938	80.3577	58.5938	80.5536	58.5938	80.3416	58.5938	80.6179	58.5938	80.367	58.5938	80.7408	58.5938	80.4472	58.5938	80.9282	58.5938	80.5906	58.5938	81.1759	58.5938	80.7981	58.5938	81.469	58.5938	81.0618	58.5938	81.7847	58.5938	81.3663	58.5938	82.0962	58.5938	81.6902	58.5938	82.377	58.5938	82.0099	58.5938	82.6043	58.5938	82.3019	58.5938	82.7606	58.5938	82.5452	58.5938	82.8346	58.5938	82.7226	58.5938	82.8214
60.0586	81.2252	60.0586	81.2265	60.0586	81.2089	60.0586	81.2153	60.0586	81.1785	60.0586	81.1974	60.0586	81.138	60.0586	81.1815	60.0586	81.0946	60.0586	81.1791	60.0586	81.0588	60.0586	81.2037	60.0586	81.0433	60.0586	81.2684	60.0586	81.0619	60.0586	81.3837	60.0586	81.1275	60.0586	81.5543	60.0586	81.2491	60.0586	81.7771	60.0586	81.4294	60.0586	82.04	60.0586	81.663	60.0586	82.3241	60.0586	81.9367	60.0586	82.6062	60.0586	82.2314	60.0586	82.8625	60.0586	82.5249	60.0586	83.0718	60.0586	82.7945	60.0586	83.2169	60.0586	83.0199	60.0586	83.2865	60.0586	83.1842	60.0586	83.2753
62.9883	82.3638	62.9883	82.3666	62.9883	82.3511	62.9883	82.3615	62.9883	82.3289	62.9883	82.3532	62.9883	82.3002	62.9883	82.3486	62.9883	82.2708	62.9883	82.3568	62.9883	82.2487	62.9883	82.3883	62.9883	82.2438	62.9883	82.4533	62.9883	82.2671	62.9883	82.56	62.9883	82.3288	62.9883	82.7123	62.9883	82.4363	62.9883	82.9075	62.9883	82.5923	62.9883	83.1364	62.9883	82.7933	62.9883	83.3833	62.9883	83.0293	62.9883	83.6288	62.9883	83.2848	62.9883	83.8523	62.9883	83.5412	62.9883	84.035	62.9883	83.7786	62.9883	84.1613	62.9883	83.9787	62.9883	84.2208	62.9883	84.1259	62.9883	84.2087
64.4531	82.839	64.4531	82.8433	64.4531	82.8274	64.4531	82.8424	64.4531	82.809	64.4531	82.8401	64.4531	82.7863	64.4531	82.8429	64.4531	82.7645	64.4531	82.8587	64.4531	82.7505	64.4531	82.8965	64.4531	82.7531	64.4531	82.9653	64.4531	82.7821	64.4531	83.072	64.4531	82.8463	64.4531	83.2199	64.4531	82.9525	64.4531	83.4064	64.4531	83.1029	64.4531	83.6231	64.4531	83.2943	64.4531	83.8558	64.4531	83.5178	64.4531	84.0867	64.4531	83.7591	64.4531	84.297	64.4531	84.001	64.4531	84.4689	64.4531	84.2252	64.4531	84.5878	64.4531	84.4143	64.4531	84.6437	64.4531	84.5536	64.4531	84.632
67.3828	83.6866	67.3828	83.695	67.3828	83.6756	67.3828	83.7025	67.3828	83.6623	67.3828	83.7123	67.3828	83.6487	67.3828	83.729	67.3828	83.6387	67.3828	83.7587	67.3828	83.6378	67.3828	83.8081	67.3828	83.6528	67.3828	83.8835	67.3828	83.691	67.3828	83.9898	67.3828	83.759	67.3828	84.129	67.3828	83.862	67.3828	84.2986	67.3828	84.0013	67.3828	84.4915	67.3828	84.1742	67.3828	84.6962	67.3828	84.3735	67.3828	84.8981	67.3828	84.5874	67.3828	85.0812	67.3828	84.8018	67.3828	85.2303	67.3828	85.0009	67.3828	85.3326	67.3828	85.1696	67.3828	85.3795	67.3828	85.2947	67.3828	85.3666
68.8477	84.1826	68.8477	84.1945	68.8477	84.1709	68.8477	84.2079	68.8477	84.1597	68.8477	84.2254	68.8477	84.1507	68.8477	84.2509	68.8477	84.1469	68.8477	84.2892	68.8477	84.153	68.8477	84.3454	68.8477	84.1744	68.8477	84.4247	68.8477	84.2171	68.8477	84.5307	68.8477	84.2867	68.8477	84.6646	68.8477	84.3869	68.8477	84.8241	68.8477	84.5192	68.8477	85.003	68.8477	84.6811	68.8477	85.1912	68.8477	84.8664	68.8477	85.3759	68.8477	85.0651	68.8477	85.5427	68.8477	85.2643	68.8477	85.678	68.8477	85.45	68.8477	85.77	68.8477	85.6082	68.8477	85.8106	68.8477	85.7266	68.8477	85.7958
