"SPL Vertical"
"On-Axis"		"10°"		"-10°"		"20°"		"-20°"		"30°"		"-30°"		"40°"		"-40°"		"50°"		"-50°"		"60°"		"-60°"		"70°"		"-70°"		"80°"		"-80°"		"90°"		"-90°"		"100°"		"-100°"		"110°"		"-110°"		"120°"		"-120°"		"130°"		"-130°"		"140°"		"-140°"		"150°"		"-150°"		"160°"		"-160°"		"170°"		"-170°"		"180°"
"Frequency / Hz"	"Sound Pressure Level / dB (re 20 µPa/V)  [2.83  V @ 1. m]"	"Frequency / Hz"	"Sound Pressure Level / dB (re 20 µPa/V)  [2.83  V @ 1. m]"	"Frequency / Hz"	"Sound Pressure Level / dB (re 20 µPa/V)  [2.83  V @ 1. m]"	"Frequency / Hz"	"Sound Pressure Level / dB (re 20 µPa/V)  [2.83  V @ 1. m]"	"Frequency / Hz"	"Sound Pressure Level / dB (re 20 µPa/V)  [2.83  V @ 1. m]"	"Frequency / Hz"	"Sound Pressure Level / dB (re 20 µPa/V)  [2.83  V @ 1. m]"	"Frequency / Hz"	"Sound Pressure Level / dB (re 20 µPa/V)  [2.83  V @ 1. m]"	"Frequency / Hz"	"Sound Pressure Level / dB (re 20 µPa/V)  [2.83  V @ 1. m]"	"Frequency / Hz"	"Sound Pressure Level / dB (re 20 µPa/V)  [2.83  V @ 1. m]"	"Frequency / Hz"	"Sound Pressure Level / dB (re 20 µPa/V)  [2.83  V @ 1. m]"	"Frequency / Hz"	"Sound Pressure Level / dB (re 20 µPa/V)  [2.83  V @ 1. m]"	"Frequency / Hz"	"Sound Pressure Level / dB (re 20 µPa/V)  [2.83  V @ 1. m]"	"Frequency / Hz"	"Sound Pressure Level / dB (re 20 µPa/V)  [2.83  V @ 1. m]"	"Frequency / Hz"	"Sound Pressure Level / dB (re 20 µPa/V)  [2.83  V @ 1. m]"	"Frequency / Hz"	"Sound Pressure Level / dB (re 20 µPa/V)  [2.83  V @ 1. m]"	"Frequency / Hz"	"Sound Pressure Level / dB (re 20 µPa/V)  [2.83  V @ 1. m]"	"Frequency / Hz"	"Sound Pressure Level / dB (re 20 µPa/V)  [2.83  V @ 1. m]"	"Frequency / Hz"	"Sound Pressure Level / dB (re 20 µPa/V)  [2.83  V @ 1. m]"	"Frequency / Hz"	"Sound Pressure Level / dB (re 20 µPa/V)  [2.83  V @ 1. m]"	"Frequency / Hz"	"Sound Pressure Level / dB (re 20 µPa/V)  [2.83  V @ 1. m]"	"Frequency / Hz"	"Sound Pressure Level / dB (re 20 µPa/V)  [2.83  V @ 1. m]"	"Frequency / Hz"	"Sound Pressure Level / dB (re 20 µPa/V)  [2.83  V @ 1. m]"	"Frequency / Hz"	"Sound Pressure Level / dB (re 20 µPa/V)  [2.83  V @ 1. m]"	"Frequency / Hz"	"Sound Pressure Level / dB (re 20 µPa/V)  [2.83  V @ 1. m]"	"Frequency / Hz"	"Sound Pressure Level / dB (re 20 µPa/V)  [2.83  V @ 1. m]"	"Frequency / Hz"	"Sound Pressure Level / dB (re 20 µPa/V)  [2.83  V @ 1. m]"	"Frequency / Hz"	"Sound Pressure Level / dB (re 20 µPa/V)  [2.83  V @ 1. m]"	"Frequency / Hz"	"Sound Pressure Level / dB (re 20 µPa/V)  [2.83  V @ 1. m]"	"Frequency / Hz"	"Sound Pressure Level / dB (re 20 µPa/V)  [2.83  V @ 1. m]"	"Frequency / Hz"	"Sound Pressure Level / dB (re 20 µPa/V)  [2.83  V @ 1. m]"	"Frequency / Hz"	"Sound Pressure Level / dB (re 20 µPa/V)  [2.83  V @ 1. m]"	"Frequency / Hz"	"Sound Pressure Level / dB (re 20 µPa/V)  [2.83  V @ 1. m]"	"Frequency / Hz"	"Sound Pressure Level / dB (re 20 µPa/V)  [2.83  V @ 1. m]"	"Frequency / Hz"	"Sound Pressure Level / dB (re 20 µPa/V)  [2.83  V @ 1. m]"	"Frequency / Hz"	"Sound Pressure Level / dB (re 20 µPa/V)  [2.83  V @ 1. m]"	"Frequency / Hz"	"Sound Pressure Level / dB (re 20 µPa/V)  [2.83  V @ 1. m]"
20.5078	41.8751	20.5078	41.6968	20.5078	41.9196	20.5078	41.3535	20.5078	41.9017	20.5078	40.8481	20.5078	41.9456	20.5078	40.2313	20.5078	42.2188	20.5078	39.6458	20.5078	42.8628	20.5078	39.3745	20.5078	43.8936	20.5078	39.7573	20.5078	45.191	20.5078	40.8864	20.5078	46.5905	20.5078	42.4959	20.5078	47.9618	20.5078	44.2505	20.5078	49.2258	20.5078	45.9452	20.5078	50.3396	20.5078	47.4917	20.5078	51.2809	20.5078	48.8599	20.5078	52.0376	20.5078	50.0418	20.5078	52.6023	20.5078	51.0362	20.5078	52.9706	20.5078	51.8424	20.5078	53.1401	20.5078	52.4587	20.5078	53.1103	20.5078	52.8823
21.9727	46.1714	21.9727	46.3097	21.9727	45.8375	21.9727	46.2532	21.9727	45.3203	21.9727	46.0066	21.9727	44.6675	21.9727	45.5796	21.9727	44.0094	21.9727	44.9965	21.9727	43.6128	21.9727	44.3218	21.9727	43.8197	21.9727	43.7079	21.9727	44.7557	21.9727	43.4305	21.9727	46.1797	21.9727	43.7846	21.9727	47.7499	21.9727	44.812	21.9727	49.246	21.9727	46.2495	21.9727	50.5683	21.9727	47.7925	21.9727	51.6797	21.9727	49.2541	21.9727	52.5689	21.9727	50.5494	21.9727	53.2331	21.9727	51.6453	21.9727	53.6724	21.9727	52.5299	21.9727	53.8875	21.9727	53.1987	21.9727	53.8793	21.9727	53.6491
23.4375	45.9444	23.4375	45.9797	23.4375	45.7228	23.4375	45.8142	23.4375	45.3509	23.4375	45.4442	23.4375	44.9122	23.4375	44.8809	23.4375	44.5759	23.4375	44.1719	23.4375	44.6	23.4375	43.4549	23.4375	45.1997	23.4375	43.0268	23.4375	46.3466	23.4375	43.2786	23.4375	47.7981	23.4375	44.3411	23.4375	49.3071	23.4375	45.9199	23.4375	50.7221	23.4375	47.6362	23.4375	51.9712	23.4375	49.2677	23.4375	53.0243	23.4375	50.724	23.4375	53.8698	23.4375	51.9773	23.4375	54.5036	23.4375	53.0222	23.4375	54.9242	23.4375	53.8594	23.4375	55.1319	23.4375	54.4898	23.4375	55.1277	23.4375	54.913
24.9023	48.4028	24.9023	48.5152	24.9023	48.09	24.9023	48.4269	24.9023	47.5849	24.9023	48.1396	24.9023	46.9215	24.9023	47.6583	24.9023	46.2002	24.9023	47.002	24.9023	45.6515	24.9023	46.2306	24.9023	45.6308	24.9023	45.4986	24.9023	46.3684	24.9023	45.1072	24.9023	47.701	24.9023	45.3995	24.9023	49.2638	24.9023	46.4327	24.9023	50.7881	24.9023	47.9058	24.9023	52.1461	24.9023	49.4798	24.9023	53.2897	24.9023	50.9587	24.9023	54.2044	24.9023	52.2601	24.9023	54.8878	24.9023	53.3552	24.9023	55.3411	24.9023	54.2355	24.9023	55.5664	24.9023	54.8986	24.9023	55.5661	24.9023	55.3428
26.3672	48.6253	26.3672	48.7305	26.3672	48.3574	26.3672	48.6618	26.3672	47.9605	26.3672	48.4214	26.3672	47.5141	26.3672	48.0259	26.3672	47.1753	26.3672	47.5214	26.3672	47.1775	26.3672	47.012	26.3672	47.7154	26.3672	46.6916	26.3672	48.7717	26.3672	46.8129	26.3672	50.1329	26.3672	47.5219	26.3672	51.5681	26.3672	48.7133	26.3672	52.9272	26.3672	50.1368	26.3672	54.1345	26.3672	51.5802	26.3672	55.156	26.3672	52.923	26.3672	55.9773	26.3672	54.1092	26.3672	56.5923	26.3672	55.1152	26.3672	56.9989	26.3672	55.9306	26.3672	57.1966	26.3672	56.5501	26.3672	57.1862	26.3672	56.9698
27.832	50.4889	27.832	50.585	27.832	50.2424	27.832	50.5202	27.832	49.8756	27.832	50.2963	27.832	49.4565	27.832	49.9291	27.832	49.1157	27.832	49.4599	27.832	49.0502	27.832	48.9787	27.832	49.445	27.832	48.6505	27.832	50.3287	27.832	48.6952	27.832	51.5445	27.832	49.2644	27.832	52.8812	27.832	50.3051	27.832	54.1814	27.832	51.6095	27.832	55.3562	27.832	52.9724	27.832	56.3615	27.832	54.2635	27.832	57.177	27.832	55.4157	27.832	57.7927	27.832	56.3978	27.832	58.2043	27.832	57.1948	27.832	58.41	27.832	57.799	27.832	58.4098	27.832	58.2053
29.2969	52.0796	29.2969	52.1616	29.2969	51.853	29.2969	52.0908	29.2969	51.5051	29.2969	51.8685	29.2969	51.0889	29.2969	51.5066	29.2969	50.7082	29.2969	51.0371	29.2969	50.5303	29.2969	50.5314	29.2969	50.7404	29.2969	50.125	29.2969	51.4206	29.2969	50.017	29.2969	52.4743	29.2969	50.3838	29.2969	53.7081	29.2969	51.238	29.2969	54.9509	29.2969	52.4144	29.2969	56.095	29.2969	53.7052	29.2969	57.0836	29.2969	54.9603	29.2969	57.8886	29.2969	56.0963	29.2969	58.4966	29.2969	57.0723	29.2969	58.9014	29.2969	57.8685	29.2969	59.1007	29.2969	58.4748	29.2969	59.0946	29.2969	58.885
30.7617	53.352	30.7617	53.4612	30.7617	53.1047	30.7617	53.4265	30.7617	52.7407	30.7617	53.2522	30.7617	52.3107	30.7617	52.9543	30.7617	51.9162	30.7617	52.5686	30.7617	51.7223	30.7617	52.1662	30.7617	51.9146	30.7617	51.8688	30.7617	52.5785	30.7617	51.8398	30.7617	53.621	30.7617	52.2135	30.7617	54.8491	30.7617	52.9978	30.7617	56.0905	30.7617	54.0655	30.7617	57.2364	30.7617	55.248	30.7617	58.2292	30.7617	56.4125	30.7617	59.0409	30.7617	57.478	30.7617	59.658	30.7617	58.4	30.7617	60.0746	30.7617	59.1546	30.7617	60.2885	30.7617	59.7282	30.7617	60.3002	30.7617	60.1121
32.2266	55.6157	32.2266	55.698	32.2266	55.4217	32.2266	55.6604	32.2266	55.1362	32.2266	55.5035	32.2266	54.7992	32.2266	55.2372	32.2266	54.4817	32.2266	54.885	32.2266	54.291	32.2266	54.4941	32.2266	54.3516	32.2266	54.1469	32.2266	54.7476	32.2266	53.9635	32.2266	55.4643	32.2266	54.0724	32.2266	56.3955	32.2266	54.5419	32.2266	57.4073	32.2266	55.3286	32.2266	58.3897	32.2266	56.3077	32.2266	59.2697	32.2266	57.3443	32.2266	60.0035	32.2266	58.3368	32.2266	60.5663	32.2266	59.2211	32.2266	60.9443	32.2266	59.9597	32.2266	61.1305	32.2266	60.5307	32.2266	61.1223	32.2266	60.9209
33.6914	56.0823	33.6914	56.1473	33.6914	55.9123	33.6914	56.0981	33.6914	55.6611	33.6914	55.9367	33.6914	55.3757	33.6914	55.6772	33.6914	55.1358	33.6914	55.3514	33.6914	55.0546	33.6914	55.019	33.6914	55.249	33.6914	54.7757	33.6914	55.7778	33.6914	54.7453	33.6914	56.5981	33.6914	55.0338	33.6914	57.593	33.6914	55.6644	33.6914	58.6353	33.6914	56.5592	33.6914	59.6275	33.6914	57.5899	33.6914	60.5064	33.6914	58.6385	33.6914	61.235	33.6914	59.6223	33.6914	61.7921	33.6914	60.4902	33.6914	62.1657	33.6914	61.2118	33.6914	62.3502	33.6914	61.7685	33.6914	62.3439	33.6914	62.1485
35.1562	57.3949	35.1562	57.4782	35.1562	57.2203	35.1562	57.4624	35.1562	56.9768	35.1562	57.3511	35.1562	56.7091	35.1562	57.1597	35.1562	56.4918	35.1562	56.9196	35.1562	56.4288	35.1562	56.6845	35.1562	56.6251	35.1562	56.5343	35.1562	57.133	35.1562	56.5656	35.1562	57.9151	35.1562	56.858	35.1562	58.8663	35.1562	57.431	35.1562	59.869	35.1562	58.2291	35.1562	60.8301	35.1562	59.1539	35.1562	61.6874	35.1562	60.1067	35.1562	62.4031	35.1562	61.0113	35.1562	62.955	35.1562	61.8163	35.1562	63.3305	35.1562	62.4887	35.1562	63.5234	35.1562	63.0073	35.1562	63.532	35.1562	63.3582
36.6211	59.0436	36.6211	59.095	36.6211	58.9242	36.6211	59.0695	36.6211	58.759	36.6211	58.9694	36.6211	58.5875	36.6211	58.8085	36.6211	58.4693	36.6211	58.6151	36.6211	58.4802	36.6211	58.4357	36.6211	58.6919	36.6211	58.336	36.6211	59.1407	36.6211	58.3918	36.6211	59.8048	36.6211	58.6645	36.6211	60.6142	36.6211	59.1714	36.6211	61.4813	36.6211	59.8739	36.6211	62.3281	36.6211	60.6968	36.6211	63.0959	36.6211	61.5576	36.6211	63.7447	36.6211	62.3874	36.6211	64.2488	36.6211	63.1357	36.6211	64.5922	36.6211	63.7677	36.6211	64.766	36.6211	64.2598	36.6211	64.767	36.6211	64.5964
38.0859	60.2776	38.0859	60.3289	38.0859	60.1638	38.0859	60.3092	38.0859	60.0079	38.0859	60.2206	38.0859	59.8462	38.0859	60.0757	38.0859	59.7331	38.0859	59.8998	38.0859	59.7374	38.0859	59.7338	38.0859	59.9253	38.0859	59.6355	38.0859	60.3328	38.0859	59.6721	38.0859	60.945	38.0859	59.901	38.0859	61.7009	38.0859	60.3447	38.0859	62.5202	38.0859	60.9772	38.0859	63.3273	38.0859	61.7353	38.0859	64.0639	38.0859	62.5436	38.0859	64.6886	38.0859	63.3349	38.0859	65.1742	38.0859	64.0569	38.0859	65.5038	38.0859	64.6727	38.0859	65.6679	38.0859	65.1563	38.0859	65.6628	38.0859	65.4902
39.5508	61.6925	39.5508	61.7332	39.5508	61.5991	39.5508	61.7135	39.5508	61.4717	39.5508	61.6347	39.5508	61.3417	39.5508	61.5077	39.5508	61.2552	39.5508	61.3543	39.5508	61.2694	39.5508	61.2098	39.5508	61.4394	39.5508	61.1231	39.5508	61.7978	39.5508	61.1513	39.5508	62.3373	39.5508	61.3453	39.5508	63.0117	39.5508	61.729	39.5508	63.7534	39.5508	62.287	39.5508	64.4945	39.5508	62.9695	39.5508	65.1785	39.5508	63.7109	39.5508	65.7634	39.5508	64.4481	39.5508	66.2204	39.5508	65.1295	39.5508	66.5307	39.5508	65.7163	39.5508	66.6834	39.5508	66.181	39.5508	66.6742	39.5508	66.5045
41.0156	62.8305	41.0156	62.8648	41.0156	62.7501	41.0156	62.8452	41.0156	62.6415	41.0156	62.7731	41.0156	62.5347	41.0156	62.6594	41.0156	62.4724	41.0156	62.5252	41.0156	62.5062	41.0156	62.4043	41.0156	62.6853	41.0156	62.3423	41.0156	63.0379	41.0156	62.3908	41.0156	63.5575	41.0156	62.5947	41.0156	64.2028	41.0156	62.9743	41.0156	64.9128	41.0156	63.5146	41.0156	65.6242	41.0156	64.1705	41.0156	66.2834	41.0156	64.882	41.0156	66.8493	41.0156	65.5904	41.0156	67.2929	41.0156	66.2465	41.0156	67.5952	41.0156	66.8128	41.0156	67.745	41.0156	67.2618	41.0156	67.7376	41.0156	67.5742
42.4805	64.1345	42.4805	64.1468	42.4805	64.088	42.4805	64.1183	42.4805	64.0231	42.4805	64.0511	42.4805	63.9659	42.4805	63.9557	42.4805	63.9521	42.4805	63.8525	42.4805	64.0237	42.4805	63.7718	42.4805	64.2191	42.4805	63.7528	42.4805	64.5602	42.4805	63.8377	42.4805	65.0417	42.4805	64.0611	42.4805	65.6314	42.4805	64.4366	42.4805	66.2793	42.4805	64.95	42.4805	66.9317	42.4805	65.5629	42.4805	67.54	42.4805	66.2247	42.4805	68.0656	42.4805	66.884	42.4805	68.4799	42.4805	67.4965	42.4805	68.7634	42.4805	68.0269	42.4805	68.9041	42.4805	68.4488	42.4805	68.897	42.4805	68.743
43.9453	65.5	43.9453	65.5223	43.9453	65.4484	43.9453	65.5096	43.9453	65.3814	43.9453	65.4638	43.9453	65.3215	43.9453	65.3942	43.9453	65.3004	43.9453	65.3181	43.9453	65.3549	43.9453	65.2611	43.9453	65.5199	43.9453	65.2555	43.9453	65.8172	43.9453	65.3365	43.9453	66.2457	43.9453	65.5335	43.9453	66.7796	43.9453	65.8603	43.9453	67.3756	43.9453	66.3087	43.9453	67.9839	43.9453	66.8495	43.9453	68.5579	43.9453	67.4405	43.9453	69.0589	43.9453	68.0362	43.9453	69.4579	43.9453	68.5949	43.9453	69.7344	43.9453	69.0819	43.9453	69.876	43.9453	69.4702	43.9453	69.8775	43.9453	69.7398
45.4102	66.6759	45.4102	66.6908	45.4102	66.6386	45.4102	66.6776	45.4102	66.592	45.4102	66.6379	45.4102	66.5565	45.4102	66.5797	45.4102	66.5597	45.4102	66.5185	45.4102	66.6331	45.4102	66.477	45.4102	66.8054	45.4102	66.4838	45.4102	67.0944	45.4102	66.5692	45.4102	67.4985	45.4102	66.759	45.4102	67.9961	45.4102	67.0655	45.4102	68.5496	45.4102	67.4826	45.4102	69.1151	45.4102	67.9857	45.4102	69.6499	45.4102	68.5379	45.4102	70.1176	45.4102	69.0982	45.4102	70.4896	45.4102	69.6275	45.4102	70.7457	45.4102	70.0925	45.4102	70.8736	45.4102	70.4665	45.4102	70.8677	45.4102	70.7295
46.875	67.9455	46.875	67.9525	46.875	67.9297	46.875	67.9455	46.875	67.9157	46.875	67.9246	46.875	67.9191	46.875	67.895	46.875	67.9604	46.875	67.8678	46.875	68.0621	46.875	67.859	46.875	68.2442	46.875	67.8895	46.875	68.519	46.875	67.9819	46.875	68.8854	46.875	68.1563	46.875	69.3271	46.875	68.4242	46.875	69.8156	46.875	68.7841	46.875	70.3152	46.875	69.22	46.875	70.7894	46.875	69.7044	46.875	71.2052	46.875	70.2038	46.875	71.5356	46.875	70.6834	46.875	71.7606	46.875	71.1116	46.875	71.8677	46.875	71.4619	46.875	71.8514	46.875	71.7134
48.3398	69.2126	48.3398	69.216	48.3398	69.1889	48.3398	69.1947	48.3398	69.1549	48.3398	69.1499	48.3398	69.1265	48.3398	69.0882	48.3398	69.125	48.3398	69.0222	48.3398	69.1749	48.3398	68.97	48.3398	69.3001	48.3398	68.9545	48.3398	69.5175	48.3398	69.0008	48.3398	69.831	48.3398	69.1317	48.3398	70.2282	48.3398	69.361	48.3398	70.6823	48.3398	69.6887	48.3398	71.1576	48.3398	70.0996	48.3398	71.6159	48.3398	70.5653	48.3398	72.0223	48.3398	71.0509	48.3398	72.3481	48.3398	71.5204	48.3398	72.5718	48.3398	71.9411	48.3398	72.6799	48.3398	72.2854	48.3398	72.6662	48.3398	72.532
51.2695	71.4077	51.2695	71.4054	51.2695	71.3995	51.2695	71.3891	51.2695	71.3885	51.2695	71.3599	51.2695	71.3872	51.2695	71.3231	51.2695	71.4114	51.2695	71.2882	51.2695	71.4796	51.2695	71.269	51.2695	71.6091	51.2695	71.2824	51.2695	71.8122	51.2695	71.3466	51.2695	72.0917	51.2695	71.4778	51.2695	72.4388	51.2695	71.6863	51.2695	72.833	51.2695	71.9728	51.2695	73.246	51.2695	72.3266	51.2695	73.6464	51.2695	72.7271	51.2695	74.0035	51.2695	73.1469	51.2695	74.2913	51.2695	73.5561	51.2695	74.4895	51.2695	73.9259	51.2695	74.585	51.2695	74.231	51.2695	74.5718	51.2695	74.4511
52.7344	72.5386	52.7344	72.5373	52.7344	72.5327	52.7344	72.5252	52.7344	72.527	52.7344	72.5028	52.7344	72.5325	52.7344	72.4743	52.7344	72.5633	52.7344	72.4475	52.7344	72.6349	52.7344	72.4343	52.7344	72.7621	52.7344	72.4494	52.7344	72.955	52.7344	72.509	52.7344	73.2161	52.7344	72.6281	52.7344	73.5376	52.7344	72.8166	52.7344	73.9019	52.7344	73.0767	52.7344	74.284	52.7344	73.4001	52.7344	74.6554	52.7344	73.7693	52.7344	74.9875	52.7344	74.1597	52.7344	75.2555	52.7344	74.5433	52.7344	75.4396	52.7344	74.8927	52.7344	75.5269	52.7344	75.183	52.7344	75.5114	52.7344	75.394
54.1992	73.5872	54.1992	73.5783	54.1992	73.591	54.1992	73.5613	54.1992	73.596	54.1992	73.5366	54.1992	73.6118	54.1992	73.5083	54.1992	73.6505	54.1992	73.4839	54.1992	73.7252	54.1992	73.4743	54.1992	73.8487	54.1992	73.493	54.1992	74.03	54.1992	73.5546	54.1992	74.2718	54.1992	73.6723	54.1992	74.5682	54.1992	73.8548	54.1992	74.9044	54.1992	74.1036	54.1992	75.2584	54.1992	74.411	54.1992	75.6043	54.1992	74.761	54.1992	75.9154	54.1992	75.1306	54.1992	76.1678	54.1992	75.4941	54.1992	76.3421	54.1992	75.8252	54.1992	76.4254	54.1992	76.1004	54.1992	76.4112	54.1992	76.3004
55.6641	74.525	55.6641	74.5125	55.6641	74.5351	55.6641	74.4952	55.6641	74.5484	55.6641	74.4737	55.6641	74.5728	55.6641	74.4518	55.6641	74.6187	55.6641	74.4365	55.6641	74.6979	55.6641	74.4373	55.6641	74.8213	55.6641	74.4662	55.6641	74.9969	55.6641	74.5358	55.6641	75.2275	55.6641	74.6575	55.6641	75.5079	55.6641	74.8385	55.6641	75.8251	55.6641	75.0796	55.6641	76.1593	55.6641	75.3738	55.6641	76.4867	55.6641	75.7062	55.6641	76.7823	55.6641	76.0561	55.6641	77.0232	55.6641	76.3994	55.6641	77.1909	55.6641	76.7118	55.6641	77.2725	55.6641	76.9711	55.6641	77.2616	55.6641	77.1588
58.5938	76.2624	58.5938	76.2437	58.5938	76.284	58.5938	76.2266	58.5938	76.3119	58.5938	76.2118	58.5938	76.3516	58.5938	76.2025	58.5938	76.4103	58.5938	76.2036	58.5938	76.4958	58.5938	76.2219	58.5938	76.6159	58.5938	76.2655	58.5938	76.7761	58.5938	76.3428	58.5938	76.9785	58.5938	76.4611	58.5938	77.2195	58.5938	76.6251	58.5938	77.4896	58.5938	76.8355	58.5938	77.7736	58.5938	77.0872	58.5938	78.0521	58.5938	77.3694	58.5938	78.3043	58.5938	77.6665	58.5938	78.5102	58.5938	77.9594	58.5938	78.653	58.5938	78.2279	58.5938	78.7212	58.5938	78.4527	58.5938	78.709	58.5938	78.6172
60.0586	77.0798	60.0586	77.0617	60.0586	77.1013	60.0586	77.0458	60.0586	77.1294	60.0586	77.0327	60.0586	77.1691	60.0586	77.0253	60.0586	77.2269	60.0586	77.0281	60.0586	77.3101	60.0586	77.0471	60.0586	77.4256	60.0586	77.0898	60.0586	77.5786	60.0586	77.1639	60.0586	77.7708	60.0586	77.2762	60.0586	77.9992	60.0586	77.4313	60.0586	78.2549	60.0586	77.6298	60.0586	78.5239	60.0586	77.8675	60.0586	78.7881	60.0586	78.1345	60.0586	79.0278	60.0586	78.4163	60.0586	79.2238	60.0586	78.695	60.0586	79.3598	60.0586	78.9513	60.0586	79.4246	60.0586	79.1664	60.0586	79.4125	60.0586	79.3242
62.9883	78.4236	62.9883	78.4023	62.9883	78.4523	62.9883	78.3879	62.9883	78.4903	62.9883	78.3814	62.9883	78.541	62.9883	78.3852	62.9883	78.6086	62.9883	78.4025	62.9883	78.6983	62.9883	78.4378	62.9883	78.8146	62.9883	78.4959	62.9883	78.961	62.9883	78.5817	62.9883	79.1385	62.9883	78.6993	62.9883	79.3444	62.9883	78.8511	62.9883	79.5719	62.9883	79.0366	62.9883	79.8097	62.9883	79.252	62.9883	80.0429	62.9883	79.4893	62.9883	80.255	62.9883	79.737	62.9883	80.4292	62.9883	79.9805	62.9883	80.5512	62.9883	80.2037	62.9883	80.6108	62.9883	80.3907	62.9883	80.6026	62.9883	80.5272
64.4531	78.9207	64.4531	78.9005	64.4531	78.951	64.4531	78.89	64.4531	78.9929	64.4531	78.8897	64.4531	79.049	64.4531	78.9015	64.4531	79.1225	64.4531	78.9275	64.4531	79.2172	64.4531	78.9711	64.4531	79.3363	64.4531	79.0357	64.4531	79.4824	64.4531	79.1248	64.4531	79.6554	64.4531	79.2417	64.4531	79.8526	64.4531	79.3879	64.4531	80.0677	64.4531	79.5632	64.4531	80.2904	64.4531	79.7643	64.4531	80.5076	64.4531	79.9846	64.4531	80.7042	64.4531	80.2139	64.4531	80.865	64.4531	80.4396	64.4531	80.977	64.4531	80.647	64.4531	81.0307	64.4531	80.8214	64.4531	81.0213	64.4531	80.9496
67.3828	79.7214	67.3828	79.6947	67.3828	79.7606	67.3828	79.6806	67.3828	79.8129	67.3828	79.6796	67.3828	79.8789	67.3828	79.6925	67.3828	79.9598	67.3828	79.7206	67.3828	80.057	67.3828	79.7656	67.3828	80.1718	67.3828	79.8294	67.3828	80.3051	67.3828	79.9141	67.3828	80.4567	67.3828	80.0213	67.3828	80.6244	67.3828	80.1519	67.3828	80.8037	67.3828	80.3054	67.3828	80.9873	67.3828	80.4793	67.3828	81.1651	67.3828	80.6685	67.3828	81.3253	67.3828	80.8653	67.3828	81.4555	67.3828	81.0594	67.3828	81.5447	67.3828	81.2388	67.3828	81.5846	67.3828	81.3911	67.3828	81.5711	67.3828	81.5049
