"SPL Horizontal"
"On-Axis"		"10°"		"-10°"		"20°"		"-20°"		"30°"		"-30°"		"40°"		"-40°"		"50°"		"-50°"		"60°"		"-60°"		"70°"		"-70°"		"80°"		"-80°"		"90°"		"-90°"		"100°"		"-100°"		"110°"		"-110°"		"120°"		"-120°"		"130°"		"-130°"		"140°"		"-140°"		"150°"		"-150°"		"160°"		"-160°"		"170°"		"-170°"		"180°"
"Frequency [Hz]"	"Sound Pessure Level [dB]  / [2.83V 1m] "	"Frequency [Hz]"	"Sound Pessure Level [dB]  / [2.83V 1m] "	"Frequency [Hz]"	"Sound Pessure Level [dB]  / [2.83V 1m] "	"Frequency [Hz]"	"Sound Pessure Level [dB]  / [2.83V 1m] "	"Frequency [Hz]"	"Sound Pessure Level [dB]  / [2.83V 1m] "	"Frequency [Hz]"	"Sound Pessure Level [dB]  / [2.83V 1m] "	"Frequency [Hz]"	"Sound Pessure Level [dB]  / [2.83V 1m] "	"Frequency [Hz]"	"Sound Pessure Level [dB]  / [2.83V 1m] "	"Frequency [Hz]"	"Sound Pessure Level [dB]  / [2.83V 1m] "	"Frequency [Hz]"	"Sound Pessure Level [dB]  / [2.83V 1m] "	"Frequency [Hz]"	"Sound Pessure Level [dB]  / [2.83V 1m] "	"Frequency [Hz]"	"Sound Pessure Level [dB]  / [2.83V 1m] "	"Frequency [Hz]"	"Sound Pessure Level [dB]  / [2.83V 1m] "	"Frequency [Hz]"	"Sound Pessure Level [dB]  / [2.83V 1m] "	"Frequency [Hz]"	"Sound Pessure Level [dB]  / [2.83V 1m] "	"Frequency [Hz]"	"Sound Pessure Level [dB]  / [2.83V 1m] "	"Frequency [Hz]"	"Sound Pessure Level [dB]  / [2.83V 1m] "	"Frequency [Hz]"	"Sound Pessure Level [dB]  / [2.83V 1m] "	"Frequency [Hz]"	"Sound Pessure Level [dB]  / [2.83V 1m] "	"Frequency [Hz]"	"Sound Pessure Level [dB]  / [2.83V 1m] "	"Frequency [Hz]"	"Sound Pessure Level [dB]  / [2.83V 1m] "	"Frequency [Hz]"	"Sound Pessure Level [dB]  / [2.83V 1m] "	"Frequency [Hz]"	"Sound Pessure Level [dB]  / [2.83V 1m] "	"Frequency [Hz]"	"Sound Pessure Level [dB]  / [2.83V 1m] "	"Frequency [Hz]"	"Sound Pessure Level [dB]  / [2.83V 1m] "	"Frequency [Hz]"	"Sound Pessure Level [dB]  / [2.83V 1m] "	"Frequency [Hz]"	"Sound Pessure Level [dB]  / [2.83V 1m] "	"Frequency [Hz]"	"Sound Pessure Level [dB]  / [2.83V 1m] "	"Frequency [Hz]"	"Sound Pessure Level [dB]  / [2.83V 1m] "	"Frequency [Hz]"	"Sound Pessure Level [dB]  / [2.83V 1m] "	"Frequency [Hz]"	"Sound Pessure Level [dB]  / [2.83V 1m] "	"Frequency [Hz]"	"Sound Pessure Level [dB]  / [2.83V 1m] "	"Frequency [Hz]"	"Sound Pessure Level [dB]  / [2.83V 1m] "	"Frequency [Hz]"	"Sound Pessure Level [dB]  / [2.83V 1m] "	"Frequency [Hz]"	"Sound Pessure Level [dB]  / [2.83V 1m] "	"Frequency [Hz]"	"Sound Pessure Level [dB]  / [2.83V 1m] "
20.5078	51.6394	20.5078	51.6236	20.5078	51.5394	20.5078	51.4908	20.5078	51.3196	20.5078	51.2341	20.5078	50.971	20.5078	50.8414	20.5078	50.4807	20.5078	50.2951	20.5078	49.8336	20.5078	49.5742	20.5078	49.0169	20.5078	48.6583	20.5078	48.0298	20.5078	47.5401	20.5078	46.9083	20.5078	46.2603	20.5078	45.7767	20.5078	44.9895	20.5078	44.91	20.5078	44.1271	20.5078	44.6661	20.5078	44.1335	20.5078	45.1583	20.5078	44.9804	20.5078	46.1027	20.5078	46.1749	20.5078	47.1293	20.5078	47.3061	20.5078	48.0102	20.5078	48.1908	20.5078	48.6443	20.5078	48.7715	20.5078	48.9921	20.5078	49.0374
21.9727	49.2211	21.9727	49.122	21.9727	49.1441	21.9727	48.8418	21.9727	48.8843	21.9727	48.3636	21.9727	48.4222	21.9727	47.6566	21.9727	47.7226	21.9727	46.6713	21.9727	46.7277	21.9727	45.3317	21.9727	45.3445	21.9727	43.5279	21.9727	43.4214	21.9727	41.1454	21.9727	40.7206	21.9727	38.4189	21.9727	37.1294	21.9727	37.3973	21.9727	35.1982	21.9727	39.7296	21.9727	38.4602	21.9727	42.7282	21.9727	42.1313	21.9727	45.1522	21.9727	44.8364	21.9727	46.9659	21.9727	46.7809	21.9727	48.2747	21.9727	48.1613	21.9727	49.1588	21.9727	49.0917	21.9727	49.6666	21.9727	49.6351	21.9727	49.8232
23.4375	47.9426	23.4375	47.8561	23.4375	47.8209	23.4375	47.5765	23.4375	47.4793	23.4375	47.1313	23.4375	46.9127	23.4375	46.5834	23.4375	46.1429	23.4375	46.0733	23.4375	45.2764	23.4375	45.8524	23.4375	44.6154	23.4375	46.2007	23.4375	44.6726	23.4375	47.1868	23.4375	45.7221	23.4375	48.5894	23.4375	47.4158	23.4375	50.1181	23.4375	49.2514	23.4375	51.581	23.4375	50.9554	23.4375	52.8864	23.4375	52.4348	23.4375	53.9985	23.4375	53.6714	23.4375	54.9053	23.4375	54.6703	23.4375	55.6044	23.4375	55.4412	23.4375	56.0962	23.4375	55.9927	23.4375	56.3812	23.4375	56.3309	23.4375	56.4597
24.9023	49.7424	24.9023	49.7146	24.9023	49.5306	24.9023	49.4463	24.9023	49.0716	24.9023	48.9296	24.9023	48.353	24.9023	48.1598	24.9023	47.3738	24.9023	47.1673	24.9023	46.2007	24.9023	46.1073	24.9023	45.1169	24.9023	45.4214	24.9023	44.7836	24.9023	45.7502	24.9023	45.7442	24.9023	47.1707	24.9023	47.59	24.9023	49.0716	24.9023	49.6081	24.9023	50.9462	24.9023	51.4499	24.9023	52.5968	24.9023	53.0215	24.9023	53.9772	24.9023	54.3165	24.9023	55.0893	24.9023	55.3485	24.9023	55.9452	24.9023	56.132	24.9023	56.5565	24.9023	56.6772	24.9023	56.9315	24.9023	56.9907	24.9023	57.0754
26.3672	51.3294	26.3672	51.2713	26.3672	51.2717	26.3672	51.1074	26.3672	51.1068	26.3672	50.8712	26.3672	50.8667	26.3672	50.6311	26.3672	50.6173	26.3672	50.5009	26.3672	50.4703	26.3672	50.6257	26.3672	50.5708	26.3672	51.1175	26.3672	51.0353	26.3672	51.9753	26.3672	51.87	26.3672	53.0839	26.3672	52.9645	26.3672	54.2931	26.3672	54.1685	26.3672	55.4824	26.3672	55.3599	26.3672	56.5764	26.3672	56.4614	26.3672	57.533	26.3672	57.4301	26.3672	58.3298	26.3672	58.2427	26.3672	58.955	26.3672	58.8867	26.3672	59.4016	26.3672	59.3547	26.3672	59.6659	26.3672	59.642	26.3672	59.7462
27.832	56.1928	27.832	56.1365	27.832	56.1559	27.832	55.9905	27.832	56.0283	27.832	55.7648	27.832	55.8188	27.832	55.48	27.832	55.5459	27.832	55.1726	27.832	55.2425	27.832	54.9013	27.832	54.9629	27.832	54.7471	27.832	54.7841	27.832	54.7974	27.832	54.7936	27.832	55.1086	27.832	55.0558	27.832	55.671	27.832	55.5736	27.832	56.4108	27.832	56.2833	27.832	57.2266	27.832	57.0866	27.832	58.0261	27.832	57.889	27.832	58.741	27.832	58.6188	27.832	59.3264	27.832	59.2278	27.832	59.7546	27.832	59.6856	27.832	60.0095	27.832	59.9741	27.832	60.0833
29.2969	56.8029	29.2969	56.731	29.2969	56.7599	29.2969	56.5474	29.2969	56.6032	29.2969	56.2619	29.2969	56.3396	29.2969	55.896	29.2969	55.9863	29.2969	55.4933	29.2969	55.5793	29.2969	55.1315	29.2969	55.1859	29.2969	54.927	29.2969	54.9138	29.2969	55.0065	29.2969	54.8947	29.2969	55.4391	29.2969	55.2239	29.2969	56.1826	29.2969	55.8928	29.2969	57.1106	29.2969	56.7906	29.2969	58.0855	29.2969	57.7743	29.2969	59.0036	29.2969	58.7269	29.2969	59.8	29.2969	59.5718	29.2969	60.4376	29.2969	60.2645	29.2969	60.8957	29.2969	60.7801	29.2969	61.163	29.2969	61.1052	29.2969	61.2334
30.7617	57.0089	30.7617	56.9649	30.7617	56.9543	30.7617	56.8303	30.7617	56.8032	30.7617	56.6255	30.7617	56.5688	30.7617	56.3891	30.7617	56.2806	30.7617	56.1844	30.7617	55.9918	30.7617	56.0996	30.7617	55.7862	30.7617	56.2296	30.7617	55.7702	30.7617	56.6344	30.7617	56.0369	30.7617	57.3014	30.7617	56.6126	30.7617	58.1511	30.7617	57.4363	30.7617	59.0791	30.7617	58.3959	30.7617	59.9935	30.7617	59.3804	30.7617	60.8286	30.7617	60.3066	30.7617	61.5414	30.7617	61.1205	30.7617	62.1051	30.7617	61.7889	30.7617	62.5029	30.7617	62.2923	30.7617	62.7245	30.7617	62.6193	30.7617	62.7639
32.2266	57.3073	32.2266	57.2703	32.2266	57.2789	32.2266	57.174	32.2266	57.192	32.2266	57.0401	32.2266	57.0675	32.2266	56.9087	32.2266	56.9422	32.2266	56.841	32.2266	56.8706	32.2266	56.9118	32.2266	56.9208	32.2266	57.1878	32.2266	57.1578	32.2266	57.6966	32.2266	57.6173	32.2266	58.4095	32.2266	58.2845	32.2266	59.2553	32.2266	59.0999	32.2266	60.151	32.2266	59.9841	32.2266	61.0249	32.2266	60.8631	32.2266	61.8239	32.2266	61.6788	32.2266	62.5116	32.2266	62.3905	32.2266	63.0635	32.2266	62.9705	32.2266	63.4634	32.2266	63.4007	32.2266	63.701	32.2266	63.6694	32.2266	63.7703
33.6914	60.1386	33.6914	60.0903	33.6914	60.1454	33.6914	60.0077	33.6914	60.1128	33.6914	59.9088	33.6914	60.0525	33.6914	59.8233	33.6914	59.986	33.6914	59.7919	33.6914	59.9456	33.6914	59.8621	33.6914	59.9721	33.6914	60.0756	33.6914	60.1088	33.6914	60.4539	33.6914	60.3893	33.6914	60.9866	33.6914	60.8242	33.6914	61.6344	33.6914	61.394	33.6914	62.342	33.6914	62.0549	33.6914	63.0531	33.6914	62.7522	33.6914	63.7189	33.6914	63.4326	33.6914	64.3014	33.6914	64.0511	33.6914	64.7721	33.6914	64.5732	33.6914	65.111	33.6914	64.9734	33.6914	65.3049	33.6914	65.2347	33.6914	65.3467
35.1562	62.3249	35.1562	62.2833	35.1562	62.3234	35.1562	62.2065	35.1562	62.278	35.1562	62.1102	35.1562	62.1954	35.1562	62.0187	35.1562	62.0909	35.1562	61.9645	35.1562	61.9896	35.1562	61.9857	35.1562	61.9268	35.1562	62.1184	35.1562	61.9453	35.1562	62.3861	35.1562	62.0864	35.1562	62.7895	35.1562	62.376	35.1562	63.3045	35.1562	62.8126	35.1562	63.8892	35.1562	63.3652	35.1562	64.4946	35.1562	63.9835	35.1562	65.0743	35.1562	64.6116	35.1562	65.5887	35.1562	65.199	35.1562	66.007	35.1562	65.7056	35.1562	66.3064	35.1562	66.1018	35.1562	66.4712	35.1562	66.368	35.1562	66.4925
36.6211	63.2404	36.6211	63.2534	36.6211	63.1912	36.6211	63.235	36.6211	63.1085	36.6211	63.1968	36.6211	63.0022	36.6211	63.1578	36.6211	62.8907	36.6211	63.1444	36.6211	62.8014	36.6211	63.1876	36.6211	62.7703	36.6211	63.3182	36.6211	62.8369	36.6211	63.5585	36.6211	63.0346	36.6211	63.9147	36.6211	63.3781	36.6211	64.3726	36.6211	63.8554	36.6211	64.9008	36.6211	64.4301	36.6211	65.4584	36.6211	65.0515	36.6211	66.0029	36.6211	65.6678	36.6211	66.4958	36.6211	66.2337	36.6211	66.9053	36.6211	66.7134	36.6211	67.2067	36.6211	67.0814	36.6211	67.3825	36.6211	67.3207	36.6211	67.4219
38.0859	64.3764	38.0859	64.3651	38.0859	64.3559	38.0859	64.3264	38.0859	64.3057	38.0859	64.2718	38.0859	64.2345	38.0859	64.2199	38.0859	64.1586	38.0859	64.1964	38.0859	64.1016	38.0859	64.2315	38.0859	64.0942	38.0859	64.3555	38.0859	64.1694	38.0859	64.5898	38.0859	64.3553	38.0859	64.9397	38.0859	64.6652	38.0859	65.39	38.0859	65.0911	38.0859	65.9089	38.0859	65.6044	38.0859	66.4552	38.0859	66.1634	38.0859	66.9866	38.0859	66.7231	38.0859	67.4656	38.0859	67.2423	38.0859	67.8613	38.0859	67.687	38.0859	68.1508	38.0859	68.0314	38.0859	68.3182	38.0859	68.2576	38.0859	68.3546
39.5508	65.7579	39.5508	65.731	39.5508	65.7562	39.5508	65.6791	39.5508	65.7281	39.5508	65.6121	39.5508	65.6815	39.5508	65.5465	39.5508	65.6305	39.5508	65.5052	39.5508	65.5953	39.5508	65.516	39.5508	65.6009	39.5508	65.607	39.5508	65.6742	39.5508	65.8002	39.5508	65.8379	39.5508	66.1034	39.5508	66.1041	39.5508	66.506	39.5508	66.4686	39.5508	66.9804	39.5508	66.9105	39.5508	67.4889	39.5508	67.3967	39.5508	67.9909	39.5508	67.889	39.5508	68.449	39.5508	68.3501	39.5508	68.8323	39.5508	68.7476	39.5508	69.117	39.5508	69.0555	39.5508	69.2872	39.5508	69.2548	39.5508	69.3337
41.0156	67.3665	41.0156	67.3505	41.0156	67.3664	41.0156	67.3225	41.0156	67.3508	41.0156	67.2917	41.0156	67.3252	41.0156	67.2722	41.0156	67.2997	41.0156	67.2823	41.0156	67.2893	41.0156	67.3424	41.0156	67.3128	41.0156	67.4715	41.0156	67.3905	41.0156	67.6828	41.0156	67.5409	41.0156	67.9784	41.0156	67.7751	41.0156	68.3479	41.0156	68.093	41.0156	68.7693	41.0156	68.4812	41.0156	69.2131	41.0156	68.9148	41.0156	69.6473	41.0156	69.3621	41.0156	70.041	41.0156	69.7894	41.0156	70.3674	41.0156	70.1657	41.0156	70.6053	41.0156	70.4648	41.0156	70.7392	41.0156	70.6672	41.0156	70.7604
42.4805	68.6024	42.4805	68.6124	42.4805	68.5696	42.4805	68.603	42.4805	68.5145	42.4805	68.5818	42.4805	68.4423	42.4805	68.5604	42.4805	68.3627	42.4805	68.5538	42.4805	68.2904	42.4805	68.579	42.4805	68.2447	42.4805	68.6533	42.4805	68.248	42.4805	68.7905	42.4805	68.322	42.4805	68.9975	42.4805	68.4828	42.4805	69.2714	42.4805	68.7349	42.4805	69.5988	42.4805	69.0684	42.4805	69.9572	42.4805	69.4597	42.4805	70.3186	42.4805	69.8765	42.4805	70.6536	42.4805	70.2838	42.4805	70.9345	42.4805	70.6488	42.4805	71.1382	42.4805	70.944	42.4805	71.2475	42.4805	71.1494	42.4805	71.2521
43.9453	69.5687	43.9453	69.5714	43.9453	69.5474	43.9453	69.558	43.9453	69.509	43.9453	69.535	43.9453	69.4587	43.9453	69.5126	43.9453	69.4064	43.9453	69.5046	43.9453	69.3656	43.9453	69.5275	43.9453	69.3538	43.9453	69.5985	43.9453	69.3902	43.9453	69.7325	43.9453	69.4926	43.9453	69.9378	43.9453	69.673	43.9453	70.2129	43.9453	69.9334	43.9453	70.5448	43.9453	70.2632	43.9453	70.9107	43.9453	70.6408	43.9453	71.2821	43.9453	71.0368	43.9453	71.6289	43.9453	71.4194	43.9453	71.9231	43.9453	71.7584	43.9453	72.1417	43.9453	72.0284	43.9453	72.2678	43.9453	72.2101	43.9453	72.2915
45.4102	70.7603	45.4102	70.7692	45.4102	70.7342	45.4102	70.7627	45.4102	70.6927	45.4102	70.7467	45.4102	70.6412	45.4102	70.7303	45.4102	70.5891	45.4102	70.7263	45.4102	70.5494	45.4102	70.7504	45.4102	70.5382	45.4102	70.8188	45.4102	70.5732	45.4102	70.9461	45.4102	70.6708	45.4102	71.1404	45.4102	70.8421	45.4102	71.401	45.4102	71.089	45.4102	71.7158	45.4102	71.4024	45.4102	72.0634	45.4102	71.7622	45.4102	72.4164	45.4102	72.1414	45.4102	72.7458	45.4102	72.5096	45.4102	73.0244	45.4102	72.8378	45.4102	73.2301	45.4102	73.1012	45.4102	73.3464	45.4102	73.2806	45.4102	73.364
46.875	71.8185	46.875	71.8432	46.875	71.7802	46.875	71.8551	46.875	71.7306	46.875	71.8587	46.875	71.6755	46.875	71.8618	46.875	71.6239	46.875	71.8751	46.875	71.5882	46.875	71.9119	46.875	71.5831	46.875	71.9868	46.875	71.6245	46.875	72.1123	46.875	71.7267	46.875	72.2962	46.875	71.8991	46.875	72.5385	46.875	72.1429	46.875	72.8291	46.875	72.4487	46.875	73.1497	46.875	72.7977	46.875	73.4757	46.875	73.164	46.875	73.7805	46.875	73.5192	46.875	74.0388	46.875	73.8359	46.875	74.229	46.875	74.0905	46.875	74.3352	46.875	74.265	46.875	74.3481
48.3398	72.6519	48.3398	72.6573	48.3398	72.6404	48.3398	72.6571	48.3398	72.625	48.3398	72.6553	48.3398	72.6109	48.3398	72.6588	48.3398	72.6059	48.3398	72.6775	48.3398	72.6199	48.3398	72.7234	48.3398	72.6646	48.3398	72.8094	48.3398	72.7516	48.3398	72.9463	48.3398	72.8906	48.3398	73.1403	48.3398	73.0865	48.3398	73.3905	48.3398	73.3378	48.3398	73.6871	48.3398	73.6347	48.3398	74.0123	48.3398	73.9604	48.3398	74.3433	48.3398	74.2931	48.3398	74.655	48.3398	74.6089	48.3398	74.9234	48.3398	74.8845	48.3398	75.128	48.3398	75.0998	48.3398	75.2538	48.3398	75.2389	48.3398	75.2916
51.2695	74.7458	51.2695	74.7172	51.2695	74.7708	51.2695	74.6876	51.2695	74.7918	51.2695	74.6627	51.2695	74.8113	51.2695	74.6502	51.2695	74.8339	51.2695	74.6598	51.2695	74.8661	51.2695	74.7019	51.2695	74.9153	51.2695	74.786	51.2695	74.9894	51.2695	74.919	51.2695	75.0954	51.2695	75.103	51.2695	75.2382	51.2695	75.334	51.2695	75.4192	51.2695	75.6018	51.2695	75.6351	51.2695	75.8902	51.2695	75.8774	51.2695	76.1795	51.2695	76.1327	51.2695	76.4486	51.2695	76.3834	51.2695	76.6772	51.2695	76.6104	51.2695	76.8481	51.2695	76.7944	51.2695	76.9488	51.2695	76.9191	51.2695	76.9726
52.7344	75.7625	52.7344	75.7672	52.7344	75.7537	52.7344	75.7699	52.7344	75.7411	52.7344	75.7746	52.7344	75.7273	52.7344	75.7874	52.7344	75.717	52.7344	75.8157	52.7344	75.7171	52.7344	75.8673	52.7344	75.7357	52.7344	75.9499	52.7344	75.7817	52.7344	76.069	52.7344	75.8636	52.7344	76.2271	52.7344	75.9878	52.7344	76.4224	52.7344	76.1569	52.7344	76.6478	52.7344	76.3677	52.7344	76.891	52.7344	76.6113	52.7344	77.136	52.7344	76.8727	52.7344	77.3643	52.7344	77.1328	52.7344	77.5572	52.7344	77.3712	52.7344	77.6981	52.7344	77.5681	52.7344	77.7741	52.7344	77.7073	52.7344	77.7777
54.1992	76.6438	54.1992	76.6578	54.1992	76.6252	54.1992	76.668	54.1992	76.6031	54.1992	76.6776	54.1992	76.5806	54.1992	76.6913	54.1992	76.5628	54.1992	76.7153	54.1992	76.5566	54.1992	76.7568	54.1992	76.57	54.1992	76.8227	54.1992	76.6115	54.1992	76.9194	54.1992	76.6885	54.1992	77.0505	54.1992	76.8064	54.1992	77.2159	54.1992	76.9666	54.1992	77.4109	54.1992	77.1653	54.1992	77.6256	54.1992	77.393	54.1992	77.8458	54.1992	77.6356	54.1992	78.0546	54.1992	77.8752	54.1992	78.2342	54.1992	78.0929	54.1992	78.3683	54.1992	78.2708	54.1992	78.444	54.1992	78.3942	54.1992	78.4533
55.6641	77.2835	55.6641	77.2906	55.6641	77.2762	55.6641	77.2981	55.6641	77.2696	55.6641	77.3086	55.6641	77.2668	55.6641	77.3264	55.6641	77.2722	55.6641	77.357	55.6641	77.2916	55.6641	77.4067	55.6641	77.3314	55.6641	77.4816	55.6641	77.3979	55.6641	77.587	55.6641	77.4963	55.6641	77.7256	55.6641	77.6296	55.6641	77.8969	55.6641	77.7975	55.6641	78.096	55.6641	77.9957	55.6641	78.3132	55.6641	78.2152	55.6641	78.5352	55.6641	78.4434	55.6641	78.7459	55.6641	78.6648	55.6641	78.9285	55.6641	78.8627	55.6641	79.0678	55.6641	79.0213	55.6641	79.1515	55.6641	79.1274	55.6641	79.1721
58.5938	78.7659	58.5938	78.7668	58.5938	78.7664	58.5938	78.7699	58.5938	78.7687	58.5938	78.7774	58.5938	78.7745	58.5938	78.7924	58.5938	78.7866	58.5938	78.8191	58.5938	78.809	58.5938	78.8617	58.5938	78.8462	58.5938	78.9247	58.5938	78.9026	58.5938	79.0118	58.5938	78.9823	58.5938	79.1251	58.5938	79.0881	58.5938	79.2644	58.5938	79.2205	58.5938	79.4266	58.5938	79.3769	58.5938	79.6045	58.5938	79.5513	58.5938	79.7878	58.5938	79.7342	58.5938	79.9634	58.5938	79.9133	58.5938	80.1172	58.5938	80.0747	58.5938	80.2357	58.5938	80.2047	58.5938	80.3079	58.5938	80.2916	58.5938	80.3272
60.0586	79.3124	60.0586	79.3152	60.0586	79.3132	60.0586	79.3221	60.0586	79.3179	60.0586	79.3349	60.0586	79.3279	60.0586	79.3562	60.0586	79.3457	60.0586	79.3889	60.0586	79.3743	60.0586	79.4368	60.0586	79.4175	60.0586	79.503	60.0586	79.4786	60.0586	79.5906	60.0586	79.5608	60.0586	79.7011	60.0586	79.6661	60.0586	79.8343	60.0586	79.7944	60.0586	79.9873	60.0586	79.9434	60.0586	80.1539	60.0586	80.1075	60.0586	80.3248	60.0586	80.2784	60.0586	80.4883	60.0586	80.445	60.0586	80.6314	60.0586	80.5947	60.0586	80.7419	60.0586	80.7151	60.0586	80.8095	60.0586	80.7954	60.0586	80.8279
62.9883	80.396	62.9883	80.3973	62.9883	80.4003	62.9883	80.4047	62.9883	80.4104	62.9883	80.419	62.9883	80.4272	62.9883	80.442	62.9883	80.4521	62.9883	80.4755	62.9883	80.487	62.9883	80.5218	62.9883	80.5339	62.9883	80.583	62.9883	80.5949	62.9883	80.6611	62.9883	80.6716	62.9883	80.7572	62.9883	80.7651	62.9883	80.8711	62.9883	80.8751	62.9883	81.0005	62.9883	80.9998	62.9883	81.1409	62.9883	81.1351	62.9883	81.2849	62.9883	81.2748	62.9883	81.4232	62.9883	81.4104	62.9883	81.545	62.9883	81.532	62.9883	81.6399	62.9883	81.6293	62.9883	81.6993	62.9883	81.6933	62.9883	81.7176
64.4531	80.7756	64.4531	80.7779	64.4531	80.7797	64.4531	80.7872	64.4531	80.7907	64.4531	80.804	64.4531	80.809	64.4531	80.8296	64.4531	80.8359	64.4531	80.8655	64.4531	80.8725	64.4531	80.9131	64.4531	80.9206	64.4531	80.9741	64.4531	80.9814	64.4531	81.0498	64.4531	81.0562	64.4531	81.1408	64.4531	81.1455	64.4531	81.2471	64.4531	81.2489	64.4531	81.3665	64.4531	81.3648	64.4531	81.4951	64.4531	81.4894	64.4531	81.6266	64.4531	81.6175	64.4531	81.7526	64.4531	81.7413	64.4531	81.8637	64.4531	81.8523	64.4531	81.9504	64.4531	81.9411	64.4531	82.0047	64.4531	81.9994	64.4531	82.0215
67.3828	81.2331	67.3828	81.2389	67.3828	81.2359	67.3828	81.2533	67.3828	81.2475	67.3828	81.2764	67.3828	81.2681	67.3828	81.3085	67.3828	81.2983	67.3828	81.35	67.3828	81.3386	67.3828	81.4011	67.3828	81.3892	67.3828	81.4624	67.3828	81.4506	67.3828	81.534	67.3828	81.5228	67.3828	81.6162	67.3828	81.6056	67.3828	81.7084	67.3828	81.6981	67.3828	81.8093	67.3828	81.7988	67.3828	81.9161	67.3828	81.9049	67.3828	82.0241	67.3828	82.0123	67.3828	82.1272	67.3828	82.1153	67.3828	82.2179	67.3828	82.2071	67.3828	82.2888	67.3828	82.2804	67.3828	82.3332	67.3828	82.3286	67.3828	82.3469
68.8477	81.384	68.8477	81.3894	68.8477	81.388	68.8477	81.4039	68.8477	81.4013	68.8477	81.4277	68.8477	81.4241	68.8477	81.4607	68.8477	81.4565	68.8477	81.5029	68.8477	81.4986	68.8477	81.5543	68.8477	81.5503	68.8477	81.6149	68.8477	81.6114	68.8477	81.6845	68.8477	81.6817	68.8477	81.7628	68.8477	81.7604	68.8477	81.8494	68.8477	81.8467	68.8477	81.9427	68.8477	81.9391	68.8477	82.0404	68.8477	82.0353	68.8477	82.1384	68.8477	82.1318	68.8477	82.2315	68.8477	82.2239	68.8477	82.3133	68.8477	82.3057	68.8477	82.3771	68.8477	82.3709	68.8477	82.4171	68.8477	82.4137	68.8477	82.4297
