"SPL Vertical"
"On-Axis"		"10°"		"-10°"		"20°"		"-20°"		"30°"		"-30°"		"40°"		"-40°"		"50°"		"-50°"		"60°"		"-60°"		"70°"		"-70°"		"80°"		"-80°"		"90°"		"-90°"		"100°"		"-100°"		"110°"		"-110°"		"120°"		"-120°"		"130°"		"-130°"		"140°"		"-140°"		"150°"		"-150°"		"160°"		"-160°"		"170°"		"-170°"		"180°"
"Frequency / Hz"	"Sound Pressure Level / dB (re 20 µPa/V)  [2.83  V @ 1. m]"	"Frequency / Hz"	"Sound Pressure Level / dB (re 20 µPa/V)  [2.83  V @ 1. m]"	"Frequency / Hz"	"Sound Pressure Level / dB (re 20 µPa/V)  [2.83  V @ 1. m]"	"Frequency / Hz"	"Sound Pressure Level / dB (re 20 µPa/V)  [2.83  V @ 1. m]"	"Frequency / Hz"	"Sound Pressure Level / dB (re 20 µPa/V)  [2.83  V @ 1. m]"	"Frequency / Hz"	"Sound Pressure Level / dB (re 20 µPa/V)  [2.83  V @ 1. m]"	"Frequency / Hz"	"Sound Pressure Level / dB (re 20 µPa/V)  [2.83  V @ 1. m]"	"Frequency / Hz"	"Sound Pressure Level / dB (re 20 µPa/V)  [2.83  V @ 1. m]"	"Frequency / Hz"	"Sound Pressure Level / dB (re 20 µPa/V)  [2.83  V @ 1. m]"	"Frequency / Hz"	"Sound Pressure Level / dB (re 20 µPa/V)  [2.83  V @ 1. m]"	"Frequency / Hz"	"Sound Pressure Level / dB (re 20 µPa/V)  [2.83  V @ 1. m]"	"Frequency / Hz"	"Sound Pressure Level / dB (re 20 µPa/V)  [2.83  V @ 1. m]"	"Frequency / Hz"	"Sound Pressure Level / dB (re 20 µPa/V)  [2.83  V @ 1. m]"	"Frequency / Hz"	"Sound Pressure Level / dB (re 20 µPa/V)  [2.83  V @ 1. m]"	"Frequency / Hz"	"Sound Pressure Level / dB (re 20 µPa/V)  [2.83  V @ 1. m]"	"Frequency / Hz"	"Sound Pressure Level / dB (re 20 µPa/V)  [2.83  V @ 1. m]"	"Frequency / Hz"	"Sound Pressure Level / dB (re 20 µPa/V)  [2.83  V @ 1. m]"	"Frequency / Hz"	"Sound Pressure Level / dB (re 20 µPa/V)  [2.83  V @ 1. m]"	"Frequency / Hz"	"Sound Pressure Level / dB (re 20 µPa/V)  [2.83  V @ 1. m]"	"Frequency / Hz"	"Sound Pressure Level / dB (re 20 µPa/V)  [2.83  V @ 1. m]"	"Frequency / Hz"	"Sound Pressure Level / dB (re 20 µPa/V)  [2.83  V @ 1. m]"	"Frequency / Hz"	"Sound Pressure Level / dB (re 20 µPa/V)  [2.83  V @ 1. m]"	"Frequency / Hz"	"Sound Pressure Level / dB (re 20 µPa/V)  [2.83  V @ 1. m]"	"Frequency / Hz"	"Sound Pressure Level / dB (re 20 µPa/V)  [2.83  V @ 1. m]"	"Frequency / Hz"	"Sound Pressure Level / dB (re 20 µPa/V)  [2.83  V @ 1. m]"	"Frequency / Hz"	"Sound Pressure Level / dB (re 20 µPa/V)  [2.83  V @ 1. m]"	"Frequency / Hz"	"Sound Pressure Level / dB (re 20 µPa/V)  [2.83  V @ 1. m]"	"Frequency / Hz"	"Sound Pressure Level / dB (re 20 µPa/V)  [2.83  V @ 1. m]"	"Frequency / Hz"	"Sound Pressure Level / dB (re 20 µPa/V)  [2.83  V @ 1. m]"	"Frequency / Hz"	"Sound Pressure Level / dB (re 20 µPa/V)  [2.83  V @ 1. m]"	"Frequency / Hz"	"Sound Pressure Level / dB (re 20 µPa/V)  [2.83  V @ 1. m]"	"Frequency / Hz"	"Sound Pressure Level / dB (re 20 µPa/V)  [2.83  V @ 1. m]"	"Frequency / Hz"	"Sound Pressure Level / dB (re 20 µPa/V)  [2.83  V @ 1. m]"	"Frequency / Hz"	"Sound Pressure Level / dB (re 20 µPa/V)  [2.83  V @ 1. m]"	"Frequency / Hz"	"Sound Pressure Level / dB (re 20 µPa/V)  [2.83  V @ 1. m]"	"Frequency / Hz"	"Sound Pressure Level / dB (re 20 µPa/V)  [2.83  V @ 1. m]"
20.5078	43.0555	20.5078	42.7483	20.5078	43.3231	20.5078	42.4095	20.5078	43.5484	20.5078	42.0537	20.5078	43.7315	20.5078	41.704	20.5078	43.8737	20.5078	41.3908	20.5078	43.9765	20.5078	41.1493	20.5078	44.042	20.5078	41.0121	20.5078	44.0733	20.5078	41.0013	20.5078	44.0758	20.5078	41.1211	20.5078	44.0569	20.5078	41.3562	20.5078	44.026	20.5078	41.6764	20.5078	43.9926	20.5078	42.0448	20.5078	43.9639	20.5078	42.4254	20.5078	43.9433	20.5078	42.7879	20.5078	43.9288	20.5078	43.11	20.5078	43.9131	20.5078	43.3777	20.5078	43.8845	20.5078	43.585	20.5078	43.8291	20.5078	43.7332
21.9727	49.8944	21.9727	49.8076	21.9727	49.9908	21.9727	49.7311	21.9727	50.0951	21.9727	49.6651	21.9727	50.2039	21.9727	49.6092	21.9727	50.3128	21.9727	49.5634	21.9727	50.4164	21.9727	49.5276	21.9727	50.509	21.9727	49.5023	21.9727	50.5854	21.9727	49.4881	21.9727	50.6414	21.9727	49.486	21.9727	50.6743	21.9727	49.4968	21.9727	50.6827	21.9727	49.5215	21.9727	50.6667	21.9727	49.5606	21.9727	50.6273	21.9727	49.6144	21.9727	50.5667	21.9727	49.6825	21.9727	50.4879	21.9727	49.764	21.9727	50.3944	21.9727	49.8572	21.9727	50.2904	21.9727	49.9598	21.9727	50.1804	21.9727	50.0688
23.4375	51.3441	23.4375	51.2381	23.4375	51.446	23.4375	51.1293	23.4375	51.5417	23.4375	51.0184	23.4375	51.628	23.4375	50.9058	23.4375	51.7008	23.4375	50.7921	23.4375	51.7556	23.4375	50.6784	23.4375	51.7881	23.4375	50.5662	23.4375	51.7946	23.4375	50.4579	23.4375	51.7724	23.4375	50.3566	23.4375	51.7202	23.4375	50.2659	23.4375	51.6382	23.4375	50.1899	23.4375	51.5278	23.4375	50.1331	23.4375	51.3922	23.4375	50.1	23.4375	51.2359	23.4375	50.0949	23.4375	51.065	23.4375	50.1211	23.4375	50.887	23.4375	50.1804	23.4375	50.7102	23.4375	50.2727	23.4375	50.5435	23.4375	50.3954
24.9023	50.9524	24.9023	50.8324	24.9023	51.0668	24.9023	50.709	24.9023	51.1726	24.9023	50.5839	24.9023	51.266	24.9023	50.4585	24.9023	51.343	24.9023	50.3341	24.9023	51.3991	24.9023	50.2122	24.9023	51.4303	24.9023	50.0946	24.9023	51.4332	24.9023	49.9836	24.9023	51.4056	24.9023	49.8818	24.9023	51.3465	24.9023	49.7924	24.9023	51.2563	24.9023	49.7192	24.9023	51.1372	24.9023	49.6662	24.9023	50.9927	24.9023	49.6375	24.9023	50.8278	24.9023	49.6369	24.9023	50.6489	24.9023	49.6676	24.9023	50.4637	24.9023	49.7314	24.9023	50.2807	24.9023	49.8281	24.9023	50.1085	24.9023	49.9554
26.3672	52.1602	26.3672	52.0629	26.3672	52.2522	26.3672	51.9626	26.3672	52.3363	26.3672	51.8609	26.3672	52.4088	26.3672	51.7591	26.3672	52.4663	26.3672	51.6582	26.3672	52.5048	26.3672	51.5591	26.3672	52.5212	26.3672	51.4631	26.3672	52.5128	26.3672	51.3716	26.3672	52.4781	26.3672	51.2865	26.3672	52.4168	26.3672	51.2099	26.3672	52.33	26.3672	51.1445	26.3672	52.22	26.3672	51.0933	26.3672	52.0908	26.3672	51.0595	26.3672	51.9472	26.3672	51.0466	26.3672	51.7956	26.3672	51.0574	26.3672	51.6428	26.3672	51.0943	26.3672	51.4962	26.3672	51.1583	26.3672	51.3628	26.3672	51.2486
27.832	52.9743	27.832	52.8922	27.832	53.0527	27.832	52.8083	27.832	53.1251	27.832	52.7239	27.832	53.1889	27.832	52.6404	27.832	53.241	27.832	52.5589	27.832	53.2785	27.832	52.4805	27.832	53.2983	27.832	52.4063	27.832	53.2982	27.832	52.3376	27.832	53.2765	27.832	52.2756	27.832	53.2328	27.832	52.2219	27.832	53.1676	27.832	52.1781	27.832	53.0828	27.832	52.1461	27.832	52.9816	27.832	52.1279	27.832	52.868	27.832	52.1255	27.832	52.7472	27.832	52.1411	27.832	52.625	27.832	52.1761	27.832	52.5072	27.832	52.2313	27.832	52.3995	27.832	52.3064
29.2969	54.302	29.2969	54.2335	29.2969	54.3657	29.2969	54.1617	29.2969	54.4226	29.2969	54.0879	29.2969	54.4707	29.2969	54.0135	29.2969	54.5077	29.2969	53.9397	29.2969	54.5314	29.2969	53.8677	29.2969	54.5396	29.2969	53.7988	29.2969	54.5306	29.2969	53.7343	29.2969	54.5037	29.2969	53.6757	29.2969	54.4586	29.2969	53.6243	29.2969	54.3965	29.2969	53.582	29.2969	54.3193	29.2969	53.5503	29.2969	54.2298	29.2969	53.531	29.2969	54.1319	29.2969	53.5258	29.2969	54.0297	29.2969	53.5361	29.2969	53.9278	29.2969	53.563	29.2969	53.8308	29.2969	53.607	29.2969	53.7429	29.2969	53.6674
30.7617	55.4256	30.7617	55.3501	30.7617	55.4921	30.7617	55.268	30.7617	55.5478	30.7617	55.1818	30.7617	55.5909	30.7617	55.094	30.7617	55.6202	30.7617	55.0072	30.7617	55.6345	30.7617	54.9239	30.7617	55.6334	30.7617	54.8463	30.7617	55.6165	30.7617	54.7765	30.7617	55.5841	30.7617	54.7164	30.7617	55.5367	30.7617	54.6675	30.7617	55.4757	30.7617	54.6312	30.7617	55.4026	30.7617	54.6086	30.7617	55.3197	30.7617	54.6006	30.7617	55.2298	30.7617	54.6078	30.7617	55.1358	30.7617	54.6304	30.7617	55.0411	30.7617	54.6682	30.7617	54.9492	30.7617	54.7205	30.7617	54.8632	30.7617	54.7862
32.2266	55.5193	32.2266	55.4598	32.2266	55.5771	32.2266	55.3999	32.2266	55.6316	32.2266	55.3412	32.2266	55.6809	32.2266	55.2847	32.2266	55.7231	32.2266	55.2318	32.2266	55.7563	32.2266	55.1836	32.2266	55.7785	32.2266	55.1412	32.2266	55.7882	32.2266	55.1058	32.2266	55.7847	32.2266	55.0782	32.2266	55.7675	32.2266	55.0593	32.2266	55.7371	32.2266	55.0496	32.2266	55.6948	32.2266	55.0496	32.2266	55.6424	32.2266	55.0595	32.2266	55.582	32.2266	55.0795	32.2266	55.5163	32.2266	55.1093	32.2266	55.4479	32.2266	55.1485	32.2266	55.3795	32.2266	55.1963	32.2266	55.3134	32.2266	55.2517
33.6914	56.2287	33.6914	56.1765	33.6914	56.2781	33.6914	56.1228	33.6914	56.3233	33.6914	56.0689	33.6914	56.3628	33.6914	56.0161	33.6914	56.3952	33.6914	55.9658	33.6914	56.419	33.6914	55.9194	33.6914	56.4329	33.6914	55.878	33.6914	56.4358	33.6914	55.843	33.6914	56.4272	33.6914	55.8153	33.6914	56.4071	33.6914	55.7958	33.6914	56.3763	33.6914	55.7851	33.6914	56.3359	33.6914	55.7835	33.6914	56.2878	33.6914	55.7911	33.6914	56.234	33.6914	55.8076	33.6914	56.1767	33.6914	55.8328	33.6914	56.118	33.6914	55.866	33.6914	56.0601	33.6914	55.9063	33.6914	56.0045	33.6914	55.9528
35.1562	57.4676	35.1562	57.4168	35.1562	57.5166	35.1562	57.3658	35.1562	57.5625	35.1562	57.3159	35.1562	57.6035	35.1562	57.2684	35.1562	57.6381	35.1562	57.2243	35.1562	57.6647	35.1562	57.1849	35.1562	57.6821	35.1562	57.151	35.1562	57.6892	35.1562	57.1235	35.1562	57.6855	35.1562	57.1031	35.1562	57.6711	35.1562	57.0903	35.1562	57.6464	35.1562	57.0854	35.1562	57.6127	35.1562	57.0887	35.1562	57.5713	35.1562	57.1001	35.1562	57.524	35.1562	57.1194	35.1562	57.4727	35.1562	57.1461	35.1562	57.4194	35.1562	57.1798	35.1562	57.3659	35.1562	57.2196	35.1562	57.3138	35.1562	57.2646
36.6211	58.3584	36.6211	58.3078	36.6211	58.4057	36.6211	58.2554	36.6211	58.4479	36.6211	58.2027	36.6211	58.4837	36.6211	58.1514	36.6211	58.5115	36.6211	58.1028	36.6211	58.5302	36.6211	58.0583	36.6211	58.5387	36.6211	58.019	36.6211	58.5366	36.6211	57.986	36.6211	58.5237	36.6211	57.9599	36.6211	58.5004	36.6211	57.9414	36.6211	58.4677	36.6211	57.9309	36.6211	58.4268	36.6211	57.9285	36.6211	58.3796	36.6211	57.9342	36.6211	58.328	36.6211	57.9477	36.6211	58.2742	36.6211	57.9688	36.6211	58.22	36.6211	57.9969	36.6211	58.1673	36.6211	58.0315	36.6211	58.1176	36.6211	58.072
38.0859	59.0135	38.0859	58.9694	38.0859	59.0559	38.0859	58.925	38.0859	59.0953	38.0859	58.8817	38.0859	59.1306	38.0859	58.8408	38.0859	59.1606	38.0859	58.8037	38.0859	59.1845	38.0859	58.7716	38.0859	59.2014	38.0859	58.7455	38.0859	59.2108	38.0859	58.7263	38.0859	59.2125	38.0859	58.7145	38.0859	59.2064	38.0859	58.7105	38.0859	59.1929	38.0859	58.7144	38.0859	59.1725	38.0859	58.7259	38.0859	59.146	38.0859	58.7445	38.0859	59.1145	38.0859	58.7697	38.0859	59.0788	38.0859	58.8004	38.0859	59.0399	38.0859	58.8356	38.0859	58.999	38.0859	58.8743	38.0859	58.9571	38.0859	58.9151
39.5508	59.5157	39.5508	59.4714	39.5508	59.5575	39.5508	59.426	39.5508	59.5953	39.5508	59.3813	39.5508	59.6281	39.5508	59.3388	39.5508	59.6547	39.5508	59.3001	39.5508	59.6746	39.5508	59.2667	39.5508	59.6872	39.5508	59.2398	39.5508	59.6923	39.5508	59.2204	39.5508	59.69	39.5508	59.2091	39.5508	59.6808	39.5508	59.2061	39.5508	59.6651	39.5508	59.2114	39.5508	59.644	39.5508	59.2246	39.5508	59.6183	39.5508	59.2448	39.5508	59.589	39.5508	59.271	39.5508	59.5568	39.5508	59.302	39.5508	59.5224	39.5508	59.3366	39.5508	59.4863	39.5508	59.3733	39.5508	59.449	39.5508	59.4111
41.0156	60.1374	41.0156	60.0986	41.0156	60.1776	41.0156	60.0625	41.0156	60.218	41.0156	60.0302	41.0156	60.2573	41.0156	60.0029	41.0156	60.2944	41.0156	59.9816	41.0156	60.3281	41.0156	59.967	41.0156	60.3573	41.0156	59.9598	41.0156	60.3814	41.0156	59.9603	41.0156	60.3996	41.0156	59.9687	41.0156	60.4117	41.0156	59.9848	41.0156	60.4177	41.0156	60.008	41.0156	60.4178	41.0156	60.0376	41.0156	60.4123	41.0156	60.0725	41.0156	60.4014	41.0156	60.1112	41.0156	60.3854	41.0156	60.1523	41.0156	60.3644	41.0156	60.194	41.0156	60.3385	41.0156	60.2347	41.0156	60.3079	41.0156	60.273
42.4805	61.1671	42.4805	61.1426	42.4805	61.1874	42.4805	61.1148	42.4805	61.2027	42.4805	61.0846	42.4805	61.2123	42.4805	61.0526	42.4805	61.2151	42.4805	61.0197	42.4805	61.2103	42.4805	60.9864	42.4805	61.197	42.4805	60.9533	42.4805	61.1746	42.4805	60.9206	42.4805	61.1429	42.4805	60.8886	42.4805	61.1024	42.4805	60.8575	42.4805	61.0542	42.4805	60.8272	42.4805	61.0001	42.4805	60.7982	42.4805	60.9429	42.4805	60.771	42.4805	60.8857	42.4805	60.7465	42.4805	60.8321	42.4805	60.7261	42.4805	60.7854	42.4805	60.7116	42.4805	60.7481	42.4805	60.7049	42.4805	60.7221	42.4805	60.7079
43.9453	61.7999	43.9453	61.7659	43.9453	61.8328	43.9453	61.732	43.9453	61.8634	43.9453	61.6992	43.9453	61.8905	43.9453	61.6688	43.9453	61.9131	43.9453	61.6416	43.9453	61.9303	43.9453	61.6183	43.9453	61.9413	43.9453	61.5997	43.9453	61.9459	43.9453	61.586	43.9453	61.9437	43.9453	61.5775	43.9453	61.935	43.9453	61.5741	43.9453	61.9202	43.9453	61.5756	43.9453	61.8999	43.9453	61.5818	43.9453	61.8751	43.9453	61.5922	43.9453	61.847	43.9453	61.6064	43.9453	61.8167	43.9453	61.6241	43.9453	61.7853	43.9453	61.645	43.9453	61.7541	43.9453	61.6688	43.9453	61.7238	43.9453	61.6952
45.4102	62.2498	45.4102	62.212	45.4102	62.287	45.4102	62.1753	45.4102	62.3224	45.4102	62.1411	45.4102	62.3546	45.4102	62.1107	45.4102	62.3825	45.4102	62.0852	45.4102	62.4053	45.4102	62.0655	45.4102	62.4223	45.4102	62.0522	45.4102	62.4333	45.4102	62.0458	45.4102	62.4382	45.4102	62.0462	45.4102	62.4373	45.4102	62.0533	45.4102	62.4311	45.4102	62.0665	45.4102	62.4201	45.4102	62.0851	45.4102	62.405	45.4102	62.1083	45.4102	62.3864	45.4102	62.1351	45.4102	62.3649	45.4102	62.1643	45.4102	62.3408	45.4102	62.1949	45.4102	62.3145	45.4102	62.226	45.4102	62.2863	45.4102	62.2566
46.875	62.8125	46.875	62.7761	46.875	62.8491	46.875	62.7413	46.875	62.8841	46.875	62.7098	46.875	62.9162	46.875	62.6828	46.875	62.9443	46.875	62.6613	46.875	62.9673	46.875	62.6459	46.875	62.985	46.875	62.6371	46.875	62.997	46.875	62.6348	46.875	63.0034	46.875	62.6388	46.875	63.0046	46.875	62.6488	46.875	63.001	46.875	62.6643	46.875	62.9931	46.875	62.6844	46.875	62.9815	46.875	62.7085	46.875	62.9667	46.875	62.7355	46.875	62.949	46.875	62.7644	46.875	62.9285	46.875	62.7943	46.875	62.9056	46.875	62.8241	46.875	62.8803	46.875	62.853
48.3398	63.625	48.3398	63.6021	48.3398	63.6438	48.3398	63.5757	48.3398	63.6577	48.3398	63.5466	48.3398	63.6663	48.3398	63.5159	48.3398	63.6692	48.3398	63.4844	48.3398	63.6661	48.3398	63.4531	48.3398	63.6568	48.3398	63.423	48.3398	63.6413	48.3398	63.3947	48.3398	63.6199	48.3398	63.3691	48.3398	63.5931	48.3398	63.3465	48.3398	63.5618	48.3398	63.3276	48.3398	63.5273	48.3398	63.3125	48.3398	63.491	48.3398	63.3016	48.3398	63.4545	48.3398	63.2951	48.3398	63.4195	48.3398	63.2931	48.3398	63.3873	48.3398	63.296	48.3398	63.359	48.3398	63.3039	48.3398	63.3354	48.3398	63.317
51.2695	64.6809	51.2695	64.6475	51.2695	64.7156	51.2695	64.6164	51.2695	64.7501	51.2695	64.5888	51.2695	64.7832	51.2695	64.5655	51.2695	64.8135	51.2695	64.5471	51.2695	64.84	51.2695	64.5342	51.2695	64.8618	51.2695	64.527	51.2695	64.8782	51.2695	64.5255	51.2695	64.8887	51.2695	64.5296	51.2695	64.8934	51.2695	64.5391	51.2695	64.8922	51.2695	64.5534	51.2695	64.8855	51.2695	64.5719	51.2695	64.8737	51.2695	64.594	51.2695	64.8575	51.2695	64.6189	51.2695	64.8373	51.2695	64.6459	51.2695	64.8141	51.2695	64.6742	51.2695	64.7884	51.2695	64.7032	51.2695	64.7609	51.2695	64.7323
52.7344	64.9232	52.7344	64.8942	52.7344	64.9517	52.7344	64.866	52.7344	64.9786	52.7344	64.84	52.7344	65.0033	52.7344	64.8175	52.7344	65.025	52.7344	64.7997	52.7344	65.0436	52.7344	64.7876	52.7344	65.0593	52.7344	64.7819	52.7344	65.072	52.7344	64.7829	52.7344	65.0821	52.7344	64.7905	52.7344	65.0897	52.7344	64.8045	52.7344	65.095	52.7344	64.8241	52.7344	65.0977	52.7344	64.8484	52.7344	65.0978	52.7344	64.8763	52.7344	65.0948	52.7344	64.9064	52.7344	65.0883	52.7344	64.9373	52.7344	65.078	52.7344	64.9678	52.7344	65.0637	52.7344	64.9966	52.7344	65.0451	52.7344	65.0226
54.1992	65.2798	54.1992	65.2512	54.1992	65.3083	54.1992	65.2238	54.1992	65.3358	54.1992	65.1988	54.1992	65.3612	54.1992	65.1774	54.1992	65.3839	54.1992	65.1607	54.1992	65.4034	54.1992	65.1493	54.1992	65.4196	54.1992	65.1438	54.1992	65.4324	54.1992	65.1445	54.1992	65.4419	54.1992	65.1513	54.1992	65.4483	54.1992	65.1639	54.1992	65.4518	54.1992	65.1817	54.1992	65.4524	54.1992	65.2039	54.1992	65.4501	54.1992	65.2295	54.1992	65.4449	54.1992	65.2573	54.1992	65.4365	54.1992	65.2863	54.1992	65.4247	54.1992	65.3151	54.1992	65.4093	54.1992	65.3426	54.1992	65.3904	54.1992	65.368
55.6641	65.9384	55.6641	65.9112	55.6641	65.9656	55.6641	65.8852	55.6641	65.9917	55.6641	65.8613	55.6641	66.0155	55.6641	65.8405	55.6641	66.0361	55.6641	65.8234	55.6641	66.0526	55.6641	65.8105	55.6641	66.0645	55.6641	65.8021	55.6641	66.0715	55.6641	65.7981	55.6641	66.0735	55.6641	65.7986	55.6641	66.0709	55.6641	65.8033	55.6641	66.064	55.6641	65.8117	55.6641	66.0536	55.6641	65.8233	55.6641	66.0403	55.6641	65.8377	55.6641	66.0248	55.6641	65.8543	55.6641	66.0077	55.6641	65.8724	55.6641	65.9894	55.6641	65.8915	55.6641	65.9704	55.6641	65.9112	55.6641	65.9509	55.6641	65.9311
58.5938	67.0039	58.5938	66.9766	58.5938	67.0317	58.5938	66.9509	58.5938	67.0591	58.5938	66.9275	58.5938	67.0849	58.5938	66.9072	58.5938	67.1081	58.5938	66.8905	58.5938	67.1279	58.5938	66.8779	58.5938	67.1435	58.5938	66.8696	58.5938	67.1544	58.5938	66.8659	58.5938	67.1606	58.5938	66.8667	58.5938	67.162	58.5938	66.872	58.5938	67.1589	58.5938	66.8815	58.5938	67.1515	58.5938	66.8948	58.5938	67.1405	58.5938	66.9115	58.5938	67.1262	58.5938	66.9309	58.5938	67.1092	58.5938	66.9524	58.5938	67.0899	58.5938	66.9753	58.5938	67.0687	58.5938	66.999	58.5938	67.0462	58.5938	67.0228
60.0586	67.5524	60.0586	67.5236	60.0586	67.5792	60.0586	67.4939	60.0586	67.603	60.0586	67.4642	60.0586	67.6229	60.0586	67.4355	60.0586	67.6381	60.0586	67.4086	60.0586	67.648	60.0586	67.3845	60.0586	67.6522	60.0586	67.3635	60.0586	67.6508	60.0586	67.3465	60.0586	67.6439	60.0586	67.3336	60.0586	67.6318	60.0586	67.3252	60.0586	67.6152	60.0586	67.3214	60.0586	67.5947	60.0586	67.3221	60.0586	67.5711	60.0586	67.3273	60.0586	67.5453	60.0586	67.3368	60.0586	67.518	60.0586	67.3502	60.0586	67.4901	60.0586	67.3672	60.0586	67.4623	60.0586	67.3874	60.0586	67.4355	60.0586	67.4103
62.9883	68.2527	62.9883	68.2216	62.9883	68.2798	62.9883	68.1876	62.9883	68.3018	62.9883	68.1522	62.9883	68.3181	62.9883	68.1168	62.9883	68.3282	62.9883	68.0829	62.9883	68.3322	62.9883	68.0517	62.9883	68.3304	62.9883	68.0244	62.9883	68.3231	62.9883	68.0019	62.9883	68.311	62.9883	67.9848	62.9883	68.2948	62.9883	67.9737	62.9883	68.2753	62.9883	67.9685	62.9883	68.2532	62.9883	67.9692	62.9883	68.2291	62.9883	67.9755	62.9883	68.2035	62.9883	67.9869	62.9883	68.1769	62.9883	68.0027	62.9883	68.1497	62.9883	68.0221	62.9883	68.1224	62.9883	68.0446	62.9883	68.0953	62.9883	68.0692
64.4531	68.5661	64.4531	68.5354	64.4531	68.594	64.4531	68.503	64.4531	68.618	64.4531	68.4702	64.4531	68.6374	64.4531	68.4383	64.4531	68.6518	64.4531	68.4087	64.4531	68.6611	64.4531	68.3825	64.4531	68.6652	64.4531	68.3606	64.4531	68.6645	64.4531	68.3438	64.4531	68.6593	64.4531	68.3324	64.4531	68.65	64.4531	68.3268	64.4531	68.637	64.4531	68.327	64.4531	68.6209	64.4531	68.3326	64.4531	68.602	64.4531	68.3435	64.4531	68.5806	64.4531	68.3589	64.4531	68.5572	64.4531	68.3782	64.4531	68.5321	64.4531	68.4007	64.4531	68.5058	64.4531	68.4255	64.4531	68.4789	64.4531	68.4518
67.3828	69.357	67.3828	69.3287	67.3828	69.3842	67.3828	69.3002	67.3828	69.4093	67.3828	69.2728	67.3828	69.4316	67.3828	69.2475	67.3828	69.4504	67.3828	69.2254	67.3828	69.4655	67.3828	69.2072	67.3828	69.4767	67.3828	69.1936	67.3828	69.4839	67.3828	69.1851	67.3828	69.4874	67.3828	69.1819	67.3828	69.4871	67.3828	69.184	67.3828	69.4833	67.3828	69.1913	67.3828	69.4759	67.3828	69.2033	67.3828	69.4652	67.3828	69.2196	67.3828	69.4512	67.3828	69.2396	67.3828	69.434	67.3828	69.2625	67.3828	69.4138	67.3828	69.2876	67.3828	69.3912	67.3828	69.3138	67.3828	69.3665	67.3828	69.3404
