"SPL Vertical"
"On-Axis"		"10°"		"-10°"		"20°"		"-20°"		"30°"		"-30°"		"40°"		"-40°"		"50°"		"-50°"		"60°"		"-60°"		"70°"		"-70°"		"80°"		"-80°"		"90°"		"-90°"		"100°"		"-100°"		"110°"		"-110°"		"120°"		"-120°"		"130°"		"-130°"		"140°"		"-140°"		"150°"		"-150°"		"160°"		"-160°"		"170°"		"-170°"		"180°"
"Frequency / Hz"	"Sound Pressure Level / dB (re 20 µPa/V)  [2.83  V @ 1. m]"	"Frequency / Hz"	"Sound Pressure Level / dB (re 20 µPa/V)  [2.83  V @ 1. m]"	"Frequency / Hz"	"Sound Pressure Level / dB (re 20 µPa/V)  [2.83  V @ 1. m]"	"Frequency / Hz"	"Sound Pressure Level / dB (re 20 µPa/V)  [2.83  V @ 1. m]"	"Frequency / Hz"	"Sound Pressure Level / dB (re 20 µPa/V)  [2.83  V @ 1. m]"	"Frequency / Hz"	"Sound Pressure Level / dB (re 20 µPa/V)  [2.83  V @ 1. m]"	"Frequency / Hz"	"Sound Pressure Level / dB (re 20 µPa/V)  [2.83  V @ 1. m]"	"Frequency / Hz"	"Sound Pressure Level / dB (re 20 µPa/V)  [2.83  V @ 1. m]"	"Frequency / Hz"	"Sound Pressure Level / dB (re 20 µPa/V)  [2.83  V @ 1. m]"	"Frequency / Hz"	"Sound Pressure Level / dB (re 20 µPa/V)  [2.83  V @ 1. m]"	"Frequency / Hz"	"Sound Pressure Level / dB (re 20 µPa/V)  [2.83  V @ 1. m]"	"Frequency / Hz"	"Sound Pressure Level / dB (re 20 µPa/V)  [2.83  V @ 1. m]"	"Frequency / Hz"	"Sound Pressure Level / dB (re 20 µPa/V)  [2.83  V @ 1. m]"	"Frequency / Hz"	"Sound Pressure Level / dB (re 20 µPa/V)  [2.83  V @ 1. m]"	"Frequency / Hz"	"Sound Pressure Level / dB (re 20 µPa/V)  [2.83  V @ 1. m]"	"Frequency / Hz"	"Sound Pressure Level / dB (re 20 µPa/V)  [2.83  V @ 1. m]"	"Frequency / Hz"	"Sound Pressure Level / dB (re 20 µPa/V)  [2.83  V @ 1. m]"	"Frequency / Hz"	"Sound Pressure Level / dB (re 20 µPa/V)  [2.83  V @ 1. m]"	"Frequency / Hz"	"Sound Pressure Level / dB (re 20 µPa/V)  [2.83  V @ 1. m]"	"Frequency / Hz"	"Sound Pressure Level / dB (re 20 µPa/V)  [2.83  V @ 1. m]"	"Frequency / Hz"	"Sound Pressure Level / dB (re 20 µPa/V)  [2.83  V @ 1. m]"	"Frequency / Hz"	"Sound Pressure Level / dB (re 20 µPa/V)  [2.83  V @ 1. m]"	"Frequency / Hz"	"Sound Pressure Level / dB (re 20 µPa/V)  [2.83  V @ 1. m]"	"Frequency / Hz"	"Sound Pressure Level / dB (re 20 µPa/V)  [2.83  V @ 1. m]"	"Frequency / Hz"	"Sound Pressure Level / dB (re 20 µPa/V)  [2.83  V @ 1. m]"	"Frequency / Hz"	"Sound Pressure Level / dB (re 20 µPa/V)  [2.83  V @ 1. m]"	"Frequency / Hz"	"Sound Pressure Level / dB (re 20 µPa/V)  [2.83  V @ 1. m]"	"Frequency / Hz"	"Sound Pressure Level / dB (re 20 µPa/V)  [2.83  V @ 1. m]"	"Frequency / Hz"	"Sound Pressure Level / dB (re 20 µPa/V)  [2.83  V @ 1. m]"	"Frequency / Hz"	"Sound Pressure Level / dB (re 20 µPa/V)  [2.83  V @ 1. m]"	"Frequency / Hz"	"Sound Pressure Level / dB (re 20 µPa/V)  [2.83  V @ 1. m]"	"Frequency / Hz"	"Sound Pressure Level / dB (re 20 µPa/V)  [2.83  V @ 1. m]"	"Frequency / Hz"	"Sound Pressure Level / dB (re 20 µPa/V)  [2.83  V @ 1. m]"	"Frequency / Hz"	"Sound Pressure Level / dB (re 20 µPa/V)  [2.83  V @ 1. m]"	"Frequency / Hz"	"Sound Pressure Level / dB (re 20 µPa/V)  [2.83  V @ 1. m]"	"Frequency / Hz"	"Sound Pressure Level / dB (re 20 µPa/V)  [2.83  V @ 1. m]"
20.5078	56.6602	20.5078	56.5647	20.5078	56.7429	20.5078	56.4676	20.5078	56.8037	20.5078	56.3801	20.5078	56.8382	20.5078	56.311	20.5078	56.8465	20.5078	56.2656	20.5078	56.8328	20.5078	56.246	20.5078	56.8033	20.5078	56.2516	20.5078	56.7651	20.5078	56.2803	20.5078	56.7246	20.5078	56.3289	20.5078	56.6875	20.5078	56.3937	20.5078	56.6585	20.5078	56.4703	20.5078	56.6413	20.5078	56.5531	20.5078	56.6383	20.5078	56.6357	20.5078	56.6506	20.5078	56.7108	20.5078	56.677	20.5078	56.7713	20.5078	56.714	20.5078	56.8112	20.5078	56.7556	20.5078	56.8274	20.5078	56.7939	20.5078	56.8202
21.9727	51.1685	21.9727	51.0268	21.9727	51.2767	21.9727	50.8685	21.9727	51.3415	21.9727	50.7139	21.9727	51.3613	21.9727	50.5826	21.9727	51.3428	21.9727	50.4909	21.9727	51.2988	21.9727	50.4496	21.9727	51.2449	21.9727	50.4638	21.9727	51.1964	21.9727	50.5331	21.9727	51.1658	21.9727	50.6527	21.9727	51.1616	21.9727	50.8141	21.9727	51.1878	21.9727	51.0056	21.9727	51.2449	21.9727	51.2129	21.9727	51.33	21.9727	51.4199	21.9727	51.4375	21.9727	51.6099	21.9727	51.5592	21.9727	51.7669	21.9727	51.6841	21.9727	51.8779	21.9727	51.7985	21.9727	51.935	21.9727	51.8874	21.9727	51.9364
23.4375	52.7851	23.4375	52.7759	23.4375	52.7352	23.4375	52.7165	23.4375	52.623	23.4375	52.6185	23.4375	52.4518	23.4375	52.4945	23.4375	52.2313	23.4375	52.3557	23.4375	51.9759	23.4375	52.211	23.4375	51.7022	23.4375	52.0666	23.4375	51.4265	23.4375	51.9262	23.4375	51.1631	23.4375	51.7916	23.4375	50.9233	23.4375	51.6629	23.4375	50.7159	23.4375	51.5389	23.4375	50.5469	23.4375	51.4171	23.4375	50.4208	23.4375	51.2944	23.4375	50.3408	23.4375	51.1675	23.4375	50.309	23.4375	51.034	23.4375	50.3252	23.4375	50.8937	23.4375	50.3863	23.4375	50.7499	23.4375	50.4848	23.4375	50.6101
24.9023	53.1034	24.9023	53.0147	24.9023	53.1891	24.9023	52.9302	24.9023	53.2646	24.9023	52.8554	24.9023	53.3244	24.9023	52.7934	24.9023	53.3656	24.9023	52.7455	24.9023	53.3881	24.9023	52.711	24.9023	53.394	24.9023	52.6892	24.9023	53.3862	24.9023	52.679	24.9023	53.3679	24.9023	52.6799	24.9023	53.3417	24.9023	52.6917	24.9023	53.3097	24.9023	52.7138	24.9023	53.2736	24.9023	52.7454	24.9023	53.2351	24.9023	52.7849	24.9023	53.1959	24.9023	52.83	24.9023	53.1573	24.9023	52.8777	24.9023	53.1201	24.9023	52.9249	24.9023	53.0842	24.9023	52.9695	24.9023	53.0482	24.9023	53.0105
26.3672	52.4826	26.3672	52.3658	26.3672	52.5855	26.3672	52.2428	26.3672	52.668	26.3672	52.121	26.3672	52.7256	26.3672	52.0064	26.3672	52.7561	26.3672	51.9039	26.3672	52.7603	26.3672	51.8166	26.3672	52.7406	26.3672	51.7463	26.3672	52.7014	26.3672	51.6941	26.3672	52.6473	26.3672	51.6606	26.3672	52.5834	26.3672	51.6458	26.3672	52.5143	26.3672	51.6494	26.3672	52.4438	26.3672	51.6706	26.3672	52.375	26.3672	51.7075	26.3672	52.3097	26.3672	51.7574	26.3672	52.2481	26.3672	51.8166	26.3672	52.1894	26.3672	51.8811	26.3672	52.1317	26.3672	51.947	26.3672	52.0729	26.3672	52.0114
27.832	52.2214	27.832	52.1521	27.832	52.2837	27.832	52.0824	27.832	52.3322	27.832	52.018	27.832	52.3624	27.832	51.9625	27.832	52.3722	27.832	51.9175	27.832	52.3626	27.832	51.8826	27.832	52.3364	27.832	51.8568	27.832	52.2975	27.832	51.8382	27.832	52.2497	27.832	51.8252	27.832	52.1961	27.832	51.8163	27.832	52.1393	27.832	51.8104	27.832	52.0811	27.832	51.8064	27.832	52.0235	27.832	51.8037	27.832	51.9686	27.832	51.8018	27.832	51.919	27.832	51.8006	27.832	51.8772	27.832	51.8006	27.832	51.845	27.832	51.8028	27.832	51.8227	27.832	51.8094
29.2969	51.5491	29.2969	51.5499	29.2969	51.5352	29.2969	51.5438	29.2969	51.5011	29.2969	51.5342	29.2969	51.4407	29.2969	51.5217	29.2969	51.3505	29.2969	51.504	29.2969	51.2311	29.2969	51.4775	29.2969	51.0867	29.2969	51.4385	29.2969	50.9245	29.2969	51.3841	29.2969	50.7535	29.2969	51.3127	29.2969	50.5835	29.2969	51.224	29.2969	50.4236	29.2969	51.1192	29.2969	50.2818	29.2969	51	29.2969	50.1648	29.2969	50.8689	29.2969	50.0779	29.2969	50.7292	29.2969	50.0253	29.2969	50.5847	29.2969	50.0101	29.2969	50.4412	29.2969	50.0334	29.2969	50.3058	29.2969	50.0939	29.2969	50.1871
30.7617	52.1399	30.7617	52.1525	30.7617	52.1039	30.7617	52.1447	30.7617	52.0427	30.7617	52.1197	30.7617	51.9562	30.7617	52.0806	30.7617	51.8466	30.7617	52.0304	30.7617	51.7181	30.7617	51.9714	30.7617	51.5767	30.7617	51.9058	30.7617	51.4295	30.7617	51.8354	30.7617	51.2838	30.7617	51.7615	30.7617	51.1468	30.7617	51.6854	30.7617	51.0252	30.7617	51.6074	30.7617	50.9249	30.7617	51.5276	30.7617	50.8505	30.7617	51.4456	30.7617	50.8052	30.7617	51.3604	30.7617	50.7907	30.7617	51.2715	30.7617	50.8063	30.7617	51.1794	30.7617	50.8492	30.7617	51.0861	30.7617	50.9146	30.7617	50.9958
32.2266	52.4166	32.2266	52.3505	32.2266	52.4734	32.2266	52.281	32.2266	52.5152	32.2266	52.2138	32.2266	52.5381	32.2266	52.1535	32.2266	52.5403	32.2266	52.1031	32.2266	52.5227	32.2266	52.0645	32.2266	52.4886	32.2266	52.0387	32.2266	52.4429	32.2266	52.0259	32.2266	52.3918	32.2266	52.0256	32.2266	52.3417	32.2266	52.0369	32.2266	52.2981	32.2266	52.0585	32.2266	52.2653	32.2266	52.0883	32.2266	52.2453	32.2266	52.1235	32.2266	52.2379	32.2266	52.1608	32.2266	52.2404	32.2266	52.1963	32.2266	52.2488	32.2266	52.2264	32.2266	52.2579	32.2266	52.2484	32.2266	52.263	32.2266	52.2605
33.6914	53.053	33.6914	52.9998	33.6914	53.0926	33.6914	52.9383	33.6914	53.1137	33.6914	52.8734	33.6914	53.1133	33.6914	52.8086	33.6914	53.0901	33.6914	52.7464	33.6914	53.0455	33.6914	52.6881	33.6914	52.9824	33.6914	52.6342	33.6914	52.905	33.6914	52.585	33.6914	52.8178	33.6914	52.5405	33.6914	52.7257	33.6914	52.5007	33.6914	52.6334	33.6914	52.4655	33.6914	52.5452	33.6914	52.4341	33.6914	52.4654	33.6914	52.4058	33.6914	52.3976	33.6914	52.3796	33.6914	52.3447	33.6914	52.3546	33.6914	52.3084	33.6914	52.3307	33.6914	52.2889	33.6914	52.3093	33.6914	52.2847	33.6914	52.2927
35.1562	54.1664	35.1562	54.1101	35.1562	54.2183	35.1562	54.0531	35.1562	54.2626	35.1562	53.9991	35.1562	54.2974	35.1562	53.9512	35.1562	54.3219	35.1562	53.912	35.1562	54.3365	35.1562	53.8832	35.1562	54.3428	35.1562	53.8659	35.1562	54.3431	35.1562	53.8608	35.1562	54.3398	35.1562	53.8684	35.1562	54.3356	35.1562	53.8884	35.1562	54.3327	35.1562	53.9206	35.1562	54.3324	35.1562	53.9636	35.1562	54.335	35.1562	54.0156	35.1562	54.3394	35.1562	54.0736	35.1562	54.3433	35.1562	54.1339	35.1562	54.3431	35.1562	54.1921	35.1562	54.3353	35.1562	54.2442	35.1562	54.317	35.1562	54.2865
36.6211	54.4681	36.6211	54.4069	36.6211	54.5133	36.6211	54.3338	36.6211	54.5391	36.6211	54.2531	36.6211	54.5437	36.6211	54.169	36.6211	54.5265	36.6211	54.0847	36.6211	54.4888	36.6211	54.0031	36.6211	54.4331	36.6211	53.9261	36.6211	54.3627	36.6211	53.8554	36.6211	54.282	36.6211	53.7922	36.6211	54.1953	36.6211	53.7375	36.6211	54.1074	36.6211	53.6922	36.6211	54.0225	36.6211	53.6569	36.6211	53.9439	36.6211	53.6318	36.6211	53.8738	36.6211	53.6171	36.6211	53.8129	36.6211	53.6125	36.6211	53.7612	36.6211	53.6175	36.6211	53.7178	36.6211	53.6312	36.6211	53.6818	36.6211	53.6528
38.0859	55.261	38.0859	55.1707	38.0859	55.3428	38.0859	55.0764	38.0859	55.4118	38.0859	54.982	38.0859	55.4647	38.0859	54.8911	38.0859	55.4994	38.0859	54.8063	38.0859	55.5153	38.0859	54.7293	38.0859	55.513	38.0859	54.6614	38.0859	55.4937	38.0859	54.6033	38.0859	55.4594	38.0859	54.5558	38.0859	55.412	38.0859	54.5193	38.0859	55.3533	38.0859	54.4944	38.0859	55.2851	38.0859	54.4817	38.0859	55.209	38.0859	54.4819	38.0859	55.1264	38.0859	54.4957	38.0859	55.039	38.0859	54.5239	38.0859	54.949	38.0859	54.5665	38.0859	54.859	38.0859	54.6233	38.0859	54.7724	38.0859	54.6928
39.5508	54.1675	39.5508	54.0601	39.5508	54.282	39.5508	53.9637	39.5508	54.3991	39.5508	53.8818	39.5508	54.5146	39.5508	53.8172	39.5508	54.6248	39.5508	53.7719	39.5508	54.7271	39.5508	53.7472	39.5508	54.8197	39.5508	53.7441	39.5508	54.9017	39.5508	53.7627	39.5508	54.9731	39.5508	53.8025	39.5508	55.0336	39.5508	53.8626	39.5508	55.0826	39.5508	53.9412	39.5508	55.1186	39.5508	54.0365	39.5508	55.1392	39.5508	54.146	39.5508	55.1408	39.5508	54.2671	39.5508	55.1198	39.5508	54.3966	39.5508	55.0738	39.5508	54.5308	39.5508	55.002	39.5508	54.6646	39.5508	54.9066	39.5508	54.7921
41.0156	56.9827	41.0156	56.9442	41.0156	56.9874	41.0156	56.876	41.0156	56.9543	41.0156	56.7826	41.0156	56.8805	41.0156	56.6679	41.0156	56.7639	41.0156	56.536	41.0156	56.6045	41.0156	56.3903	41.0156	56.4043	41.0156	56.2338	41.0156	56.1679	41.0156	56.0693	41.0156	55.9025	41.0156	55.899	41.0156	55.6184	41.0156	55.7247	41.0156	55.3285	41.0156	55.5482	41.0156	55.0483	41.0156	55.371	41.0156	54.7949	41.0156	55.1947	41.0156	54.5846	41.0156	55.0214	41.0156	54.4311	41.0156	54.8536	41.0156	54.3421	41.0156	54.6956	41.0156	54.3182	41.0156	54.5533	41.0156	54.3529	41.0156	54.4354
42.4805	56.8783	42.4805	56.8203	42.4805	56.918	42.4805	56.746	42.4805	56.9379	42.4805	56.6581	42.4805	56.9372	42.4805	56.5597	42.4805	56.916	42.4805	56.4546	42.4805	56.875	42.4805	56.347	42.4805	56.8162	42.4805	56.2411	42.4805	56.7431	42.4805	56.1414	42.4805	56.6599	42.4805	56.0523	42.4805	56.572	42.4805	55.9776	42.4805	56.4849	42.4805	55.9206	42.4805	56.4034	42.4805	55.8839	42.4805	56.3312	42.4805	55.8684	42.4805	56.2695	42.4805	55.8737	42.4805	56.2171	42.4805	55.8974	42.4805	56.1707	42.4805	55.9352	42.4805	56.1262	42.4805	55.9817	42.4805	56.0802	42.4805	56.0314
43.9453	57.643	43.9453	57.5526	43.9453	57.728	43.9453	57.4589	43.9453	57.8045	43.9453	57.364	43.9453	57.8698	43.9453	57.2697	43.9453	57.9206	43.9453	57.178	43.9453	57.9544	43.9453	57.0907	43.9453	57.9694	43.9453	57.01	43.9453	57.9645	43.9453	56.9381	43.9453	57.9401	43.9453	56.877	43.9453	57.8972	43.9453	56.829	43.9453	57.8378	43.9453	56.7959	43.9453	57.7642	43.9453	56.7797	43.9453	57.6789	43.9453	56.7817	43.9453	57.5844	43.9453	56.803	43.9453	57.4833	43.9453	56.8438	43.9453	57.3781	43.9453	56.9031	43.9453	57.2716	43.9453	56.9789	43.9453	57.167	43.9453	57.0681
45.4102	58.4289	45.4102	58.358	45.4102	58.4936	45.4102	58.2833	45.4102	58.5497	45.4102	58.2074	45.4102	58.5948	45.4102	58.1326	45.4102	58.6272	45.4102	58.0614	45.4102	58.6455	45.4102	57.996	45.4102	58.6493	45.4102	57.9383	45.4102	58.6389	45.4102	57.8903	45.4102	58.6157	45.4102	57.8537	45.4102	58.582	45.4102	57.8298	45.4102	58.5403	45.4102	57.8195	45.4102	58.4932	45.4102	57.8236	45.4102	58.4427	45.4102	57.8419	45.4102	58.3903	45.4102	57.8738	45.4102	58.3361	45.4102	57.9178	45.4102	58.2797	45.4102	57.9714	45.4102	58.2207	45.4102	58.0317	45.4102	58.1589	45.4102	58.0951
46.875	58.9668	46.875	58.899	46.875	59.0308	46.875	58.8285	46.875	59.0895	46.875	58.7564	46.875	59.1406	46.875	58.6841	46.875	59.1815	46.875	58.613	46.875	59.2097	46.875	58.5451	46.875	59.2228	46.875	58.4827	46.875	59.2194	46.875	58.4278	46.875	59.1992	46.875	58.3826	46.875	59.163	46.875	58.3486	46.875	59.1129	46.875	58.3272	46.875	59.0516	46.875	58.3193	46.875	58.9823	46.875	58.3253	46.875	58.9082	46.875	58.345	46.875	58.832	46.875	58.3778	46.875	58.7555	46.875	58.4223	46.875	58.6804	46.875	58.477	46.875	58.6079	46.875	58.5395
48.3398	59.7467	48.3398	59.6675	48.3398	59.8062	48.3398	59.5712	48.3398	59.844	48.3398	59.4604	48.3398	59.8583	48.3398	59.3384	48.3398	59.848	48.3398	59.2083	48.3398	59.8127	48.3398	59.0738	48.3398	59.7526	48.3398	58.9385	48.3398	59.6692	48.3398	58.8058	48.3398	59.5644	48.3398	58.679	48.3398	59.4415	48.3398	58.5612	48.3398	59.3039	48.3398	58.4551	48.3398	59.1561	48.3398	58.3634	48.3398	59.0029	48.3398	58.289	48.3398	58.8495	48.3398	58.2347	48.3398	58.7015	48.3398	58.2034	48.3398	58.5644	48.3398	58.1975	48.3398	58.4435	48.3398	58.2187	48.3398	58.3433	48.3398	58.2676
51.2695	60.9725	51.2695	60.9099	51.2695	61.0274	51.2695	60.8412	51.2695	61.0729	51.2695	60.7682	51.2695	61.1069	51.2695	60.6928	51.2695	61.1276	51.2695	60.6166	51.2695	61.1333	51.2695	60.5419	51.2695	61.1227	51.2695	60.4704	51.2695	61.0955	51.2695	60.4041	51.2695	61.0521	51.2695	60.3445	51.2695	60.9939	51.2695	60.2929	51.2695	60.9231	51.2695	60.2505	51.2695	60.8426	51.2695	60.2181	51.2695	60.7557	51.2695	60.1968	51.2695	60.6657	51.2695	60.1875	51.2695	60.5761	51.2695	60.1911	51.2695	60.4904	51.2695	60.2083	51.2695	60.4115	51.2695	60.2394	51.2695	60.3421	51.2695	60.2843
52.7344	61.1134	52.7344	61.0397	52.7344	61.1821	52.7344	60.9628	52.7344	61.2433	52.7344	60.8847	52.7344	61.2942	52.7344	60.8068	52.7344	61.3319	52.7344	60.7308	52.7344	61.3537	52.7344	60.6584	52.7344	61.3575	52.7344	60.5912	52.7344	61.3423	52.7344	60.5308	52.7344	61.3086	52.7344	60.4786	52.7344	61.2576	52.7344	60.4356	52.7344	61.192	52.7344	60.4029	52.7344	61.1147	52.7344	60.3815	52.7344	61.0293	52.7344	60.372	52.7344	60.939	52.7344	60.3753	52.7344	60.8472	52.7344	60.392	52.7344	60.757	52.7344	60.4226	52.7344	60.6714	52.7344	60.4669	52.7344	60.5929	52.7344	60.5241
54.1992	61.399	54.1992	61.3206	54.1992	61.4713	54.1992	61.2378	54.1992	61.5349	54.1992	61.1521	54.1992	61.5868	54.1992	61.0651	54.1992	61.6239	54.1992	60.9782	54.1992	61.6431	54.1992	60.8934	54.1992	61.6423	54.1992	60.8129	54.1992	61.6209	54.1992	60.7389	54.1992	61.5793	54.1992	60.6737	54.1992	61.5197	54.1992	60.6192	54.1992	61.4451	54.1992	60.5771	54.1992	61.3592	54.1992	60.5489	54.1992	61.2655	54.1992	60.5358	54.1992	61.1676	54.1992	60.5387	54.1992	61.0685	54.1992	60.5582	54.1992	60.9708	54.1992	60.5942	54.1992	60.8771	54.1992	60.6461	54.1992	60.7899	54.1992	60.7121
55.6641	62.4014	55.6641	62.3056	55.6641	62.4867	55.6641	62.2028	55.6641	62.5578	55.6641	62.096	55.6641	62.6106	55.6641	61.9878	55.6641	62.6416	55.6641	61.8807	55.6641	62.6483	55.6641	61.7773	55.6641	62.6295	55.6641	61.6801	55.6641	62.586	55.6641	61.5917	55.6641	62.52	55.6641	61.5142	55.6641	62.435	55.6641	61.4497	55.6641	62.3355	55.6641	61.3996	55.6641	62.2263	55.6641	61.3653	55.6641	62.112	55.6641	61.3478	55.6641	61.997	55.6641	61.3474	55.6641	61.8849	55.6641	61.3644	55.6641	61.7784	55.6641	61.3984	55.6641	61.6797	55.6641	61.4484	55.6641	61.5907	55.6641	61.5131
58.5938	63.0991	58.5938	63.0143	58.5938	63.1753	58.5938	62.9234	58.5938	63.24	58.5938	62.8287	58.5938	63.2905	58.5938	62.7321	58.5938	63.3242	58.5938	62.6352	58.5938	63.3393	58.5938	62.5399	58.5938	63.3347	58.5938	62.4477	58.5938	63.3102	58.5938	62.3605	58.5938	63.2664	58.5938	62.2804	58.5938	63.2044	58.5938	62.2094	58.5938	63.1261	58.5938	62.1498	58.5938	63.0334	58.5938	62.1041	58.5938	62.9288	58.5938	62.0751	58.5938	62.8151	58.5938	62.0653	58.5938	62.6956	58.5938	62.0771	58.5938	62.5743	58.5938	62.1118	58.5938	62.4559	58.5938	62.1695	58.5938	62.3456	58.5938	62.2486
60.0586	63.9743	60.0586	63.9303	60.0586	64.0068	60.0586	63.8768	60.0586	64.0266	60.0586	63.817	60.0586	64.0334	60.0586	63.7542	60.0586	64.0278	60.0586	63.6921	60.0586	64.0112	60.0586	63.6338	60.0586	63.9851	60.0586	63.5822	60.0586	63.9518	60.0586	63.5392	60.0586	63.9137	60.0586	63.5061	60.0586	63.873	60.0586	63.4833	60.0586	63.8321	60.0586	63.4707	60.0586	63.7926	60.0586	63.4675	60.0586	63.7556	60.0586	63.4727	60.0586	63.7214	60.0586	63.4849	60.0586	63.6896	60.0586	63.5027	60.0586	63.6598	60.0586	63.5247	60.0586	63.6312	60.0586	63.5495	60.0586	63.6032	60.0586	63.5759
62.9883	64.3832	62.9883	64.3193	62.9883	64.4337	62.9883	64.2437	62.9883	64.4692	62.9883	64.1587	62.9883	64.4884	62.9883	64.0667	62.9883	64.49	62.9883	63.971	62.9883	64.4733	62.9883	63.8747	62.9883	64.4383	62.9883	63.7815	62.9883	64.3862	62.9883	63.6947	62.9883	64.3193	62.9883	63.6172	62.9883	64.2408	62.9883	63.5519	62.9883	64.1549	62.9883	63.5006	62.9883	64.0657	62.9883	63.4648	62.9883	63.9771	62.9883	63.4452	62.9883	63.8921	62.9883	63.4415	62.9883	63.8126	62.9883	63.4528	62.9883	63.7394	62.9883	63.4775	62.9883	63.6727	62.9883	63.5136	62.9883	63.6125	62.9883	63.5592
64.4531	65.0571	64.4531	64.9737	64.4531	65.1182	64.4531	64.8711	64.4531	65.1549	64.4531	64.7527	64.4531	65.1654	64.4531	64.6224	64.4531	65.1488	64.4531	64.4844	64.4531	65.1051	64.4531	64.3428	64.4531	65.035	64.4531	64.2021	64.4531	64.9406	64.4531	64.0661	64.4531	64.8251	64.4531	63.9387	64.4531	64.6926	64.4531	63.823	64.4531	64.5481	64.4531	63.7221	64.4531	64.3971	64.4531	63.6384	64.4531	64.2453	64.4531	63.5741	64.4531	64.0984	64.4531	63.5306	64.4531	63.9613	64.4531	63.509	64.4531	63.8382	64.4531	63.5099	64.4531	63.732	64.4531	63.5331	64.4531	63.6449	64.4531	63.5783
67.3828	65.6521	67.3828	65.5788	67.3828	65.7157	67.3828	65.4985	67.3828	65.7671	67.3828	65.4145	67.3828	65.8046	67.3828	65.3299	67.3828	65.8269	67.3828	65.2476	67.3828	65.8338	67.3828	65.1702	67.3828	65.8253	67.3828	65.1	67.3828	65.8021	67.3828	65.0384	67.3828	65.7654	67.3828	64.9867	67.3828	65.7164	67.3828	64.9453	67.3828	65.6565	67.3828	64.9147	67.3828	65.5873	67.3828	64.8952	67.3828	65.5105	67.3828	64.8871	67.3828	65.4281	67.3828	64.8907	67.3828	65.3427	67.3828	64.9067	67.3828	65.2571	67.3828	64.9356	67.3828	65.1747	67.3828	64.9776	67.3828	65.0988	67.3828	65.0324
