"SPL Horizontal"
"On-Axis"		"10°"		"-10°"		"20°"		"-20°"		"30°"		"-30°"		"40°"		"-40°"		"50°"		"-50°"		"60°"		"-60°"		"70°"		"-70°"		"80°"		"-80°"		"90°"		"-90°"		"100°"		"-100°"		"110°"		"-110°"		"120°"		"-120°"		"130°"		"-130°"		"140°"		"-140°"		"150°"		"-150°"		"160°"		"-160°"		"170°"		"-170°"		"180°"
"Frequency / Hz"	"Sound Pressure Level / dB (re 20 µPa/V)  [2.83  V @ 1. m]"	"Frequency / Hz"	"Sound Pressure Level / dB (re 20 µPa/V)  [2.83  V @ 1. m]"	"Frequency / Hz"	"Sound Pressure Level / dB (re 20 µPa/V)  [2.83  V @ 1. m]"	"Frequency / Hz"	"Sound Pressure Level / dB (re 20 µPa/V)  [2.83  V @ 1. m]"	"Frequency / Hz"	"Sound Pressure Level / dB (re 20 µPa/V)  [2.83  V @ 1. m]"	"Frequency / Hz"	"Sound Pressure Level / dB (re 20 µPa/V)  [2.83  V @ 1. m]"	"Frequency / Hz"	"Sound Pressure Level / dB (re 20 µPa/V)  [2.83  V @ 1. m]"	"Frequency / Hz"	"Sound Pressure Level / dB (re 20 µPa/V)  [2.83  V @ 1. m]"	"Frequency / Hz"	"Sound Pressure Level / dB (re 20 µPa/V)  [2.83  V @ 1. m]"	"Frequency / Hz"	"Sound Pressure Level / dB (re 20 µPa/V)  [2.83  V @ 1. m]"	"Frequency / Hz"	"Sound Pressure Level / dB (re 20 µPa/V)  [2.83  V @ 1. m]"	"Frequency / Hz"	"Sound Pressure Level / dB (re 20 µPa/V)  [2.83  V @ 1. m]"	"Frequency / Hz"	"Sound Pressure Level / dB (re 20 µPa/V)  [2.83  V @ 1. m]"	"Frequency / Hz"	"Sound Pressure Level / dB (re 20 µPa/V)  [2.83  V @ 1. m]"	"Frequency / Hz"	"Sound Pressure Level / dB (re 20 µPa/V)  [2.83  V @ 1. m]"	"Frequency / Hz"	"Sound Pressure Level / dB (re 20 µPa/V)  [2.83  V @ 1. m]"	"Frequency / Hz"	"Sound Pressure Level / dB (re 20 µPa/V)  [2.83  V @ 1. m]"	"Frequency / Hz"	"Sound Pressure Level / dB (re 20 µPa/V)  [2.83  V @ 1. m]"	"Frequency / Hz"	"Sound Pressure Level / dB (re 20 µPa/V)  [2.83  V @ 1. m]"	"Frequency / Hz"	"Sound Pressure Level / dB (re 20 µPa/V)  [2.83  V @ 1. m]"	"Frequency / Hz"	"Sound Pressure Level / dB (re 20 µPa/V)  [2.83  V @ 1. m]"	"Frequency / Hz"	"Sound Pressure Level / dB (re 20 µPa/V)  [2.83  V @ 1. m]"	"Frequency / Hz"	"Sound Pressure Level / dB (re 20 µPa/V)  [2.83  V @ 1. m]"	"Frequency / Hz"	"Sound Pressure Level / dB (re 20 µPa/V)  [2.83  V @ 1. m]"	"Frequency / Hz"	"Sound Pressure Level / dB (re 20 µPa/V)  [2.83  V @ 1. m]"	"Frequency / Hz"	"Sound Pressure Level / dB (re 20 µPa/V)  [2.83  V @ 1. m]"	"Frequency / Hz"	"Sound Pressure Level / dB (re 20 µPa/V)  [2.83  V @ 1. m]"	"Frequency / Hz"	"Sound Pressure Level / dB (re 20 µPa/V)  [2.83  V @ 1. m]"	"Frequency / Hz"	"Sound Pressure Level / dB (re 20 µPa/V)  [2.83  V @ 1. m]"	"Frequency / Hz"	"Sound Pressure Level / dB (re 20 µPa/V)  [2.83  V @ 1. m]"	"Frequency / Hz"	"Sound Pressure Level / dB (re 20 µPa/V)  [2.83  V @ 1. m]"	"Frequency / Hz"	"Sound Pressure Level / dB (re 20 µPa/V)  [2.83  V @ 1. m]"	"Frequency / Hz"	"Sound Pressure Level / dB (re 20 µPa/V)  [2.83  V @ 1. m]"	"Frequency / Hz"	"Sound Pressure Level / dB (re 20 µPa/V)  [2.83  V @ 1. m]"	"Frequency / Hz"	"Sound Pressure Level / dB (re 20 µPa/V)  [2.83  V @ 1. m]"	"Frequency / Hz"	"Sound Pressure Level / dB (re 20 µPa/V)  [2.83  V @ 1. m]"
20.5078	62.7269	20.5078	62.7124	20.5078	62.7328	20.5078	62.6895	20.5078	62.7298	20.5078	62.6577	20.5078	62.7167	20.5078	62.6165	20.5078	62.6925	20.5078	62.5653	20.5078	62.6558	20.5078	62.5038	20.5078	62.6053	20.5078	62.432	20.5078	62.5406	20.5078	62.3509	20.5078	62.462	20.5078	62.2622	20.5078	62.3708	20.5078	62.1684	20.5078	62.27	20.5078	62.0726	20.5078	62.1635	20.5078	61.9785	20.5078	62.0561	20.5078	61.89	20.5078	61.953	20.5078	61.8112	20.5078	61.8596	20.5078	61.746	20.5078	61.7806	20.5078	61.6978	20.5078	61.7199	20.5078	61.6695	20.5078	61.6803	20.5078	61.6634
21.9727	64.4696	21.9727	64.4358	21.9727	64.4962	21.9727	64.396	21.9727	64.5138	21.9727	64.3511	21.9727	64.5206	21.9727	64.3015	21.9727	64.5149	21.9727	64.2474	21.9727	64.495	21.9727	64.1887	21.9727	64.4601	21.9727	64.1256	21.9727	64.4101	21.9727	64.0585	21.9727	64.346	21.9727	63.9883	21.9727	64.2695	21.9727	63.9165	21.9727	64.1837	21.9727	63.8451	21.9727	64.092	21.9727	63.7769	21.9727	63.9983	21.9727	63.715	21.9727	63.9068	21.9727	63.6627	21.9727	63.8213	21.9727	63.6232	21.9727	63.7454	21.9727	63.5992	21.9727	63.6823	21.9727	63.5926	21.9727	63.6347	21.9727	63.6044
23.4375	65.406	23.4375	65.3915	23.4375	65.4128	23.4375	65.3699	23.4375	65.4109	23.4375	65.3414	23.4375	65.3993	23.4375	65.3062	23.4375	65.3767	23.4375	65.2639	23.4375	65.3424	23.4375	65.2145	23.4375	65.2959	23.4375	65.1581	23.4375	65.2374	23.4375	65.0951	23.4375	65.1682	23.4375	65.0265	23.4375	65.0904	23.4375	64.9539	23.4375	65.007	23.4375	64.8794	23.4375	64.9215	23.4375	64.8058	23.4375	64.8378	23.4375	64.7361	23.4375	64.7595	23.4375	64.6736	23.4375	64.6902	23.4375	64.6215	23.4375	64.6328	23.4375	64.5826	23.4375	64.5895	23.4375	64.5589	23.4375	64.5623	23.4375	64.5519
24.9023	66.1754	24.9023	66.1599	24.9023	66.1812	24.9023	66.1354	24.9023	66.1768	24.9023	66.102	24.9023	66.1612	24.9023	66.0601	24.9023	66.1339	24.9023	66.0099	24.9023	66.0943	24.9023	65.9517	24.9023	66.0424	24.9023	65.8864	24.9023	65.9789	24.9023	65.8152	24.9023	65.9051	24.9023	65.7397	24.9023	65.8233	24.9023	65.6622	24.9023	65.7366	24.9023	65.5852	24.9023	65.6484	24.9023	65.5113	24.9023	65.5626	24.9023	65.4434	24.9023	65.4828	24.9023	65.384	24.9023	65.4126	24.9023	65.3354	24.9023	65.3547	24.9023	65.2997	24.9023	65.3114	24.9023	65.2785	24.9023	65.284	24.9023	65.273
26.3672	66.9187	26.3672	66.9049	26.3672	66.924	26.3672	66.8831	26.3672	66.9202	26.3672	66.8532	26.3672	66.9067	26.3672	66.8154	26.3672	66.8828	26.3672	66.7695	26.3672	66.8477	26.3672	66.716	26.3672	66.8013	26.3672	66.6554	26.3672	66.744	26.3672	66.5887	26.3672	66.6768	26.3672	66.5176	26.3672	66.6016	26.3672	66.444	26.3672	66.5212	26.3672	66.3706	26.3672	66.4387	26.3672	66.3	26.3672	66.3577	26.3672	66.235	26.3672	66.2818	26.3672	66.1782	26.3672	66.2143	26.3672	66.1321	26.3672	66.158	26.3672	66.0986	26.3672	66.1153	26.3672	66.0794	26.3672	66.0875	26.3672	66.0755
27.832	67.7455	27.832	67.7284	27.832	67.7529	27.832	67.7022	27.832	67.75	27.832	67.6673	27.832	67.7363	27.832	67.624	27.832	67.7111	27.832	67.5728	27.832	67.6741	27.832	67.5143	27.832	67.6255	27.832	67.4496	27.832	67.5657	27.832	67.3798	27.832	67.4962	27.832	67.3067	27.832	67.4189	27.832	67.2325	27.832	67.3367	27.832	67.1594	27.832	67.2527	27.832	67.0901	27.832	67.1703	27.832	67.027	27.832	67.0931	27.832	66.9725	27.832	67.0243	27.832	66.9289	27.832	66.9667	27.832	66.8978	27.832	66.9224	27.832	66.8809	27.832	66.8929	27.832	66.8791
29.2969	68.4704	29.2969	68.459	29.2969	68.4718	29.2969	68.4381	29.2969	68.4628	29.2969	68.4077	29.2969	68.4431	29.2969	68.3683	29.2969	68.4124	29.2969	68.3199	29.2969	68.3704	29.2969	68.2633	29.2969	68.3175	29.2969	68.1992	29.2969	68.2544	29.2969	68.1288	29.2969	68.1827	29.2969	68.0542	29.2969	68.1043	29.2969	67.9774	29.2969	68.022	29.2969	67.9011	29.2969	67.9389	29.2969	67.8279	29.2969	67.8584	29.2969	67.7607	29.2969	67.7838	29.2969	67.702	29.2969	67.7183	29.2969	67.6539	29.2969	67.6645	29.2969	67.6183	29.2969	67.6244	29.2969	67.5967	29.2969	67.5995	29.2969	67.5902
30.7617	69.2711	30.7617	69.2596	30.7617	69.2726	30.7617	69.2382	30.7617	69.2634	30.7617	69.2075	30.7617	69.2435	30.7617	69.1678	30.7617	69.2126	30.7617	69.1197	30.7617	69.1708	30.7617	69.064	30.7617	69.1188	30.7617	69.0017	30.7617	69.0575	30.7617	68.9343	30.7617	68.9887	30.7617	68.8635	30.7617	68.9145	30.7617	68.7916	30.7617	68.8374	30.7617	68.7208	30.7617	68.7605	30.7617	68.6536	30.7617	68.6866	30.7617	68.5924	30.7617	68.6187	30.7617	68.5393	30.7617	68.5592	30.7617	68.4963	30.7617	68.5103	30.7617	68.4649	30.7617	68.4737	30.7617	68.4463	30.7617	68.4506	30.7617	68.4414
32.2266	69.7393	32.2266	69.7279	32.2266	69.7397	32.2266	69.7058	32.2266	69.7288	32.2266	69.6735	32.2266	69.7065	32.2266	69.6312	32.2266	69.6727	32.2266	69.5796	32.2266	69.6275	32.2266	69.5194	32.2266	69.5716	32.2266	69.4519	32.2266	69.5061	32.2266	69.3785	32.2266	69.4328	32.2266	69.3013	32.2266	69.354	32.2266	69.2229	32.2266	69.2724	32.2266	69.1458	32.2266	69.1912	32.2266	69.0729	32.2266	69.1132	32.2266	69.007	32.2266	69.0416	32.2266	68.9503	32.2266	68.9787	32.2266	68.905	32.2266	68.9267	32.2266	68.8727	32.2266	68.8874	32.2266	68.8544	32.2266	68.8618	32.2266	68.8507
33.6914	70.1148	33.6914	70.1059	33.6914	70.1129	33.6914	70.0863	33.6914	70.1	33.6914	70.0563	33.6914	70.0761	33.6914	70.0163	33.6914	70.0413	33.6914	69.967	33.6914	69.9958	33.6914	69.9092	33.6914	69.9403	33.6914	69.8442	33.6914	69.8759	33.6914	69.7738	33.6914	69.8043	33.6914	69.7	33.6914	69.7277	33.6914	69.6252	33.6914	69.6488	33.6914	69.5517	33.6914	69.5706	33.6914	69.4822	33.6914	69.4962	33.6914	69.4189	33.6914	69.4285	33.6914	69.364	33.6914	69.3699	33.6914	69.3194	33.6914	69.3226	33.6914	69.2864	33.6914	69.2879	33.6914	69.2661	33.6914	69.2667	33.6914	69.2595
35.1562	71.1975	35.1562	71.191	35.1562	71.1922	35.1562	71.1727	35.1562	71.1753	35.1562	71.143	35.1562	71.1469	35.1562	71.1021	35.1562	71.1074	35.1562	71.0507	35.1562	71.0574	35.1562	70.9897	35.1562	70.9977	35.1562	70.9207	35.1562	70.9296	35.1562	70.8456	35.1562	70.8548	35.1562	70.7665	35.1562	70.7756	35.1562	70.6862	35.1562	70.6945	35.1562	70.6075	35.1562	70.6143	35.1562	70.5331	35.1562	70.5381	35.1562	70.4656	35.1562	70.4687	35.1562	70.4071	35.1562	70.4086	35.1562	70.3596	35.1562	70.3599	35.1562	70.3245	35.1562	70.3242	35.1562	70.3028	35.1562	70.3025	35.1562	70.2954
36.6211	71.4499	36.6211	71.4438	36.6211	71.4441	36.6211	71.4258	36.6211	71.4266	36.6211	71.3961	36.6211	71.3975	36.6211	71.355	36.6211	71.3573	36.6211	71.3033	36.6211	71.3066	36.6211	71.2419	36.6211	71.2464	36.6211	71.1725	36.6211	71.1781	36.6211	71.097	36.6211	71.1035	36.6211	71.0179	36.6211	71.0248	36.6211	70.9379	36.6211	70.9447	36.6211	70.8598	36.6211	70.8661	36.6211	70.7864	36.6211	70.7918	36.6211	70.7202	36.6211	70.7245	36.6211	70.6632	36.6211	70.6664	36.6211	70.6174	36.6211	70.6195	36.6211	70.5838	36.6211	70.585	36.6211	70.5634	36.6211	70.5639	36.6211	70.5567
38.0859	71.9043	38.0859	71.8947	38.0859	71.9017	38.0859	71.8731	38.0859	71.8868	38.0859	71.8397	38.0859	71.8598	38.0859	71.7951	38.0859	71.821	38.0859	71.7399	38.0859	71.771	38.0859	71.6754	38.0859	71.7108	38.0859	71.6031	38.0859	71.6417	38.0859	71.5249	38.0859	71.5658	38.0859	71.4435	38.0859	71.4854	38.0859	71.3616	38.0859	71.4032	38.0859	71.2822	38.0859	71.3221	38.0859	71.2082	38.0859	71.245	38.0859	71.1421	38.0859	71.1746	38.0859	71.0861	38.0859	71.1133	38.0859	71.042	38.0859	71.063	38.0859	71.0108	38.0859	71.0251	38.0859	70.9933	38.0859	71.0005	38.0859	70.9898
39.5508	72.5184	39.5508	72.5108	39.5508	72.5142	39.5508	72.4915	39.5508	72.4984	39.5508	72.4609	39.5508	72.471	39.5508	72.4194	39.5508	72.4328	39.5508	72.368	39.5508	72.3844	39.5508	72.3077	39.5508	72.327	39.5508	72.2403	39.5508	72.262	39.5508	72.1677	39.5508	72.1915	39.5508	72.0924	39.5508	72.1176	39.5508	72.0169	39.5508	72.043	39.5508	71.9441	39.5508	71.9701	39.5508	71.8764	39.5508	71.9015	39.5508	71.8162	39.5508	71.8393	39.5508	71.7653	39.5508	71.7855	39.5508	71.7252	39.5508	71.7414	39.5508	71.6969	39.5508	71.7083	39.5508	71.681	39.5508	71.6869	39.5508	71.6777
41.0156	73.055	41.0156	73.0555	41.0156	73.0406	41.0156	73.0422	41.0156	73.0125	41.0156	73.0152	41.0156	72.9713	41.0156	72.9751	41.0156	72.9177	41.0156	72.9229	41.0156	72.853	41.0156	72.8598	41.0156	72.7788	41.0156	72.7874	41.0156	72.6973	41.0156	72.7081	41.0156	72.6111	41.0156	72.6243	41.0156	72.5233	41.0156	72.539	41.0156	72.4371	41.0156	72.4551	41.0156	72.3557	41.0156	72.3755	41.0156	72.282	41.0156	72.3028	41.0156	72.2185	41.0156	72.239	41.0156	72.1671	41.0156	72.1856	41.0156	72.129	41.0156	72.1438	41.0156	72.1047	41.0156	72.1143	41.0156	72.0943	41.0156	72.0977
42.4805	73.5399	42.4805	73.528	42.4805	73.5363	42.4805	73.5009	42.4805	73.517	42.4805	73.459	42.4805	73.4824	42.4805	73.4033	42.4805	73.4327	42.4805	73.335	42.4805	73.369	42.4805	73.2557	42.4805	73.2924	42.4805	73.1674	42.4805	73.2046	42.4805	73.0725	42.4805	73.1081	42.4805	72.9738	42.4805	73.0057	42.4805	72.8742	42.4805	72.9008	42.4805	72.777	42.4805	72.7973	42.4805	72.6853	42.4805	72.6989	42.4805	72.602	42.4805	72.6095	42.4805	72.5298	42.4805	72.5323	42.4805	72.4709	42.4805	72.4703	42.4805	72.427	42.4805	72.4252	42.4805	72.3996	42.4805	72.3982	42.4805	72.3898
43.9453	74.1239	43.9453	74.1158	43.9453	74.1184	43.9453	74.0941	43.9453	74.0992	43.9453	74.0596	43.9453	74.0666	43.9453	74.0129	43.9453	74.0211	43.9453	73.9551	43.9453	73.9637	43.9453	73.8877	43.9453	73.8956	43.9453	73.8123	43.9453	73.8186	43.9453	73.731	43.9453	73.7348	43.9453	73.6461	43.9453	73.647	43.9453	73.5603	43.9453	73.558	43.9453	73.4763	43.9453	73.4711	43.9453	73.3968	43.9453	73.3892	43.9453	73.3244	43.9453	73.3154	43.9453	73.2615	43.9453	73.2521	43.9453	73.21	43.9453	73.2015	43.9453	73.1715	43.9453	73.165	43.9453	73.1471	43.9453	73.1436	43.9453	73.1376
45.4102	74.5988	45.4102	74.5889	45.4102	74.5961	45.4102	74.5666	45.4102	74.5809	45.4102	74.5325	45.4102	74.5535	45.4102	74.4874	45.4102	74.5143	45.4102	74.4323	45.4102	74.4643	45.4102	74.3686	45.4102	74.4046	45.4102	74.2982	45.4102	74.3371	45.4102	74.2232	45.4102	74.2636	45.4102	74.1459	45.4102	74.1866	45.4102	74.0691	45.4102	74.1086	45.4102	73.9952	45.4102	74.0324	45.4102	73.9268	45.4102	73.9605	45.4102	73.866	45.4102	73.8953	45.4102	73.8146	45.4102	73.8387	45.4102	73.7739	45.4102	73.7924	45.4102	73.7452	45.4102	73.7576	45.4102	73.7289	45.4102	73.7352	45.4102	73.7255
46.875	75.0247	46.875	75.0116	46.875	75.0239	46.875	74.985	46.875	75.0095	46.875	74.9456	46.875	74.9816	46.875	74.8945	46.875	74.9413	46.875	74.8333	46.875	74.8897	46.875	74.7639	46.875	74.8284	46.875	74.6887	46.875	74.7595	46.875	74.6104	46.875	74.6855	46.875	74.5318	46.875	74.6088	46.875	74.4558	46.875	74.5324	46.875	74.385	46.875	74.4586	46.875	74.3215	46.875	74.3899	46.875	74.2672	46.875	74.328	46.875	74.2231	46.875	74.2745	46.875	74.1902	46.875	74.2303	46.875	74.1687	46.875	74.1962	46.875	74.1587	46.875	74.1727	46.875	74.1601
48.3398	75.3646	48.3398	75.3499	48.3398	75.3644	48.3398	75.3208	48.3398	75.3496	48.3398	75.2782	48.3398	75.3206	48.3398	75.2233	48.3398	75.2784	48.3398	75.158	48.3398	75.2244	48.3398	75.0845	48.3398	75.1604	48.3398	75.0055	48.3398	75.0888	48.3398	74.924	48.3398	75.0122	48.3398	74.8431	48.3398	74.9334	48.3398	74.7656	48.3398	74.8554	48.3398	74.6943	48.3398	74.7807	48.3398	74.6315	48.3398	74.7118	48.3398	74.5788	48.3398	74.6503	48.3398	74.5371	48.3398	74.5976	48.3398	74.5069	48.3398	74.5543	48.3398	74.4881	48.3398	74.5207	48.3398	74.4805	48.3398	74.4971	48.3398	74.4836
51.2695	76.2288	51.2695	76.2147	51.2695	76.2276	51.2695	76.186	51.2695	76.2114	51.2695	76.1437	51.2695	76.1805	51.2695	76.0894	51.2695	76.136	51.2695	76.0251	51.2695	76.0797	51.2695	75.9532	51.2695	76.0135	51.2695	75.8764	51.2695	75.9401	51.2695	75.7976	51.2695	75.8621	51.2695	75.7196	51.2695	75.7826	51.2695	75.645	51.2695	75.7045	51.2695	75.5762	51.2695	75.6305	51.2695	75.515	51.2695	75.5628	51.2695	75.4629	51.2695	75.5033	51.2695	75.4206	51.2695	75.4531	51.2695	75.3886	51.2695	75.4129	51.2695	75.367	51.2695	75.383	51.2695	75.3556	51.2695	75.3636	51.2695	75.3545
52.7344	76.7145	52.7344	76.6997	52.7344	76.713	52.7344	76.6691	52.7344	76.6955	52.7344	76.6238	52.7344	76.6625	52.7344	76.5652	52.7344	76.6153	52.7344	76.4955	52.7344	76.5556	52.7344	76.4173	52.7344	76.4857	52.7344	76.3334	52.7344	76.4081	52.7344	76.2472	52.7344	76.3257	52.7344	76.1617	52.7344	76.2417	52.7344	76.0802	52.7344	76.159	52.7344	76.0052	52.7344	76.0804	52.7344	75.9389	52.7344	76.0081	52.7344	75.8828	52.7344	75.944	52.7344	75.838	52.7344	75.8892	52.7344	75.8048	52.7344	75.8446	52.7344	75.7834	52.7344	75.8105	52.7344	75.7734	52.7344	75.7872	52.7344	75.7748
54.1992	77.0937	54.1992	77.0812	54.1992	77.0892	54.1992	77.0522	54.1992	77.0682	54.1992	77.0077	54.1992	77.0312	54.1992	76.9492	54.1992	76.9799	54.1992	76.879	54.1992	76.916	54.1992	76.7997	54.1992	76.8421	54.1992	76.7144	54.1992	76.7611	54.1992	76.6265	54.1992	76.6761	54.1992	76.5393	54.1992	76.5904	54.1992	76.4559	54.1992	76.5071	54.1992	76.3793	54.1992	76.4289	54.1992	76.3116	54.1992	76.3582	54.1992	76.2544	54.1992	76.2964	54.1992	76.2087	54.1992	76.2445	54.1992	76.1747	54.1992	76.203	54.1992	76.1523	54.1992	76.1719	54.1992	76.1412	54.1992	76.1513	54.1992	76.141
55.6641	77.4398	55.6641	77.4278	55.6641	77.4315	55.6641	77.396	55.6641	77.4032	55.6641	77.3456	55.6641	77.3559	55.6641	77.2785	55.6641	77.2912	55.6641	77.1972	55.6641	77.2117	55.6641	77.1051	55.6641	77.1204	55.6641	77.0059	55.6641	77.0211	55.6641	76.9036	55.6641	76.9178	55.6641	76.8022	55.6641	76.8146	55.6641	76.7056	55.6641	76.7156	55.6641	76.617	55.6641	76.6243	55.6641	76.5387	55.6641	76.5435	55.6641	76.4723	55.6641	76.475	55.6641	76.4185	55.6641	76.4197	55.6641	76.3774	55.6641	76.3776	55.6641	76.3485	55.6641	76.3483	55.6641	76.3314	55.6641	76.3312	55.6641	76.3257
58.5938	78.2011	58.5938	78.1919	58.5938	78.1934	58.5938	78.1662	58.5938	78.1688	58.5938	78.125	58.5938	78.1283	58.5938	78.0699	58.5938	78.0733	58.5938	78.0029	58.5938	78.0057	58.5938	77.9266	58.5938	77.9281	58.5938	77.8438	58.5938	77.8437	58.5938	77.7575	58.5938	77.7556	58.5938	77.6709	58.5938	77.6672	58.5938	77.5867	58.5938	77.5817	58.5938	77.5077	58.5938	77.5018	58.5938	77.436	58.5938	77.4296	58.5938	77.3731	58.5938	77.3668	58.5938	77.3204	58.5938	77.3145	58.5938	77.2785	58.5938	77.2736	58.5938	77.2479	58.5938	77.2444	58.5938	77.2291	58.5938	77.2272	58.5938	77.2221
60.0586	78.5766	60.0586	78.5645	60.0586	78.5705	60.0586	78.5348	60.0586	78.5465	60.0586	78.4885	60.0586	78.5057	60.0586	78.4277	60.0586	78.4497	60.0586	78.3548	60.0586	78.3809	60.0586	78.2729	60.0586	78.3022	60.0586	78.1857	60.0586	78.217	60.0586	78.0966	60.0586	78.1287	60.0586	78.0092	60.0586	78.0409	60.0586	77.9267	60.0586	77.9569	60.0586	77.8518	60.0586	77.8794	60.0586	77.7862	60.0586	77.8104	60.0586	77.731	60.0586	77.7514	60.0586	77.6867	60.0586	77.7029	60.0586	77.6532	60.0586	77.6652	60.0586	77.6302	60.0586	77.638	60.0586	77.6173	60.0586	77.6211	60.0586	77.6143
62.9883	79.2031	62.9883	79.1907	62.9883	79.1952	62.9883	79.1584	62.9883	79.1676	62.9883	79.1074	62.9883	79.1214	62.9883	79.0397	62.9883	79.0586	62.9883	78.9581	62.9883	78.982	62.9883	78.8661	62.9883	78.8948	62.9883	78.7676	62.9883	78.8008	62.9883	78.6668	62.9883	78.704	62.9883	78.5681	62.9883	78.6081	62.9883	78.4751	62.9883	78.5168	62.9883	78.3911	62.9883	78.4329	62.9883	78.3181	62.9883	78.3583	62.9883	78.2576	62.9883	78.2944	62.9883	78.2099	62.9883	78.2416	62.9883	78.1749	62.9883	78.2001	62.9883	78.1519	62.9883	78.1694	62.9883	78.1403	62.9883	78.1493	62.9883	78.1396
64.4531	79.5033	64.4531	79.4911	64.4531	79.4954	64.4531	79.4592	64.4531	79.4678	64.4531	79.409	64.4531	79.422	64.4531	79.3428	64.4531	79.36	64.4531	79.2634	64.4531	79.2847	64.4531	79.1746	64.4531	79.1997	64.4531	79.0803	64.4531	79.1086	64.4531	78.9846	64.4531	79.0154	64.4531	78.8914	64.4531	78.9239	64.4531	78.8041	64.4531	78.8373	64.4531	78.7254	64.4531	78.7582	64.4531	78.6569	64.4531	78.6883	64.4531	78.5999	64.4531	78.6287	64.4531	78.5546	64.4531	78.5797	64.4531	78.521	64.4531	78.5412	64.4531	78.4986	64.4531	78.5128	64.4531	78.4871	64.4531	78.4944	64.4531	78.4858
67.3828	79.9531	67.3828	79.9325	67.3828	79.9534	67.3828	79.8924	67.3828	79.9335	67.3828	79.8349	67.3828	79.8948	67.3828	79.7629	67.3828	79.8398	67.3828	79.6805	67.3828	79.7719	67.3828	79.5919	67.3828	79.695	67.3828	79.5017	67.3828	79.6134	67.3828	79.4145	67.3828	79.5314	67.3828	79.3342	67.3828	79.4529	67.3828	79.2639	67.3828	79.3809	67.3828	79.2056	67.3828	79.3173	67.3828	79.1599	67.3828	79.2631	67.3828	79.1265	67.3828	79.2182	67.3828	79.1046	67.3828	79.1818	67.3828	79.0924	67.3828	79.1527	67.3828	79.0884	67.3828	79.1298	67.3828	79.091	67.3828	79.1121	67.3828	79.0992
