"SPL Vertical"
"On-Axis"		"10°"		"-10°"		"20°"		"-20°"		"30°"		"-30°"		"40°"		"-40°"		"50°"		"-50°"		"60°"		"-60°"		"70°"		"-70°"		"80°"		"-80°"		"90°"		"-90°"		"100°"		"-100°"		"110°"		"-110°"		"120°"		"-120°"		"130°"		"-130°"		"140°"		"-140°"		"150°"		"-150°"		"160°"		"-160°"		"170°"		"-170°"		"180°"
"Frequency [Hz]"	"Sound Pessure Level [dB]  / [2.83V 1m] "	"Frequency [Hz]"	"Sound Pessure Level [dB]  / [2.83V 1m] "	"Frequency [Hz]"	"Sound Pessure Level [dB]  / [2.83V 1m] "	"Frequency [Hz]"	"Sound Pessure Level [dB]  / [2.83V 1m] "	"Frequency [Hz]"	"Sound Pessure Level [dB]  / [2.83V 1m] "	"Frequency [Hz]"	"Sound Pessure Level [dB]  / [2.83V 1m] "	"Frequency [Hz]"	"Sound Pessure Level [dB]  / [2.83V 1m] "	"Frequency [Hz]"	"Sound Pessure Level [dB]  / [2.83V 1m] "	"Frequency [Hz]"	"Sound Pessure Level [dB]  / [2.83V 1m] "	"Frequency [Hz]"	"Sound Pessure Level [dB]  / [2.83V 1m] "	"Frequency [Hz]"	"Sound Pessure Level [dB]  / [2.83V 1m] "	"Frequency [Hz]"	"Sound Pessure Level [dB]  / [2.83V 1m] "	"Frequency [Hz]"	"Sound Pessure Level [dB]  / [2.83V 1m] "	"Frequency [Hz]"	"Sound Pessure Level [dB]  / [2.83V 1m] "	"Frequency [Hz]"	"Sound Pessure Level [dB]  / [2.83V 1m] "	"Frequency [Hz]"	"Sound Pessure Level [dB]  / [2.83V 1m] "	"Frequency [Hz]"	"Sound Pessure Level [dB]  / [2.83V 1m] "	"Frequency [Hz]"	"Sound Pessure Level [dB]  / [2.83V 1m] "	"Frequency [Hz]"	"Sound Pessure Level [dB]  / [2.83V 1m] "	"Frequency [Hz]"	"Sound Pessure Level [dB]  / [2.83V 1m] "	"Frequency [Hz]"	"Sound Pessure Level [dB]  / [2.83V 1m] "	"Frequency [Hz]"	"Sound Pessure Level [dB]  / [2.83V 1m] "	"Frequency [Hz]"	"Sound Pessure Level [dB]  / [2.83V 1m] "	"Frequency [Hz]"	"Sound Pessure Level [dB]  / [2.83V 1m] "	"Frequency [Hz]"	"Sound Pessure Level [dB]  / [2.83V 1m] "	"Frequency [Hz]"	"Sound Pessure Level [dB]  / [2.83V 1m] "	"Frequency [Hz]"	"Sound Pessure Level [dB]  / [2.83V 1m] "	"Frequency [Hz]"	"Sound Pessure Level [dB]  / [2.83V 1m] "	"Frequency [Hz]"	"Sound Pessure Level [dB]  / [2.83V 1m] "	"Frequency [Hz]"	"Sound Pessure Level [dB]  / [2.83V 1m] "	"Frequency [Hz]"	"Sound Pessure Level [dB]  / [2.83V 1m] "	"Frequency [Hz]"	"Sound Pessure Level [dB]  / [2.83V 1m] "	"Frequency [Hz]"	"Sound Pessure Level [dB]  / [2.83V 1m] "	"Frequency [Hz]"	"Sound Pessure Level [dB]  / [2.83V 1m] "	"Frequency [Hz]"	"Sound Pessure Level [dB]  / [2.83V 1m] "	"Frequency [Hz]"	"Sound Pessure Level [dB]  / [2.83V 1m] "
20.5078	43.6186	20.5078	43.3569	20.5078	43.8699	20.5078	43.1077	20.5078	44.0905	20.5078	42.8893	20.5078	44.2658	20.5078	42.708	20.5078	44.386	20.5078	42.5547	20.5078	44.4431	20.5078	42.4072	20.5078	44.4274	20.5078	42.236	20.5078	44.3271	20.5078	42.0099	20.5078	44.1281	20.5078	41.7011	20.5078	43.8159	20.5078	41.287	20.5078	43.3771	20.5078	40.7529	20.5078	42.8004	20.5078	40.0951	20.5078	42.0796	20.5078	39.3271	20.5078	41.217	20.5078	38.4904	20.5078	40.2318	20.5078	37.6679	20.5078	39.1725	20.5078	36.9929	20.5078	38.132	20.5078	36.6317	20.5078	37.2558	20.5078	36.7157
21.9727	45.86	21.9727	45.5877	21.9727	46.105	21.9727	45.3071	21.9727	46.3055	21.9727	45.034	21.9727	46.4501	21.9727	44.7772	21.9727	46.5343	21.9727	44.5374	21.9727	46.5589	21.9727	44.3092	21.9727	46.5277	21.9727	44.0837	21.9727	46.4441	21.9727	43.8516	21.9727	46.3106	21.9727	43.6056	21.9727	46.1276	21.9727	43.3431	21.9727	45.8952	21.9727	43.0678	21.9727	45.6126	21.9727	42.7921	21.9727	45.2802	21.9727	42.5385	21.9727	44.8994	21.9727	42.3392	21.9727	44.4753	21.9727	42.232	21.9727	44.0184	21.9727	42.25	21.9727	43.5484	21.9727	42.4098	21.9727	43.0962	21.9727	42.7024
23.4375	44.8792	23.4375	44.6706	23.4375	45.0932	23.4375	44.4794	23.4375	45.298	23.4375	44.312	23.4375	45.4779	23.4375	44.1689	23.4375	45.6192	23.4375	44.0444	23.4375	45.7102	23.4375	43.928	23.4375	45.742	23.4375	43.8058	23.4375	45.708	23.4375	43.6637	23.4375	45.604	23.4375	43.4893	23.4375	45.4278	23.4375	43.2746	23.4375	45.1805	23.4375	43.0192	23.4375	44.8657	23.4375	42.7324	23.4375	44.4913	23.4375	42.4357	23.4375	44.0696	23.4375	42.1624	23.4375	43.6178	23.4375	41.9541	23.4375	43.159	23.4375	41.8513	23.4375	42.7219	23.4375	41.8814	23.4375	42.3403	23.4375	42.0499
24.9023	52.5498	24.9023	52.4467	24.9023	52.6456	24.9023	52.3419	24.9023	52.7287	24.9023	52.2392	24.9023	52.794	24.9023	52.1407	24.9023	52.8372	24.9023	52.0453	24.9023	52.8548	24.9023	51.9502	24.9023	52.8439	24.9023	51.8508	24.9023	52.802	24.9023	51.743	24.9023	52.7277	24.9023	51.6237	24.9023	52.6201	24.9023	51.4924	24.9023	52.4801	24.9023	51.3512	24.9023	52.3098	24.9023	51.2061	24.9023	52.1131	24.9023	51.0665	24.9023	51.8964	24.9023	50.9454	24.9023	51.6686	24.9023	50.8575	24.9023	51.4415	24.9023	50.8171	24.9023	51.2294	24.9023	50.8343	24.9023	51.0481	24.9023	50.9128
26.3672	52.263	26.3672	52.0465	26.3672	52.4489	26.3672	51.8156	26.3672	52.5924	26.3672	51.5867	26.3672	52.687	26.3672	51.3733	26.3672	52.7318	26.3672	51.1836	26.3672	52.7302	26.3672	51.0201	26.3672	52.6874	26.3672	50.8809	26.3672	52.609	26.3672	50.7616	26.3672	52.4993	26.3672	50.6578	26.3672	52.3618	26.3672	50.566	26.3672	52.199	26.3672	50.4847	26.3672	52.0133	26.3672	50.4149	26.3672	51.8075	26.3672	50.3605	26.3672	51.5862	26.3672	50.3273	26.3672	51.356	26.3672	50.3231	26.3672	51.1258	26.3672	50.3556	26.3672	50.907	26.3672	50.4306	26.3672	50.7116	26.3672	50.5502
27.832	51.5763	27.832	51.4925	27.832	51.6956	27.832	51.4438	27.832	51.8452	27.832	51.4258	27.832	52.0149	27.832	51.4319	27.832	52.1909	27.832	51.4551	27.832	52.3593	27.832	51.4891	27.832	52.5076	27.832	51.5288	27.832	52.6272	27.832	51.57	27.832	52.7134	27.832	51.6102	27.832	52.7647	27.832	51.6485	27.832	52.7826	27.832	51.6858	27.832	52.7703	27.832	51.7246	27.832	52.7318	27.832	51.769	27.832	52.6713	27.832	51.8231	27.832	52.5928	27.832	51.8905	27.832	52.4998	27.832	51.9729	27.832	52.3962	27.832	52.069	27.832	52.2863	27.832	52.1753
29.2969	55.8955	29.2969	55.8172	29.2969	55.9692	29.2969	55.7391	29.2969	56.0335	29.2969	55.6653	29.2969	56.0846	29.2969	55.5984	29.2969	56.1197	29.2969	55.5399	29.2969	56.1376	29.2969	55.49	29.2969	56.138	29.2969	55.4483	29.2969	56.1219	29.2969	55.414	29.2969	56.0911	29.2969	55.3864	29.2969	56.0476	29.2969	55.3654	29.2969	55.9942	29.2969	55.3512	29.2969	55.9336	29.2969	55.3445	29.2969	55.8685	29.2969	55.3461	29.2969	55.8015	29.2969	55.357	29.2969	55.7345	29.2969	55.3778	29.2969	55.6691	29.2969	55.4082	29.2969	55.6066	29.2969	55.4476	29.2969	55.5481	29.2969	55.4946
30.7617	53.9039	30.7617	53.8524	30.7617	53.9498	30.7617	53.7958	30.7617	53.9894	30.7617	53.7343	30.7617	54.0215	30.7617	53.6684	30.7617	54.0447	30.7617	53.5985	30.7617	54.0568	30.7617	53.5256	30.7617	54.0561	30.7617	53.4512	30.7617	54.041	30.7617	53.377	30.7617	54.0107	30.7617	53.3054	30.7617	53.9655	30.7617	53.2391	30.7617	53.9065	30.7617	53.1813	30.7617	53.8357	30.7617	53.1353	30.7617	53.7558	30.7617	53.1044	30.7617	53.6693	30.7617	53.0914	30.7617	53.5788	30.7617	53.0984	30.7617	53.4872	30.7617	53.1258	30.7617	53.3971	30.7617	53.1725	30.7617	53.3121	30.7617	53.2359
32.2266	55.8063	32.2266	55.7279	32.2266	55.8816	32.2266	55.6486	32.2266	55.9509	32.2266	55.5697	32.2266	56.0109	32.2266	55.4923	32.2266	56.0575	32.2266	55.417	32.2266	56.0871	32.2266	55.3442	32.2266	56.0965	32.2266	55.2744	32.2266	56.0838	32.2266	55.2081	32.2266	56.0483	32.2266	55.146	32.2266	55.9907	32.2266	55.089	32.2266	55.9131	32.2266	55.0387	32.2266	55.8187	32.2266	54.9973	32.2266	55.7116	32.2266	54.9672	32.2266	55.5966	32.2266	54.9515	32.2266	55.4788	32.2266	54.9529	32.2266	55.3632	32.2266	54.9738	32.2266	55.2549	32.2266	55.0154	32.2266	55.1583	32.2266	55.0775
33.6914	56.563	33.6914	56.4749	33.6914	56.6489	33.6914	56.3877	33.6914	56.7295	33.6914	56.3035	33.6914	56.8011	33.6914	56.2244	33.6914	56.8603	33.6914	56.1518	33.6914	56.9038	33.6914	56.0871	33.6914	56.9295	33.6914	56.0311	33.6914	56.9358	33.6914	55.9849	33.6914	56.9225	33.6914	55.9493	33.6914	56.8905	33.6914	55.9253	33.6914	56.8416	33.6914	55.9136	33.6914	56.7784	33.6914	55.9148	33.6914	56.7038	33.6914	55.9293	33.6914	56.621	33.6914	55.9569	33.6914	56.5332	33.6914	55.9975	33.6914	56.4432	33.6914	56.0502	33.6914	56.3538	33.6914	56.1138	33.6914	56.2676	33.6914	56.1869
35.1562	57.8183	35.1562	57.7617	35.1562	57.866	35.1562	57.6973	35.1562	57.9042	35.1562	57.6271	35.1562	57.9325	35.1562	57.5535	35.1562	57.9504	35.1562	57.4795	35.1562	57.9576	35.1562	57.4081	35.1562	57.9536	35.1562	57.342	35.1562	57.9379	35.1562	57.2838	35.1562	57.911	35.1562	57.2356	35.1562	57.8735	35.1562	57.199	35.1562	57.8269	35.1562	57.1752	35.1562	57.773	35.1562	57.1647	35.1562	57.714	35.1562	57.1677	35.1562	57.652	35.1562	57.1835	35.1562	57.5885	35.1562	57.211	35.1562	57.5251	35.1562	57.2485	35.1562	57.4629	35.1562	57.2942	35.1562	57.4029	35.1562	57.3462
36.6211	57.9656	36.6211	57.8856	36.6211	58.0395	36.6211	57.8013	36.6211	58.1053	36.6211	57.7149	36.6211	58.161	36.6211	57.6285	36.6211	58.2047	36.6211	57.5448	36.6211	58.2343	36.6211	57.4665	36.6211	58.2484	36.6211	57.3961	36.6211	58.2461	36.6211	57.336	36.6211	58.2274	36.6211	57.2884	36.6211	58.1931	36.6211	57.2549	36.6211	58.1448	36.6211	57.237	36.6211	58.0846	36.6211	57.2352	36.6211	58.015	36.6211	57.2497	36.6211	57.9383	36.6211	57.2799	36.6211	57.8569	36.6211	57.3245	36.6211	57.7729	36.6211	57.3817	36.6211	57.6882	36.6211	57.4491	36.6211	57.6047	36.6211	57.5242
38.0859	58.7906	38.0859	58.6959	38.0859	58.8845	38.0859	58.6039	38.0859	58.974	38.0859	58.5175	38.0859	59.0556	38.0859	58.4392	38.0859	59.1258	38.0859	58.3714	38.0859	59.1819	38.0859	58.3157	38.0859	59.222	38.0859	58.2733	38.0859	59.2449	38.0859	58.2455	38.0859	59.2507	38.0859	58.2327	38.0859	59.24	38.0859	58.2354	38.0859	59.2144	38.0859	58.2535	38.0859	59.1757	38.0859	58.2865	38.0859	59.1259	38.0859	58.333	38.0859	59.0669	38.0859	58.3913	38.0859	59.0006	38.0859	58.4589	38.0859	58.9286	38.0859	58.5333	38.0859	58.8524	38.0859	58.6119	38.0859	58.7732	38.0859	58.6925
39.5508	59.7956	39.5508	59.7186	39.5508	59.8626	39.5508	59.6345	39.5508	59.9175	39.5508	59.5463	39.5508	59.9587	39.5508	59.4575	39.5508	59.9852	39.5508	59.3714	39.5508	59.9968	39.5508	59.2914	39.5508	59.9937	39.5508	59.2206	39.5508	59.9766	39.5508	59.1616	39.5508	59.9469	39.5508	59.1165	39.5508	59.9064	39.5508	59.087	39.5508	59.8571	39.5508	59.0742	39.5508	59.8012	39.5508	59.0782	39.5508	59.7408	39.5508	59.0984	39.5508	59.678	39.5508	59.1329	39.5508	59.6139	39.5508	59.1791	39.5508	59.5495	39.5508	59.2338	39.5508	59.4851	39.5508	59.2939	39.5508	59.4208	39.5508	59.3568
41.0156	60.5819	41.0156	60.5059	41.0156	60.6482	41.0156	60.4221	41.0156	60.7027	41.0156	60.3327	41.0156	60.744	41.0156	60.2403	41.0156	60.7704	41.0156	60.1474	41.0156	60.7808	41.0156	60.057	41.0156	60.7744	41.0156	59.972	41.0156	60.751	41.0156	59.8952	41.0156	60.7112	41.0156	59.8292	41.0156	60.6563	41.0156	59.7764	41.0156	60.5882	41.0156	59.7383	41.0156	60.5095	41.0156	59.7162	41.0156	60.4231	41.0156	59.7106	41.0156	60.3321	41.0156	59.7213	41.0156	60.2397	41.0156	59.7474	41.0156	60.1485	41.0156	59.7879	41.0156	60.061	41.0156	59.8412	41.0156	59.9794	41.0156	59.9056
42.4805	60.9494	42.4805	60.8864	42.4805	61.0069	42.4805	60.8195	42.4805	61.0573	42.4805	60.7504	42.4805	61.0989	42.4805	60.6806	42.4805	61.13	42.4805	60.6119	42.4805	61.1492	42.4805	60.5463	42.4805	61.1555	42.4805	60.4858	42.4805	61.1484	42.4805	60.4327	42.4805	61.128	42.4805	60.389	42.4805	61.095	42.4805	60.3565	42.4805	61.0508	42.4805	60.3367	42.4805	60.9973	42.4805	60.3304	42.4805	60.9365	42.4805	60.3376	42.4805	60.8708	42.4805	60.3577	42.4805	60.8024	42.4805	60.3896	42.4805	60.7332	42.4805	60.4314	42.4805	60.6651	42.4805	60.4814	42.4805	60.5996	42.4805	60.538
43.9453	61.5904	43.9453	61.5172	43.9453	61.6572	43.9453	61.4395	43.9453	61.7156	43.9453	61.3593	43.9453	61.7639	43.9453	61.2788	43.9453	61.8	43.9453	61.2003	43.9453	61.8225	43.9453	61.1261	43.9453	61.8302	43.9453	61.0587	43.9453	61.8224	43.9453	61.0001	43.9453	61.7991	43.9453	60.9522	43.9453	61.761	43.9453	60.9163	43.9453	61.7092	43.9453	60.8934	43.9453	61.6454	43.9453	60.8838	43.9453	61.5718	43.9453	60.8875	43.9453	61.491	43.9453	60.9042	43.9453	61.4061	43.9453	60.9331	43.9453	61.3201	43.9453	60.9736	43.9453	61.2364	43.9453	61.0252	43.9453	61.1579	43.9453	61.0869
45.4102	62.4517	45.4102	62.3746	45.4102	62.5209	45.4102	62.2926	45.4102	62.579	45.4102	62.2091	45.4102	62.6238	45.4102	62.1267	45.4102	62.6535	45.4102	62.0481	45.4102	62.6675	45.4102	61.9754	45.4102	62.6656	45.4102	61.9105	45.4102	62.6485	45.4102	61.8551	45.4102	62.6175	45.4102	61.8104	45.4102	62.5742	45.4102	61.7775	45.4102	62.5206	45.4102	61.7572	45.4102	62.4586	45.4102	61.7499	45.4102	62.3903	45.4102	61.7555	45.4102	62.3178	45.4102	61.7738	45.4102	62.2428	45.4102	61.8039	45.4102	62.1672	45.4102	61.8451	45.4102	62.0929	45.4102	61.896	45.4102	62.0217	45.4102	61.9555
46.875	62.704	46.875	62.6162	46.875	62.7884	46.875	62.5286	46.875	62.8657	46.875	62.4444	46.875	62.9326	46.875	62.3665	46.875	62.9861	46.875	62.2973	46.875	63.0242	46.875	62.2392	46.875	63.0457	46.875	62.1936	46.875	63.0505	46.875	62.162	46.875	63.0394	46.875	62.1452	46.875	63.0143	46.875	62.1433	46.875	62.9773	46.875	62.1559	46.875	62.931	46.875	62.182	46.875	62.8779	46.875	62.2198	46.875	62.8202	46.875	62.2673	46.875	62.7598	46.875	62.3219	46.875	62.6977	46.875	62.3814	46.875	62.6346	46.875	62.4436	46.875	62.571	46.875	62.5072
48.3398	63.5688	48.3398	63.495	48.3398	63.634	48.3398	63.4153	48.3398	63.688	48.3398	63.3324	48.3398	63.7286	48.3398	63.249	48.3398	63.7539	48.3398	63.1679	48.3398	63.7628	48.3398	63.0914	48.3398	63.7547	48.3398	63.0223	48.3398	63.7301	48.3398	62.9625	48.3398	63.6899	48.3398	62.9138	48.3398	63.636	48.3398	62.8774	48.3398	63.5707	48.3398	62.8538	48.3398	63.497	48.3398	62.843	48.3398	63.418	48.3398	62.8441	48.3398	63.3371	48.3398	62.8563	48.3398	63.2575	48.3398	62.8783	48.3398	63.1819	48.3398	62.9091	48.3398	63.1123	48.3398	62.9482	48.3398	63.0498	48.3398	62.9951
51.2695	64.4251	51.2695	64.3578	51.2695	64.4838	51.2695	64.2841	51.2695	64.5323	51.2695	64.2066	51.2695	64.5692	51.2695	64.1278	51.2695	64.5933	51.2695	64.0505	51.2695	64.6044	51.2695	63.9775	51.2695	64.6022	51.2695	63.9117	51.2695	64.5873	51.2695	63.8555	51.2695	64.5606	51.2695	63.8109	51.2695	64.5232	51.2695	63.7794	51.2695	64.4768	51.2695	63.7621	51.2695	64.4232	51.2695	63.7589	51.2695	64.3641	51.2695	63.7696	51.2695	64.3013	51.2695	63.793	51.2695	64.2362	51.2695	63.8275	51.2695	64.1704	51.2695	63.8714	51.2695	64.1049	51.2695	63.9227	51.2695	64.0409	51.2695	63.9797
52.7344	64.9534	52.7344	64.8859	52.7344	65.012	52.7344	64.8117	52.7344	65.0598	52.7344	64.7336	52.7344	65.0953	52.7344	64.6544	52.7344	65.1171	52.7344	64.5772	52.7344	65.1248	52.7344	64.5049	52.7344	65.1181	52.7344	64.4402	52.7344	65.0976	52.7344	64.3856	52.7344	65.0644	52.7344	64.3427	52.7344	65.02	52.7344	64.3126	52.7344	64.9664	52.7344	64.2957	52.7344	64.906	52.7344	64.2917	52.7344	64.8412	52.7344	64.2997	52.7344	64.7743	52.7344	64.3185	52.7344	64.7075	52.7344	64.3463	52.7344	64.6427	52.7344	64.3818	52.7344	64.5811	52.7344	64.4237	52.7344	64.5238	52.7344	64.4712
54.1992	65.3449	54.1992	65.2713	54.1992	65.4106	54.1992	65.1928	54.1992	65.4659	54.1992	65.1124	54.1992	65.5085	54.1992	65.0332	54.1992	65.5369	54.1992	64.9579	54.1992	65.5503	54.1992	64.8893	54.1992	65.5483	54.1992	64.8295	54.1992	65.5316	54.1992	64.7805	54.1992	65.5013	54.1992	64.7434	54.1992	65.4589	54.1992	64.719	54.1992	65.4066	54.1992	64.7074	54.1992	65.3467	54.1992	64.7078	54.1992	65.2815	54.1992	64.7195	54.1992	65.2137	54.1992	64.7411	54.1992	65.1455	54.1992	64.7713	54.1992	65.0788	54.1992	64.8087	54.1992	65.0154	54.1992	64.8523	54.1992	64.9561	54.1992	64.9016
55.6641	65.7045	55.6641	65.6259	55.6641	65.7748	55.6641	65.5421	55.6641	65.8339	55.6641	65.4564	55.6641	65.8799	55.6641	65.3718	55.6641	65.9111	55.6641	65.2914	55.6641	65.9268	55.6641	65.2179	55.6641	65.9269	55.6641	65.1534	55.6641	65.9119	55.6641	65.0999	55.6641	65.8827	55.6641	65.0587	55.6641	65.8409	55.6641	65.0307	55.6641	65.7882	55.6641	65.0161	55.6641	65.7267	55.6641	65.0146	55.6641	65.6587	55.6641	65.0255	55.6641	65.5862	55.6641	65.0479	55.6641	65.5116	55.6641	65.0807	55.6641	65.4369	55.6641	65.1228	55.6641	65.3642	55.6641	65.1732	55.6641	65.295	55.6641	65.2309
58.5938	66.965	58.5938	66.8991	58.5938	67.0226	58.5938	66.8273	58.5938	67.0699	58.5938	66.7521	58.5938	67.1048	58.5938	66.6758	58.5938	67.1259	58.5938	66.6007	58.5938	67.1324	58.5938	66.529	58.5938	67.124	58.5938	66.463	58.5938	67.1013	58.5938	66.4045	58.5938	67.0653	58.5938	66.3551	58.5938	67.0174	58.5938	66.316	58.5938	66.9596	58.5938	66.2881	58.5938	66.894	58.5938	66.2718	58.5938	66.8226	58.5938	66.267	58.5938	66.748	58.5938	66.2737	58.5938	66.6724	58.5938	66.2915	58.5938	66.5983	58.5938	66.3199	58.5938	66.528	58.5938	66.3585	58.5938	66.4635	58.5938	66.4066
60.0586	67.278	60.0586	67.2114	60.0586	67.3369	60.0586	67.1397	60.0586	67.3859	60.0586	67.0654	60.0586	67.4232	60.0586	66.9913	60.0586	67.4475	60.0586	66.9199	60.0586	67.4584	60.0586	66.8538	60.0586	67.4559	60.0586	66.7952	60.0586	67.4409	60.0586	66.746	60.0586	67.4147	60.0586	66.708	60.0586	67.3789	60.0586	66.682	60.0586	67.3354	60.0586	66.6687	60.0586	67.2858	60.0586	66.6681	60.0586	67.2317	60.0586	66.6796	60.0586	67.1746	60.0586	66.7024	60.0586	67.1155	60.0586	66.7352	60.0586	67.0553	60.0586	66.7766	60.0586	66.995	60.0586	66.8249	60.0586	66.9356	60.0586	66.8784
62.9883	68.0064	62.9883	67.9393	62.9883	68.0669	62.9883	67.8678	62.9883	68.1187	62.9883	67.7944	62.9883	68.1602	62.9883	67.7218	62.9883	68.1899	62.9883	67.6525	62.9883	68.2071	62.9883	67.589	62.9883	68.2116	62.9883	67.5335	62.9883	68.2038	62.9883	67.488	62.9883	68.1845	62.9883	67.4541	62.9883	68.1552	62.9883	67.4329	62.9883	68.1175	62.9883	67.4249	62.9883	68.0731	62.9883	67.4303	62.9883	68.0238	62.9883	67.4485	62.9883	67.9707	62.9883	67.4784	62.9883	67.9149	62.9883	67.5184	62.9883	67.857	62.9883	67.5665	62.9883	67.7978	62.9883	67.6205	62.9883	67.7379	62.9883	67.6783
64.4531	68.3892	64.4531	68.3184	64.4531	68.4532	64.4531	68.2436	64.4531	68.508	64.4531	68.1672	64.4531	68.5516	64.4531	68.092	64.4531	68.5821	64.4531	68.0203	64.4531	68.5986	64.4531	67.9545	64.4531	68.6007	64.4531	67.8968	64.4531	68.5888	64.4531	67.8491	64.4531	68.564	64.4531	67.813	64.4531	68.5281	64.4531	67.7895	64.4531	68.4832	64.4531	67.7794	64.4531	68.4315	64.4531	67.7825	64.4531	68.3753	64.4531	67.7985	64.4531	68.3164	64.4531	67.8262	64.4531	68.2562	64.4531	67.864	64.4531	68.1957	64.4531	67.9099	64.4531	68.1354	64.4531	67.9618	64.4531	68.0759	64.4531	68.0176
67.3828	69.2917	67.3828	69.22	67.3828	69.3516	67.3828	69.1391	67.3828	69.3975	67.3828	69.0518	67.3828	69.428	67.3828	68.9613	67.3828	69.442	67.3828	68.8706	67.3828	69.4394	67.3828	68.7829	67.3828	69.4205	67.3828	68.7009	67.3828	69.3862	67.3828	68.6272	67.3828	69.3383	67.3828	68.564	67.3828	69.2785	67.3828	68.5131	67.3828	69.2094	67.3828	68.4757	67.3828	69.1334	67.3828	68.4529	67.3828	69.053	67.3828	68.4447	67.3828	68.9708	67.3828	68.451	67.3828	68.889	67.3828	68.4711	67.3828	68.8096	67.3828	68.504	67.3828	68.7343	67.3828	68.5481	67.3828	68.6647	67.3828	68.6022
68.8477	69.6363	68.8477	69.5689	68.8477	69.6912	68.8477	69.4913	68.8477	69.7319	68.8477	69.4064	68.8477	69.757	68.8477	69.3173	68.8477	69.7662	68.8477	69.2272	68.8477	69.7595	68.8477	69.1392	68.8477	69.7376	68.8477	69.0564	68.8477	69.7017	68.8477	68.9814	68.8477	69.6536	68.8477	68.9164	68.8477	69.5952	68.8477	68.8635	68.8477	69.5287	68.8477	68.8241	68.8477	69.4563	68.8477	68.7991	68.8477	69.3802	68.8477	68.789	68.8477	69.3023	68.8477	68.7938	68.8477	69.2242	68.8477	68.8128	68.8477	69.1477	68.8477	68.8451	68.8477	69.0743	68.8477	68.8892	68.8477	69.0056	68.8477	68.9433
