"SPL Vertical"
"On-Axis"		"10°"		"-10°"		"20°"		"-20°"		"30°"		"-30°"		"40°"		"-40°"		"50°"		"-50°"		"60°"		"-60°"		"70°"		"-70°"		"80°"		"-80°"		"90°"		"-90°"		"100°"		"-100°"		"110°"		"-110°"		"120°"		"-120°"		"130°"		"-130°"		"140°"		"-140°"		"150°"		"-150°"		"160°"		"-160°"		"170°"		"-170°"		"180°"
"Frequency [Hz]"	"Sound Pessure Level [dB]   [2.83  V @ 1. m]"	"Frequency [Hz]"	"Sound Pessure Level [dB]   [2.83  V @ 1. m]"	"Frequency [Hz]"	"Sound Pessure Level [dB]   [2.83  V @ 1. m]"	"Frequency [Hz]"	"Sound Pessure Level [dB]   [2.83  V @ 1. m]"	"Frequency [Hz]"	"Sound Pessure Level [dB]   [2.83  V @ 1. m]"	"Frequency [Hz]"	"Sound Pessure Level [dB]   [2.83  V @ 1. m]"	"Frequency [Hz]"	"Sound Pessure Level [dB]   [2.83  V @ 1. m]"	"Frequency [Hz]"	"Sound Pessure Level [dB]   [2.83  V @ 1. m]"	"Frequency [Hz]"	"Sound Pessure Level [dB]   [2.83  V @ 1. m]"	"Frequency [Hz]"	"Sound Pessure Level [dB]   [2.83  V @ 1. m]"	"Frequency [Hz]"	"Sound Pessure Level [dB]   [2.83  V @ 1. m]"	"Frequency [Hz]"	"Sound Pessure Level [dB]   [2.83  V @ 1. m]"	"Frequency [Hz]"	"Sound Pessure Level [dB]   [2.83  V @ 1. m]"	"Frequency [Hz]"	"Sound Pessure Level [dB]   [2.83  V @ 1. m]"	"Frequency [Hz]"	"Sound Pessure Level [dB]   [2.83  V @ 1. m]"	"Frequency [Hz]"	"Sound Pessure Level [dB]   [2.83  V @ 1. m]"	"Frequency [Hz]"	"Sound Pessure Level [dB]   [2.83  V @ 1. m]"	"Frequency [Hz]"	"Sound Pessure Level [dB]   [2.83  V @ 1. m]"	"Frequency [Hz]"	"Sound Pessure Level [dB]   [2.83  V @ 1. m]"	"Frequency [Hz]"	"Sound Pessure Level [dB]   [2.83  V @ 1. m]"	"Frequency [Hz]"	"Sound Pessure Level [dB]   [2.83  V @ 1. m]"	"Frequency [Hz]"	"Sound Pessure Level [dB]   [2.83  V @ 1. m]"	"Frequency [Hz]"	"Sound Pessure Level [dB]   [2.83  V @ 1. m]"	"Frequency [Hz]"	"Sound Pessure Level [dB]   [2.83  V @ 1. m]"	"Frequency [Hz]"	"Sound Pessure Level [dB]   [2.83  V @ 1. m]"	"Frequency [Hz]"	"Sound Pessure Level [dB]   [2.83  V @ 1. m]"	"Frequency [Hz]"	"Sound Pessure Level [dB]   [2.83  V @ 1. m]"	"Frequency [Hz]"	"Sound Pessure Level [dB]   [2.83  V @ 1. m]"	"Frequency [Hz]"	"Sound Pessure Level [dB]   [2.83  V @ 1. m]"	"Frequency [Hz]"	"Sound Pessure Level [dB]   [2.83  V @ 1. m]"	"Frequency [Hz]"	"Sound Pessure Level [dB]   [2.83  V @ 1. m]"	"Frequency [Hz]"	"Sound Pessure Level [dB]   [2.83  V @ 1. m]"	"Frequency [Hz]"	"Sound Pessure Level [dB]   [2.83  V @ 1. m]"	"Frequency [Hz]"	"Sound Pessure Level [dB]   [2.83  V @ 1. m]"	"Frequency [Hz]"	"Sound Pessure Level [dB]   [2.83  V @ 1. m]"	"Frequency [Hz]"	"Sound Pessure Level [dB]   [2.83  V @ 1. m]"
20.5078	70.325	20.5078	70.1733	20.5078	70.4664	20.5078	70.0153	20.5078	70.5931	20.5078	69.855	20.5078	70.7005	20.5078	69.6959	20.5078	70.7842	20.5078	69.5413	20.5078	70.8394	20.5078	69.3948	20.5078	70.8617	20.5078	69.2599	20.5078	70.8471	20.5078	69.1405	20.5078	70.7934	20.5078	69.0403	20.5078	70.7014	20.5078	68.9634	20.5078	70.5763	20.5078	68.9133	20.5078	70.4271	20.5078	68.8931	20.5078	70.2653	20.5078	68.9048	20.5078	70.1016	20.5078	68.9486	20.5078	69.943	20.5078	69.0224	20.5078	69.7922	20.5078	69.1218	20.5078	69.6476	20.5078	69.2401	20.5078	69.5072	20.5078	69.3705
21.9727	71.9517	21.9727	71.7588	21.9727	72.1324	21.9727	71.5594	21.9727	72.294	21.9727	71.3589	21.9727	72.4293	21.9727	71.1619	21.9727	72.5303	21.9727	70.9725	21.9727	72.5891	21.9727	70.7946	21.9727	72.5991	21.9727	70.6319	21.9727	72.5558	21.9727	70.4879	21.9727	72.4583	21.9727	70.3658	21.9727	72.3103	21.9727	70.2687	21.9727	72.1203	21.9727	70.1989	21.9727	71.9008	21.9727	70.1584	21.9727	71.6665	21.9727	70.148	21.9727	71.4315	21.9727	70.1677	21.9727	71.2072	21.9727	70.2161	21.9727	71.001	21.9727	70.2911	21.9727	70.8162	21.9727	70.3901	21.9727	70.6531	21.9727	70.5111
23.4375	72.7662	23.4375	72.5536	23.4375	72.9655	23.4375	72.3345	23.4375	73.1443	23.4375	72.1146	23.4375	73.2943	23.4375	71.8986	23.4375	73.407	23.4375	71.6909	23.4375	73.4742	23.4375	71.4951	23.4375	73.4885	23.4375	71.3147	23.4375	73.4455	23.4375	71.1528	23.4375	73.3442	23.4375	71.0125	23.4375	73.1886	23.4375	70.8968	23.4375	72.9872	23.4375	70.8086	23.4375	72.7523	23.4375	70.7506	23.4375	72.4977	23.4375	70.7252	23.4375	72.2363	23.4375	70.7344	23.4375	71.979	23.4375	70.7792	23.4375	71.734	23.4375	70.86	23.4375	71.5071	23.4375	70.9758	23.4375	71.3026	23.4375	71.1243
24.9023	73.7756	24.9023	73.569	24.9023	73.9668	24.9023	73.3533	24.9023	74.1361	24.9023	73.1338	24.9023	74.2766	24.9023	72.9157	24.9023	74.3808	24.9023	72.7036	24.9023	74.4416	24.9023	72.5014	24.9023	74.4524	24.9023	72.3128	24.9023	74.4089	24.9023	72.1414	24.9023	74.31	24.9023	71.9904	24.9023	74.159	24.9023	71.863	24.9023	73.9639	24.9023	71.7625	24.9023	73.7361	24.9023	71.6924	24.9023	73.488	24.9023	71.6563	24.9023	73.2307	24.9023	71.6576	24.9023	72.9731	24.9023	71.6991	24.9023	72.7219	24.9023	71.7822	24.9023	72.483	24.9023	71.9063	24.9023	72.2628	24.9023	72.0683
26.3672	74.7768	26.3672	74.5879	26.3672	74.9518	26.3672	74.3911	26.3672	75.1064	26.3672	74.1915	26.3672	75.2336	26.3672	73.994	26.3672	75.3263	26.3672	73.8026	26.3672	75.3772	26.3672	73.6212	26.3672	75.3803	26.3672	73.453	26.3672	75.3314	26.3672	73.3011	26.3672	75.2301	26.3672	73.1682	26.3672	75.0801	26.3672	73.0569	26.3672	74.8899	26.3672	72.9698	26.3672	74.6714	26.3672	72.9092	26.3672	74.4375	26.3672	72.8775	26.3672	74.2001	26.3672	72.8768	26.3672	73.9682	26.3672	72.9087	26.3672	73.7481	26.3672	72.9742	26.3672	73.5446	26.3672	73.0729	26.3672	73.3615	26.3672	73.203
27.832	75.8419	27.832	75.667	27.832	76.0008	27.832	75.4808	27.832	76.1382	27.832	75.2876	27.832	76.2477	27.832	75.0912	27.832	76.3227	27.832	74.895	27.832	76.3564	27.832	74.7025	27.832	76.3427	27.832	74.5173	27.832	76.2775	27.832	74.3428	27.832	76.1601	27.832	74.1829	27.832	75.9942	27.832	74.0412	27.832	75.788	27.832	73.9215	27.832	75.5532	27.832	73.8279	27.832	75.3028	27.832	73.7643	27.832	75.0486	27.832	73.7344	27.832	74.8003	27.832	73.7416	27.832	74.5653	27.832	73.788	27.832	74.3497	27.832	73.8742	27.832	74.1591	27.832	73.999
29.2969	76.3789	29.2969	76.1821	29.2969	76.5623	29.2969	75.9783	29.2969	76.7252	29.2969	75.773	29.2969	76.86	29.2969	75.5709	29.2969	76.9585	29.2969	75.3762	29.2969	77.0129	29.2969	75.1922	29.2969	77.0162	29.2969	75.022	29.2969	76.9637	29.2969	74.8685	29.2969	76.8543	29.2969	74.7341	29.2969	76.6916	29.2969	74.621	29.2969	76.4847	29.2969	74.5317	29.2969	76.2468	29.2969	74.4681	29.2969	75.9928	29.2969	74.4326	29.2969	75.7371	29.2969	74.4268	29.2969	75.4909	29.2969	74.4525	29.2969	75.2622	29.2969	74.5105	29.2969	75.056	29.2969	74.6009	29.2969	74.8755	29.2969	74.7231
30.7617	77.0773	30.7617	76.8819	30.7617	77.2585	30.7617	76.6785	30.7617	77.4182	30.7617	76.4728	30.7617	77.549	30.7617	76.2699	30.7617	77.643	30.7617	76.0742	30.7617	77.693	30.7617	75.8896	30.7617	77.6931	30.7617	75.7195	30.7617	77.6398	30.7617	75.5668	30.7617	77.5336	30.7617	75.4342	30.7617	77.379	30.7617	75.3239	30.7617	77.1845	30.7617	75.238	30.7617	76.9612	30.7617	75.1783	30.7617	76.721	30.7617	75.1465	30.7617	76.4753	30.7617	75.1441	30.7617	76.2338	30.7617	75.1725	30.7617	76.0046	30.7617	75.2329	30.7617	75.7944	30.7617	75.326	30.7617	75.6087	30.7617	75.4517
32.2266	77.7512	32.2266	77.562	32.2266	77.926	32.2266	77.3647	32.2266	78.0798	32.2266	77.1649	32.2266	78.2053	32.2266	76.9678	32.2266	78.2953	32.2266	76.7778	32.2266	78.343	32.2266	76.599	32.2266	78.3428	32.2266	76.4348	32.2266	78.2912	32.2266	76.2883	32.2266	78.1882	32.2266	76.162	32.2266	78.038	32.2266	76.0581	32.2266	77.8488	32.2266	75.9783	32.2266	77.632	32.2266	75.9241	32.2266	77.4001	32.2266	75.8969	32.2266	77.1645	32.2266	75.8979	32.2266	76.9347	32.2266	75.9278	32.2266	76.7181	32.2266	75.9876	32.2266	76.5203	32.2266	76.0776	32.2266	76.3457	32.2266	76.1973
33.6914	78.3679	33.6914	78.1724	33.6914	78.549	33.6914	77.9691	33.6914	78.7086	33.6914	77.764	33.6914	78.8393	33.6914	77.5624	33.6914	78.9336	33.6914	77.3694	33.6914	78.9847	33.6914	77.1893	33.6914	78.9871	33.6914	77.026	33.6914	78.9378	33.6914	76.8828	33.6914	78.8375	33.6914	76.7624	33.6914	78.6912	33.6914	76.667	33.6914	78.5078	33.6914	76.5982	33.6914	78.2986	33.6914	76.5571	33.6914	78.0755	33.6914	76.5442	33.6914	77.8491	33.6914	76.5598	33.6914	77.6279	33.6914	76.6037	33.6914	77.4181	33.6914	76.6755	33.6914	77.2245	33.6914	76.7747	33.6914	77.051	33.6914	76.9003
35.1562	78.9681	35.1562	78.7684	35.1562	79.1519	35.1562	78.5593	35.1562	79.3127	35.1562	78.3471	35.1562	79.4429	35.1562	78.1373	35.1562	79.5353	35.1562	77.9353	35.1562	79.5827	35.1562	77.7457	35.1562	79.5794	35.1562	77.5725	35.1562	79.5221	35.1562	77.4195	35.1562	79.4111	35.1562	77.2895	35.1562	79.2513	35.1562	77.185	35.1562	79.052	35.1562	77.1075	35.1562	78.8255	35.1562	77.0584	35.1562	78.5852	35.1562	77.0381	35.1562	78.3432	35.1562	77.0468	35.1562	78.1092	35.1562	77.0844	35.1562	77.8904	35.1562	77.1506	35.1562	77.6918	35.1562	77.2451	35.1562	77.5167	35.1562	77.3674
36.6211	79.6736	36.6211	79.4728	36.6211	79.8572	36.6211	79.2613	36.6211	80.0162	36.6211	79.0455	36.6211	80.1432	36.6211	78.8309	36.6211	80.2305	36.6211	78.623	36.6211	80.2709	36.6211	78.4263	36.6211	80.2587	36.6211	78.2453	36.6211	80.1907	36.6211	78.0836	36.6211	80.0677	36.6211	77.9443	36.6211	79.895	36.6211	77.83	36.6211	79.6825	36.6211	77.7426	36.6211	79.4428	36.6211	77.6832	36.6211	79.1899	36.6211	77.6526	36.6211	78.9363	36.6211	77.6512	36.6211	78.6925	36.6211	77.6791	36.6211	78.4663	36.6211	77.7365	36.6211	78.2635	36.6211	77.8236	36.6211	78.0876	36.6211	77.9407
38.0859	80.1312	38.0859	79.9321	38.0859	80.3121	38.0859	79.7216	38.0859	80.4678	38.0859	79.5057	38.0859	80.5907	38.0859	79.2902	38.0859	80.6733	38.0859	79.0802	38.0859	80.7085	38.0859	78.8805	38.0859	80.6904	38.0859	78.6956	38.0859	80.616	38.0859	78.5293	38.0859	80.486	38.0859	78.3847	38.0859	80.3058	38.0859	78.2645	38.0859	80.0854	38.0859	78.1706	38.0859	79.8381	38.0859	78.1044	38.0859	79.5782	38.0859	78.0667	38.0859	79.3189	38.0859	78.0581	38.0859	79.0711	38.0859	78.0788	38.0859	78.8429	38.0859	78.1294	38.0859	78.6399	38.0859	78.2104	38.0859	78.4658	38.0859	78.3225
39.5508	80.8216	39.5508	80.6133	39.5508	81.0122	39.5508	80.3946	39.5508	81.1774	39.5508	80.172	39.5508	81.3091	39.5508	79.9516	39.5508	81.3992	39.5508	79.7389	39.5508	81.4398	39.5508	79.5388	39.5508	81.4248	39.5508	79.3556	39.5508	81.3508	39.5508	79.1927	39.5508	81.2185	39.5508	79.0533	39.5508	81.0336	39.5508	78.9395	39.5508	80.8064	39.5508	78.8527	39.5508	80.5507	39.5508	78.7939	39.5508	80.2815	39.5508	78.763	39.5508	80.0135	39.5508	78.7598	39.5508	79.7593	39.5508	78.7839	39.5508	79.5285	39.5508	78.835	39.5508	79.3271	39.5508	78.9134	39.5508	79.1577	39.5508	79.0204
41.0156	81.4124	41.0156	81.1988	41.0156	81.6064	41.0156	80.9726	41.0156	81.773	41.0156	80.7409	41.0156	81.9043	41.0156	80.5097	41.0156	81.9922	41.0156	80.2849	41.0156	82.0295	41.0156	80.0716	41.0156	82.0106	41.0156	79.8748	41.0156	81.9325	41.0156	79.6984	41.0156	81.7964	41.0156	79.5462	41.0156	81.6083	41.0156	79.421	41.0156	81.3786	41.0156	79.3251	41.0156	81.1207	41.0156	79.2598	41.0156	80.8492	41.0156	79.2259	41.0156	80.5775	41.0156	79.2236	41.0156	80.3172	41.0156	79.2525	41.0156	80.0768	41.0156	79.3123	41.0156	79.8625	41.0156	79.403	41.0156	79.6779	41.0156	79.5247
42.4805	81.745	42.4805	81.5387	42.4805	81.9323	42.4805	81.3201	42.4805	82.0939	42.4805	81.0949	42.4805	82.222	42.4805	80.8687	42.4805	82.3088	42.4805	80.6467	42.4805	82.347	42.4805	80.4338	42.4805	82.3302	42.4805	80.2345	42.4805	82.2552	42.4805	80.053	42.4805	82.1221	42.4805	79.893	42.4805	81.9356	42.4805	79.7576	42.4805	81.7048	42.4805	79.6495	42.4805	81.4419	42.4805	79.5707	42.4805	81.161	42.4805	79.5228	42.4805	80.8765	42.4805	79.5069	42.4805	80.6017	42.4805	79.5238	42.4805	80.3478	42.4805	79.5739	42.4805	80.123	42.4805	79.6581	42.4805	79.9322	42.4805	79.7773
43.9453	81.9181	43.9453	81.7086	43.9453	82.1096	43.9453	81.4879	43.9453	82.2758	43.9453	81.262	43.9453	82.4084	43.9453	81.0362	43.9453	82.4992	43.9453	80.8155	43.9453	82.5405	43.9453	80.6044	43.9453	82.5263	43.9453	80.4072	43.9453	82.4533	43.9453	80.2275	43.9453	82.3224	43.9453	80.0691	43.9453	82.1393	43.9453	79.9351	43.9453	81.9134	43.9453	79.828	43.9453	81.6573	43.9453	79.7502	43.9453	81.3843	43.9453	79.7038	43.9453	81.1073	43.9453	79.6903	43.9453	80.8374	43.9453	79.7113	43.9453	80.5843	43.9453	79.768	43.9453	80.3554	43.9453	79.8611	43.9453	80.1563	43.9453	79.9908
45.4102	81.9708	45.4102	81.7606	45.4102	82.1634	45.4102	81.5401	45.4102	82.3308	45.4102	81.316	45.4102	82.4648	45.4102	81.0945	45.4102	82.5577	45.4102	80.8813	45.4102	82.6024	45.4102	80.6815	45.4102	82.5934	45.4102	80.4995	45.4102	82.5282	45.4102	80.3393	45.4102	82.408	45.4102	80.2038	45.4102	82.2383	45.4102	80.0952	45.4102	82.0287	45.4102	80.0149	45.4102	81.7912	45.4102	79.9636	45.4102	81.5387	45.4102	79.9416	45.4102	81.2834	45.4102	79.9485	45.4102	81.0359	45.4102	79.984	45.4102	80.8047	45.4102	80.0482	45.4102	80.5965	45.4102	80.1411	45.4102	80.4153	45.4102	80.2634
46.875	82.3087	46.875	82.0963	46.875	82.5037	46.875	81.8744	46.875	82.6733	46.875	81.6502	46.875	82.8092	46.875	81.4304	46.875	82.9037	46.875	81.2214	46.875	82.9498	46.875	81.0286	46.875	82.9424	46.875	80.8567	46.875	82.8795	46.875	80.7095	46.875	82.7627	46.875	80.5897	46.875	82.5982	46.875	80.499	46.875	82.3959	46.875	80.4381	46.875	82.1682	46.875	80.4068	46.875	81.9284	46.875	80.4038	46.875	81.6887	46.875	80.4275	46.875	81.4597	46.875	80.476	46.875	81.2488	46.875	80.5477	46.875	81.0606	46.875	80.6417	46.875	80.8971	46.875	80.7578
48.3398	82.6648	48.3398	82.4463	48.3398	82.8647	48.3398	82.2172	48.3398	83.0377	48.3398	81.985	48.3398	83.1757	48.3398	81.7569	48.3398	83.2707	48.3398	81.5395	48.3398	83.3159	48.3398	81.3389	48.3398	83.3065	48.3398	81.1603	48.3398	83.2407	48.3398	81.0082	48.3398	83.1209	48.3398	80.8857	48.3398	82.9539	48.3398	80.7952	48.3398	82.7503	48.3398	80.7377	48.3398	82.5232	48.3398	80.7127	48.3398	82.286	48.3398	80.7191	48.3398	82.051	48.3398	80.7545	48.3398	81.8276	48.3398	80.816	48.3398	81.6221	48.3398	80.9006	48.3398	81.4373	48.3398	81.0058	48.3398	81.2738	48.3398	81.1302
51.2695	83.3228	51.2695	83.1199	51.2695	83.5004	51.2695	82.8984	51.2695	83.6457	51.2695	82.6655	51.2695	83.7521	51.2695	82.4279	51.2695	83.8134	51.2695	82.1927	51.2695	83.8243	51.2695	81.9665	51.2695	83.7816	51.2695	81.7556	51.2695	83.6845	51.2695	81.5659	51.2695	83.536	51.2695	81.4024	51.2695	83.3429	51.2695	81.2691	51.2695	83.1159	51.2695	81.169	51.2695	82.8677	51.2695	81.1036	51.2695	82.6114	51.2695	81.073	51.2695	82.3589	51.2695	81.0764	51.2695	82.1194	51.2695	81.1117	51.2695	81.8997	51.2695	81.1767	51.2695	81.7037	51.2695	81.2694	51.2695	81.5331	51.2695	81.3884
52.7344	83.6052	52.7344	83.406	52.7344	83.7771	52.7344	83.1863	52.7344	83.9154	52.7344	82.9523	52.7344	84.0133	52.7344	82.7103	52.7344	84.0648	52.7344	82.4666	52.7344	84.0645	52.7344	82.2273	52.7344	84.0089	52.7344	81.9983	52.7344	83.8964	52.7344	81.7853	52.7344	83.7294	52.7344	81.5933	52.7344	83.5137	52.7344	81.4269	52.7344	83.2595	52.7344	81.2899	52.7344	82.9795	52.7344	81.1851	52.7344	82.688	52.7344	81.1146	52.7344	82.3985	52.7344	81.0799	52.7344	82.1228	52.7344	81.0816	52.7344	81.8705	52.7344	81.1203	52.7344	81.6484	52.7344	81.1963	52.7344	81.4607	52.7344	81.3098
54.1992	83.8074	54.1992	83.606	54.1992	83.9848	54.1992	83.3875	54.1992	84.1311	54.1992	83.1582	54.1992	84.2392	54.1992	82.9243	54.1992	84.3025	54.1992	82.6918	54.1992	84.3149	54.1992	82.4659	54.1992	84.2723	54.1992	82.2517	54.1992	84.1729	54.1992	82.0537	54.1992	84.0186	54.1992	81.8758	54.1992	83.8154	54.1992	81.7215	54.1992	83.5734	54.1992	81.5938	54.1992	83.3052	54.1992	81.4955	54.1992	83.0246	54.1992	81.4289	54.1992	82.7441	54.1992	81.3964	54.1992	82.4742	54.1992	81.4	54.1992	82.2231	54.1992	81.4419	54.1992	81.9977	54.1992	81.5232	54.1992	81.8032	54.1992	81.6441
55.6641	83.7696	55.6641	83.5669	55.6641	83.9525	55.6641	83.352	55.6641	84.1083	55.6641	83.1315	55.6641	84.2295	55.6641	82.9122	55.6641	84.3091	55.6641	82.7	55.6641	84.3409	55.6641	82.5003	55.6641	84.3209	55.6641	82.3178	55.6641	84.2476	55.6641	82.1565	55.6641	84.1235	55.6641	82.0197	55.6641	83.9551	55.6641	81.9099	55.6641	83.7524	55.6641	81.829	55.6641	83.5274	55.6641	81.778	55.6641	83.292	55.6641	81.7577	55.6641	83.0571	55.6641	81.768	55.6641	82.8309	55.6641	81.8087	55.6641	82.6192	55.6641	81.8789	55.6641	82.4256	55.6641	81.9775	55.6641	82.2528	55.6641	82.1027
58.5938	84.055	58.5938	83.8469	58.5938	84.2422	58.5938	83.6256	58.5938	84.4005	58.5938	83.3986	58.5938	84.522	58.5938	83.1728	58.5938	84.5991	58.5938	82.9549	58.5938	84.6253	58.5938	82.7509	58.5938	84.5966	58.5938	82.5662	58.5938	84.5121	58.5938	82.4053	58.5938	84.3754	58.5938	82.2718	58.5938	84.1947	58.5938	82.1682	58.5938	83.9813	58.5938	82.0958	58.5938	83.7485	58.5938	82.0551	58.5938	83.5095	58.5938	82.0454	58.5938	83.2756	58.5938	82.0652	58.5938	83.056	58.5938	82.1122	58.5938	82.8565	58.5938	82.1836	58.5938	82.6794	58.5938	82.2771	58.5938	82.5246	58.5938	82.3909
60.0586	84.1611	60.0586	83.9517	60.0586	84.349	60.0586	83.7289	60.0586	84.5075	60.0586	83.5004	60.0586	84.6287	60.0586	83.2737	60.0586	84.7055	60.0586	83.0558	60.0586	84.7322	60.0586	82.8528	60.0586	84.7053	60.0586	82.6703	60.0586	84.6244	60.0586	82.5124	60.0586	84.4929	60.0586	82.3824	60.0586	84.3183	60.0586	82.2825	60.0586	84.1111	60.0586	82.2135	60.0586	83.8834	60.0586	82.1755	60.0586	83.6474	60.0586	82.1675	60.0586	83.4145	60.0586	82.1882	60.0586	83.1938	60.0586	82.2355	60.0586	82.9918	60.0586	82.3074	60.0586	82.8115	60.0586	82.4017	60.0586	82.6536	60.0586	82.5172
62.9883	84.3516	62.9883	84.1438	62.9883	84.5353	62.9883	83.9197	62.9883	84.6871	62.9883	83.6872	62.9883	84.7998	62.9883	83.4542	62.9883	84.867	62.9883	83.228	62.9883	84.8839	62.9883	83.0156	62.9883	84.8482	62.9883	82.8234	62.9883	84.7606	62.9883	82.6565	62.9883	84.6258	62.9883	82.5191	62.9883	84.452	62.9883	82.4142	62.9883	84.2501	62.9883	82.3431	62.9883	84.0318	62.9883	82.3062	62.9883	83.808	62.9883	82.3026	62.9883	83.5882	62.9883	82.3306	62.9883	83.3789	62.9883	82.3875	62.9883	83.1843	62.9883	82.4703	62.9883	83.0063	62.9883	82.576	62.9883	82.8454	62.9883	82.7017
64.4531	84.3586	64.4531	84.1443	64.4531	84.5495	64.4531	83.9149	64.4531	84.7088	64.4531	83.6788	64.4531	84.8291	64.4531	83.4443	64.4531	84.9036	64.4531	83.219	64.4531	84.9274	64.4531	83.0104	64.4531	84.8981	64.4531	82.8246	64.4531	84.8165	64.4531	82.6667	64.4531	84.6872	64.4531	82.5404	64.4531	84.5185	64.4531	82.4479	64.4531	84.321	64.4531	82.3897	64.4531	84.1062	64.4531	82.3654	64.4531	83.8851	64.4531	82.373	64.4531	83.667	64.4531	82.41	64.4531	83.4593	64.4531	82.4734	64.4531	83.2667	64.4531	82.5601	64.4531	83.0912	64.4531	82.6669	64.4531	82.9331	64.4531	82.7916
67.3828	84.3483	67.3828	84.1289	67.3828	84.5431	67.3828	83.8935	67.3828	84.7049	67.3828	83.6512	67.3828	84.8261	67.3828	83.4108	67.3828	84.9006	67.3828	83.1809	67.3828	84.9238	67.3828	82.9696	67.3828	84.8944	67.3828	82.7837	67.3828	84.8144	67.3828	82.6289	67.3828	84.6898	67.3828	82.5091	67.3828	84.5298	67.3828	82.4264	67.3828	84.3451	67.3828	82.3811	67.3828	84.1467	67.3828	82.3721	67.3828	83.9438	67.3828	82.3966	67.3828	83.7436	67.3828	82.4514	67.3828	83.5509	67.3828	82.5323	67.3828	83.3686	67.3828	82.6351	67.3828	83.1979	67.3828	82.7558	67.3828	83.0387	67.3828	82.891
68.8477	84.3512	68.8477	84.1291	68.8477	84.5471	68.8477	83.8894	68.8477	84.7082	68.8477	83.6414	68.8477	84.8271	68.8477	83.3943	68.8477	84.8977	68.8477	83.1569	68.8477	84.9158	68.8477	82.9378	68.8477	84.8804	68.8477	82.7442	68.8477	84.7943	68.8477	82.5824	68.8477	84.6639	68.8477	82.4565	68.8477	84.499	68.8477	82.3692	68.8477	84.3108	68.8477	82.321	68.8477	84.1099	68.8477	82.3107	68.8477	83.9054	68.8477	82.3356	68.8477	83.704	68.8477	82.3921	68.8477	83.5102	68.8477	82.4756	68.8477	83.3268	68.8477	82.5816	68.8477	83.1547	68.8477	82.7055	68.8477	82.9936	68.8477	82.8436
