"SPL Horizontal"
"On-Axis"		"10°"		"-10°"		"20°"		"-20°"		"30°"		"-30°"		"40°"		"-40°"		"50°"		"-50°"		"60°"		"-60°"		"70°"		"-70°"		"80°"		"-80°"		"90°"		"-90°"		"100°"		"-100°"		"110°"		"-110°"		"120°"		"-120°"		"130°"		"-130°"		"140°"		"-140°"		"150°"		"-150°"		"160°"		"-160°"		"170°"		"-170°"		"180°"
"Frequency / Hz"	"Sound Pressure Level / dB (re 20 µPa/V)  [2.83V at 1m]"	"Frequency / Hz"	"Sound Pressure Level / dB (re 20 µPa/V)  [2.83V at 1m]"	"Frequency / Hz"	"Sound Pressure Level / dB (re 20 µPa/V)  [2.83V at 1m]"	"Frequency / Hz"	"Sound Pressure Level / dB (re 20 µPa/V)  [2.83V at 1m]"	"Frequency / Hz"	"Sound Pressure Level / dB (re 20 µPa/V)  [2.83V at 1m]"	"Frequency / Hz"	"Sound Pressure Level / dB (re 20 µPa/V)  [2.83V at 1m]"	"Frequency / Hz"	"Sound Pressure Level / dB (re 20 µPa/V)  [2.83V at 1m]"	"Frequency / Hz"	"Sound Pressure Level / dB (re 20 µPa/V)  [2.83V at 1m]"	"Frequency / Hz"	"Sound Pressure Level / dB (re 20 µPa/V)  [2.83V at 1m]"	"Frequency / Hz"	"Sound Pressure Level / dB (re 20 µPa/V)  [2.83V at 1m]"	"Frequency / Hz"	"Sound Pressure Level / dB (re 20 µPa/V)  [2.83V at 1m]"	"Frequency / Hz"	"Sound Pressure Level / dB (re 20 µPa/V)  [2.83V at 1m]"	"Frequency / Hz"	"Sound Pressure Level / dB (re 20 µPa/V)  [2.83V at 1m]"	"Frequency / Hz"	"Sound Pressure Level / dB (re 20 µPa/V)  [2.83V at 1m]"	"Frequency / Hz"	"Sound Pressure Level / dB (re 20 µPa/V)  [2.83V at 1m]"	"Frequency / Hz"	"Sound Pressure Level / dB (re 20 µPa/V)  [2.83V at 1m]"	"Frequency / Hz"	"Sound Pressure Level / dB (re 20 µPa/V)  [2.83V at 1m]"	"Frequency / Hz"	"Sound Pressure Level / dB (re 20 µPa/V)  [2.83V at 1m]"	"Frequency / Hz"	"Sound Pressure Level / dB (re 20 µPa/V)  [2.83V at 1m]"	"Frequency / Hz"	"Sound Pressure Level / dB (re 20 µPa/V)  [2.83V at 1m]"	"Frequency / Hz"	"Sound Pressure Level / dB (re 20 µPa/V)  [2.83V at 1m]"	"Frequency / Hz"	"Sound Pressure Level / dB (re 20 µPa/V)  [2.83V at 1m]"	"Frequency / Hz"	"Sound Pressure Level / dB (re 20 µPa/V)  [2.83V at 1m]"	"Frequency / Hz"	"Sound Pressure Level / dB (re 20 µPa/V)  [2.83V at 1m]"	"Frequency / Hz"	"Sound Pressure Level / dB (re 20 µPa/V)  [2.83V at 1m]"	"Frequency / Hz"	"Sound Pressure Level / dB (re 20 µPa/V)  [2.83V at 1m]"	"Frequency / Hz"	"Sound Pressure Level / dB (re 20 µPa/V)  [2.83V at 1m]"	"Frequency / Hz"	"Sound Pressure Level / dB (re 20 µPa/V)  [2.83V at 1m]"	"Frequency / Hz"	"Sound Pressure Level / dB (re 20 µPa/V)  [2.83V at 1m]"	"Frequency / Hz"	"Sound Pressure Level / dB (re 20 µPa/V)  [2.83V at 1m]"	"Frequency / Hz"	"Sound Pressure Level / dB (re 20 µPa/V)  [2.83V at 1m]"	"Frequency / Hz"	"Sound Pressure Level / dB (re 20 µPa/V)  [2.83V at 1m]"	"Frequency / Hz"	"Sound Pressure Level / dB (re 20 µPa/V)  [2.83V at 1m]"	"Frequency / Hz"	"Sound Pressure Level / dB (re 20 µPa/V)  [2.83V at 1m]"	"Frequency / Hz"	"Sound Pressure Level / dB (re 20 µPa/V)  [2.83V at 1m]"	"Frequency / Hz"	"Sound Pressure Level / dB (re 20 µPa/V)  [2.83V at 1m]"
20.5078	53.04	20.5078	53.0247	20.5078	53.0704	20.5078	53.0354	20.5078	53.1165	20.5078	53.094	20.5078	53.1896	20.5078	53.2312	20.5078	53.3104	20.5078	53.4807	20.5078	53.5061	20.5078	53.8695	20.5078	53.8044	20.5078	54.4075	20.5078	54.2257	20.5078	55.081	20.5078	54.7747	20.5078	55.8557	20.5078	55.4372	20.5078	56.6854	20.5078	56.1826	20.5078	57.5216	20.5078	56.9708	20.5078	58.3205	20.5078	57.7598	20.5078	59.0443	20.5078	58.5107	20.5078	59.6624	20.5078	59.1891	20.5078	60.1503	20.5078	59.7665	20.5078	60.4896	20.5078	60.2192	20.5078	60.6682	20.5078	60.5285	20.5078	60.6807
21.2402	53.6386	21.2402	53.6258	21.2402	53.6516	21.2402	53.6252	21.2402	53.6665	21.2402	53.6626	21.2402	53.6988	21.2402	53.7753	21.2402	53.7764	21.2402	54.0053	21.2402	53.9361	21.2402	54.388	21.2402	54.2165	21.2402	54.9372	21.2402	54.6457	21.2402	55.6383	21.2402	55.2298	21.2402	56.4514	21.2402	55.9488	21.2402	57.3237	21.2402	56.7617	21.2402	58.202	21.2402	57.6184	21.2402	59.0391	21.2402	58.4697	21.2402	59.7967	21.2402	59.2723	21.2402	60.4438	21.2402	59.9906	21.2402	60.9561	21.2402	60.5958	21.2402	61.3154	21.2402	61.0651	21.2402	61.5091	21.2402	61.3808	21.2402	61.5309
21.9727	54.5788	21.9727	54.5828	21.9727	54.5797	21.9727	54.6023	21.9727	54.5884	21.9727	54.6608	21.9727	54.6213	21.9727	54.7927	21.9727	54.7066	21.9727	55.0367	21.9727	54.8809	21.9727	55.4248	21.9727	55.1804	21.9727	55.9699	21.9727	55.6293	21.9727	56.6586	21.9727	56.2298	21.9727	57.4544	21.9727	56.9587	21.9727	58.3081	21.9727	57.7743	21.9727	59.169	21.9727	58.6275	21.9727	59.9917	21.9727	59.4707	21.9727	60.7383	21.9727	60.2628	21.9727	61.3781	21.9727	60.9695	21.9727	61.8868	21.9727	61.563	21.9727	62.2459	21.9727	62.0214	21.9727	62.4424	21.9727	62.3275	21.9727	62.4698
22.7051	55.5872	22.7051	55.5721	22.7051	55.6068	22.7051	55.5732	22.7051	55.6333	22.7051	55.6158	22.7051	55.6825	22.7051	55.7364	22.7051	55.7821	22.7051	55.9759	22.7051	55.9677	22.7051	56.3675	22.7051	56.275	22.7051	56.9233	22.7051	56.7278	22.7051	57.6272	22.7051	57.3283	22.7051	58.4397	22.7051	58.0543	22.7051	59.3089	22.7051	58.8653	22.7051	60.1829	22.7051	59.7131	22.7051	61.016	22.7051	60.5511	22.7051	61.7708	22.7051	61.3382	22.7051	62.417	22.7051	62.0404	22.7051	62.931	22.7051	62.6299	22.7051	63.2944	22.7051	63.0845	22.7051	63.4949	22.7051	63.387	22.7051	63.5258
23.4375	56.5927	23.4375	56.6077	23.4375	56.6107	23.4375	56.6669	23.4375	56.6636	23.4375	56.7923	23.4375	56.7653	23.4375	57.0127	23.4375	56.9389	23.4375	57.3563	23.4375	57.2121	23.4375	57.8399	23.4375	57.6082	23.4375	58.4616	23.4375	58.1377	23.4375	59.1988	23.4375	58.7923	23.4375	60.0143	23.4375	59.546	23.4375	60.8644	23.4375	60.3615	23.4375	61.7066	23.4375	61.1971	23.4375	62.5032	23.4375	62.0134	23.4375	63.2222	23.4375	62.7754	23.4375	63.837	23.4375	63.4531	23.4375	64.3257	23.4375	64.0216	23.4375	64.6709	23.4375	64.4601	23.4375	64.8604	23.4375	64.7525	23.4375	64.8878
24.1699	58.3105	24.1699	58.3391	24.1699	58.3121	24.1699	58.4066	24.1699	58.3456	24.1699	58.5313	24.1699	58.4232	24.1699	58.7372	24.1699	58.5655	24.1699	59.0481	24.1699	58.7977	24.1699	59.4805	24.1699	59.1424	24.1699	60.036	24.1699	59.6121	24.1699	60.6995	24.1699	60.2032	24.1699	61.4414	24.1699	60.8952	24.1699	62.2241	24.1699	61.6551	24.1699	63.0087	24.1699	62.444	24.1699	63.7583	24.1699	63.2234	24.1699	64.4406	24.1699	63.9575	24.1699	65.0275	24.1699	64.6155	24.1699	65.4956	24.1699	65.1711	24.1699	65.8264	24.1699	65.6022	24.1699	66.0065	24.1699	65.892	24.1699	66.0287
25.6348	61.1055	25.6348	61.1124	25.6348	61.1265	25.6348	61.1535	25.6348	61.1771	25.6348	61.2431	25.6348	61.2666	25.6348	61.4005	25.6348	61.4107	25.6348	61.6469	25.6348	61.6285	25.6348	61.9991	25.6348	61.9378	25.6348	62.4636	25.6348	62.3497	25.6348	63.0331	25.6348	62.8639	25.6348	63.6863	25.6348	63.4671	25.6348	64.3917	25.6348	64.1347	25.6348	65.1135	25.6348	64.835	25.6348	65.8155	25.6348	65.5337	25.6348	66.4645	25.6348	66.1973	25.6348	67.0312	25.6348	66.7951	25.6348	67.4907	25.6348	67.2999	25.6348	67.823	25.6348	67.689	25.6348	68.0137	25.6348	67.9446	25.6348	68.0546
26.3672	62.4167	26.3672	62.4273	26.3672	62.4326	26.3672	62.4708	26.3672	62.4761	26.3672	62.5612	26.3672	62.5562	26.3672	62.7172	26.3672	62.688	26.3672	62.9594	26.3672	62.8902	26.3672	63.3038	26.3672	63.1805	26.3672	63.7567	26.3672	63.5709	26.3672	64.311	26.3672	64.0623	26.3672	64.9459	26.3672	64.6429	26.3672	65.6312	26.3672	65.2896	26.3672	66.3319	26.3672	65.9717	26.3672	67.0129	26.3672	66.6553	26.3672	67.6415	26.3672	67.3071	26.3672	68.189	26.3672	67.8965	26.3672	68.631	26.3672	68.3964	26.3672	68.9481	26.3672	68.7842	26.3672	69.1263	26.3672	69.042	26.3672	69.158
27.0996	64.0682	27.0996	64.0868	27.0996	64.0747	27.0996	64.1365	27.0996	64.1076	27.0996	64.2298	27.0996	64.1754	27.0996	64.3839	27.0996	64.2921	27.0996	64.6175	27.0996	64.4752	27.0996	64.9456	27.0996	64.7419	27.0996	65.3748	27.0996	65.104	27.0996	65.8992	27.0996	65.5637	27.0996	66.5008	27.0996	66.1112	27.0996	67.1521	27.0996	66.726	27.0996	67.8204	27.0996	67.3794	27.0996	68.4721	27.0996	68.0393	27.0996	69.0751	27.0996	68.6733	27.0996	69.6008	27.0996	69.2507	27.0996	70.0244	27.0996	69.7443	27.0996	70.3262	27.0996	70.1307	27.0996	70.4919	27.0996	70.3915	27.0996	70.514
27.832	65.4943	27.832	65.5152	27.832	65.5023	27.832	65.57	27.832	65.5401	27.832	65.6698	27.832	65.6146	27.832	65.829	27.832	65.7379	27.832	66.0631	27.832	65.9248	27.832	66.3845	27.832	66.1898	27.832	66.7981	27.832	66.5427	27.832	67.2989	27.832	66.9854	27.832	67.871	27.832	67.5095	27.832	68.4903	27.832	68.0965	27.832	69.1273	27.832	68.721	27.832	69.7509	27.832	69.3531	27.832	70.3308	27.832	69.962	27.832	70.8389	27.832	70.5181	27.832	71.2506	27.832	70.9942	27.832	71.5459	27.832	71.3671	27.832	71.7099	27.832	71.618	27.832	71.7343
29.2969	68.2359	29.2969	68.2611	29.2969	68.2426	29.2969	68.3222	29.2969	68.282	29.2969	68.4275	29.2969	68.3594	29.2969	68.5884	29.2969	68.4844	29.2969	68.8165	29.2969	68.6684	29.2969	69.1213	29.2969	68.9224	29.2969	69.5065	29.2969	69.254	29.2969	69.9678	29.2969	69.6646	29.2969	70.4926	29.2969	70.1475	29.2969	71.0608	29.2969	70.6876	29.2969	71.6473	29.2969	71.2632	29.2969	72.2243	29.2969	71.8485	29.2969	72.7637	29.2969	72.4152	29.2969	73.239	29.2969	72.9356	29.2969	73.626	29.2969	73.3833	29.2969	73.9046	29.2969	73.7353	29.2969	74.0598	29.2969	73.9728	29.2969	74.0829
30.0293	69.653	30.0293	69.6791	30.0293	69.6607	30.0293	69.7426	30.0293	69.7027	30.0293	69.8505	30.0293	69.7832	30.0293	70.0122	30.0293	69.9098	30.0293	70.2372	30.0293	70.0917	30.0293	70.5329	30.0293	70.3381	30.0293	70.9019	30.0293	70.6551	30.0293	71.3402	30.0293	71.0438	30.0293	71.8365	30.0293	71.4985	30.0293	72.373	30.0293	72.0066	30.0293	72.9269	30.0293	72.5489	30.0293	73.4729	30.0293	73.1018	30.0293	73.9845	30.0293	73.6394	30.0293	74.4361	30.0293	74.1349	30.0293	74.8044	30.0293	74.563	30.0293	75.0695	30.0293	74.9008	30.0293	75.2165	30.0293	75.1298	30.0293	75.2371
31.4941	73.2721	31.4941	73.3075	31.4941	73.2678	31.4941	73.3762	31.4941	73.2951	31.4941	73.4823	31.4941	73.357	31.4941	73.6318	31.4941	73.4587	31.4941	73.8306	31.4941	73.6067	31.4941	74.0837	31.4941	73.8075	31.4941	74.3932	31.4941	74.0664	31.4941	74.757	31.4941	74.3851	31.4941	75.168	31.4941	74.7608	31.4941	75.614	31.4941	75.1852	31.4941	76.0777	31.4941	75.6441	31.4941	76.5387	31.4941	76.1189	31.4941	76.9742	31.4941	76.5873	31.4941	77.361	31.4941	77.0254	31.4941	77.677	31.4941	77.4091	31.4941	77.9031	31.4941	77.7164	31.4941	78.0248	31.4941	77.9289	31.4941	78.0338
32.2266	74.8915	32.2266	74.9271	32.2266	74.8834	32.2266	74.9917	32.2266	74.9035	32.2266	75.0888	32.2266	74.9548	32.2266	75.2233	32.2266	75.042	32.2266	75.4009	32.2266	75.1711	32.2266	75.6264	32.2266	75.3483	32.2266	75.9027	32.2266	75.5785	32.2266	76.2294	32.2266	75.8642	32.2266	76.6012	32.2266	76.2037	32.2266	77.008	32.2266	76.5904	32.2266	77.4345	32.2266	77.0123	32.2266	77.8618	32.2266	77.4523	32.2266	78.2681	32.2266	77.8898	32.2266	78.6306	32.2266	78.3017	32.2266	78.9278	32.2266	78.6646	32.2266	79.1404	32.2266	78.9568	32.2266	79.2543	32.2266	79.1599	32.2266	79.2612
33.6914	77.8111	33.6914	77.8382	33.6914	77.8047	33.6914	77.8873	33.6914	77.8196	33.6914	77.9607	33.6914	77.8577	33.6914	78.0621	33.6914	77.9227	33.6914	78.1958	33.6914	78.0188	33.6914	78.3661	33.6914	78.1513	33.6914	78.5763	33.6914	78.3248	33.6914	78.8274	33.6914	78.5427	33.6914	79.1175	33.6914	78.8054	33.6914	79.4403	33.6914	79.1098	33.6914	79.7853	33.6914	79.4481	33.6914	80.1375	33.6914	79.8075	33.6914	80.4786	33.6914	80.1711	33.6914	80.7881	33.6914	80.5186	33.6914	81.0455	33.6914	80.8286	33.6914	81.2323	33.6914	81.0802	33.6914	81.334	33.6914	81.2556	33.6914	81.3423
34.4238	78.3949	34.4238	78.4153	34.4238	78.3907	34.4238	78.4527	34.4238	78.403	34.4238	78.5095	34.4238	78.4339	34.4238	78.5892	34.4238	78.4867	34.4238	78.6961	34.4238	78.5658	34.4238	78.8347	34.4238	78.6763	34.4238	79.0089	34.4238	78.8229	34.4238	79.2211	34.4238	79.0096	34.4238	79.4708	34.4238	79.2378	34.4238	79.7539	34.4238	79.5056	34.4238	80.0616	34.4238	79.8066	34.4238	80.3808	34.4238	80.1296	34.4238	80.6945	34.4238	80.4589	34.4238	80.9831	34.4238	80.7756	34.4238	81.2265	34.4238	81.0587	34.4238	81.4062	34.4238	81.2882	34.4238	81.5075	34.4238	81.4465	34.4238	81.5215
35.8887	78.3184	35.8887	78.3286	35.8887	78.3182	35.8887	78.3495	35.8887	78.3287	35.8887	78.3831	35.8887	78.3514	35.8887	78.4325	35.8887	78.3893	35.8887	78.5016	35.8887	78.4462	35.8887	78.5952	35.8887	78.5266	35.8887	78.7176	35.8887	78.6351	35.8887	78.8725	35.8887	78.7754	35.8887	79.0616	35.8887	78.9501	35.8887	79.2831	35.8887	79.1588	35.8887	79.5314	35.8887	79.3976	35.8887	79.7964	35.8887	79.6583	35.8887	80.0634	35.8887	79.9283	35.8887	80.3147	35.8887	80.1913	35.8887	80.5312	35.8887	80.4285	35.8887	80.6949	35.8887	80.6211	35.8887	80.7912	35.8887	80.7525	35.8887	80.811
37.3535	77.5767	37.3535	77.5805	37.3535	77.577	37.3535	77.5892	37.3535	77.5819	37.3535	77.6044	37.3535	77.5926	37.3535	77.6289	37.3535	77.6115	37.3535	77.6664	37.3535	77.6417	37.3535	77.7212	37.3535	77.6871	37.3535	77.7982	37.3535	77.7522	37.3535	77.9016	37.3535	77.8411	37.3535	78.0345	37.3535	77.9576	37.3535	78.1977	37.3535	78.1036	37.3535	78.3879	37.3535	78.2781	37.3535	78.5978	37.3535	78.4765	37.3535	78.8153	37.3535	78.6899	37.3535	79.0244	37.3535	78.9046	37.3535	79.2072	37.3535	79.1041	37.3535	79.3462	37.3535	79.2703	37.3535	79.4271	37.3535	79.3868	37.3535	79.4411
38.8184	77.2079	38.8184	77.2078	38.8184	77.207	38.8184	77.2075	38.8184	77.2054	38.8184	77.2083	38.8184	77.2043	38.8184	77.213	38.8184	77.2058	38.8184	77.2249	38.8184	77.2128	38.8184	77.2486	38.8184	77.2292	38.8184	77.2891	38.8184	77.2596	38.8184	77.3518	38.8184	77.3091	38.8184	77.441	38.8184	77.3823	38.8184	77.5594	38.8184	77.4831	38.8184	77.7061	38.8184	77.6128	38.8184	77.876	38.8184	77.769	38.8184	78.0587	38.8184	77.9447	38.8184	78.2395	38.8184	78.1282	38.8184	78.4008	38.8184	78.3034	38.8184	78.5251	38.8184	78.4526	38.8184	78.5975	38.8184	78.5588	38.8184	78.6093
39.5508	77.315	39.5508	77.3129	39.5508	77.3139	39.5508	77.3084	39.5508	77.3101	39.5508	77.3029	39.5508	77.3045	39.5508	77.299	39.5508	77.2993	39.5508	77.3002	39.5508	77.2973	39.5508	77.3111	39.5508	77.3024	39.5508	77.3371	39.5508	77.3195	39.5508	77.384	39.5508	77.3539	39.5508	77.457	39.5508	77.411	39.5508	77.5595	39.5508	77.4953	39.5508	77.6917	39.5508	77.609	39.5508	77.8492	39.5508	77.7508	39.5508	78.0222	39.5508	77.9146	39.5508	78.1959	39.5508	78.0888	39.5508	78.3526	39.5508	78.2576	39.5508	78.4741	39.5508	78.4029	39.5508	78.5452	39.5508	78.507	39.5508	78.5567
41.0156	77.8659	41.0156	77.863	41.0156	77.8639	41.0156	77.8556	41.0156	77.8571	41.0156	77.8456	41.0156	77.8468	41.0156	77.8357	41.0156	77.8353	41.0156	77.8299	41.0156	77.8257	41.0156	77.8332	41.0156	77.8225	41.0156	77.8518	41.0156	77.8309	41.0156	77.8924	41.0156	77.8571	41.0156	77.9609	41.0156	77.9073	41.0156	78.0614	41.0156	77.9869	41.0156	78.1947	41.0156	78.0988	41.0156	78.3559	41.0156	78.2421	41.0156	78.5346	41.0156	78.4105	41.0156	78.7151	41.0156	78.5918	41.0156	78.8782	41.0156	78.769	41.0156	79.0044	41.0156	78.9226	41.0156	79.0775	41.0156	79.0337	41.0156	79.0878
42.4805	78.7897	42.4805	78.7898	42.4805	78.7873	42.4805	78.7885	42.4805	78.7831	42.4805	78.7873	42.4805	78.7781	42.4805	78.789	42.4805	78.7745	42.4805	78.7974	42.4805	78.7755	42.4805	78.8174	42.4805	78.7851	42.4805	78.8546	42.4805	78.8086	42.4805	78.9152	42.4805	78.8515	42.4805	79.0043	42.4805	78.9198	42.4805	79.1252	42.4805	79.018	42.4805	79.2773	42.4805	79.1485	42.4805	79.4551	42.4805	79.3096	42.4805	79.6474	42.4805	79.4942	42.4805	79.8382	42.4805	79.6898	42.4805	80.008	42.4805	79.8791	42.4805	80.1378	42.4805	80.0423	42.4805	80.2114	42.4805	80.1606	42.4805	80.2194
43.9453	79.6801	43.9453	79.6842	43.9453	79.6778	43.9453	79.6907	43.9453	79.6775	43.9453	79.701	43.9453	79.6803	43.9453	79.7174	43.9453	79.688	43.9453	79.7433	43.9453	79.7033	43.9453	79.7828	43.9453	79.7299	43.9453	79.8407	43.9453	79.7722	43.9453	79.9219	43.9453	79.8349	43.9453	80.0305	43.9453	79.9227	43.9453	80.1684	43.9453	80.0393	43.9453	80.3343	43.9453	80.186	43.9453	80.5221	43.9453	80.3602	43.9453	80.7209	43.9453	80.5547	43.9453	80.9149	43.9453	80.757	43.9453	81.0857	43.9453	80.9503	43.9453	81.2152	43.9453	81.1158	43.9453	81.288	43.9453	81.2354	43.9453	81.2951
45.4102	80.3801	45.4102	80.3875	45.4102	80.3791	45.4102	80.4019	45.4102	80.3847	45.4102	80.4242	45.4102	80.3978	45.4102	80.4563	45.4102	80.4196	45.4102	80.5004	45.4102	80.4521	45.4102	80.5597	45.4102	80.498	45.4102	80.6376	45.4102	80.5606	45.4102	80.7376	45.4102	80.6431	45.4102	80.8622	45.4102	80.749	45.4102	81.0124	45.4102	80.8804	45.4102	81.1859	45.4102	81.0377	45.4102	81.3767	45.4102	81.2178	45.4102	81.5745	45.4102	81.4135	45.4102	81.7648	45.4102	81.6133	45.4102	81.9309	45.4102	81.8018	45.4102	82.0561	45.4102	81.9617	45.4102	82.1264	45.4102	82.0765	45.4102	82.1336
47.6074	80.9833	47.6074	80.9939	47.6074	80.9838	47.6074	81.0159	47.6074	80.9955	47.6074	81.0498	47.6074	81.0187	47.6074	81.0964	47.6074	81.0539	47.6074	81.1568	47.6074	81.1022	47.6074	81.2327	47.6074	81.1648	47.6074	81.3256	47.6074	81.2433	47.6074	81.4374	47.6074	81.3395	47.6074	81.569	47.6074	81.455	47.6074	81.7202	47.6074	81.5907	47.6074	81.8886	47.6074	81.7461	47.6074	82.0685	47.6074	81.9182	47.6074	82.2513	47.6074	82.1009	47.6074	82.4248	47.6074	82.2845	47.6074	82.5749	47.6074	82.4559	47.6074	82.6873	47.6074	82.6006	47.6074	82.7501	47.6074	82.7043	47.6074	82.7561
49.0723	81.1561	49.0723	81.1691	49.0723	81.1568	49.0723	81.1959	49.0723	81.1712	49.0723	81.2364	49.0723	81.1994	49.0723	81.2909	49.0723	81.2413	49.0723	81.3596	49.0723	81.2973	49.0723	81.443	49.0723	81.3676	49.0723	81.5418	49.0723	81.4529	49.0723	81.6565	49.0723	81.5538	49.0723	81.7874	49.0723	81.671	49.0723	81.9337	49.0723	81.8048	49.0723	82.093	49.0723	81.9541	49.0723	82.2606	49.0723	82.1164	49.0723	82.4287	49.0723	82.2861	49.0723	82.587	49.0723	82.4551	49.0723	82.7232	49.0723	82.612	49.0723	82.8248	49.0723	82.744	49.0723	82.8813	49.0723	82.8387	49.0723	82.8862
50.5371	81.2782	50.5371	81.2919	50.5371	81.2792	50.5371	81.32	50.5371	81.2947	50.5371	81.3624	50.5371	81.3245	50.5371	81.4187	50.5371	81.3683	50.5371	81.4886	50.5371	81.4256	50.5371	81.5719	50.5371	81.4962	50.5371	81.6684	50.5371	81.5799	50.5371	81.7781	50.5371	81.6769	50.5371	81.9007	50.5371	81.7871	50.5371	82.0352	50.5371	81.9106	50.5371	82.1795	50.5371	82.0463	50.5371	82.3296	50.5371	82.1922	50.5371	82.479	50.5371	82.3438	50.5371	82.619	50.5371	82.4941	50.5371	82.7389	50.5371	82.6338	50.5371	82.8279	50.5371	82.7516	50.5371	82.8768	50.5371	82.8366	50.5371	82.8799
52.7344	81.558	52.7344	81.5748	52.7344	81.5579	52.7344	81.6082	52.7344	81.5742	52.7344	81.6574	52.7344	81.6063	52.7344	81.7217	52.7344	81.6533	52.7344	81.7999	52.7344	81.7142	52.7344	81.8907	52.7344	81.7882	52.7344	81.9929	52.7344	81.8742	52.7344	82.1052	52.7344	81.9717	52.7344	82.2264	52.7344	82.0801	52.7344	82.3551	52.7344	82.1989	52.7344	82.4892	52.7344	82.3271	52.7344	82.6251	52.7344	82.4629	52.7344	82.7579	52.7344	82.6024	52.7344	82.8804	52.7344	82.7401	52.7344	82.984	52.7344	82.8679	52.7344	83.0595	52.7344	82.9763	52.7344	83.0991	52.7344	83.0556	52.7344	83.0979
54.1992	81.5964	54.1992	81.6141	54.1992	81.5964	54.1992	81.6493	54.1992	81.6138	54.1992	81.701	54.1992	81.6478	54.1992	81.7679	54.1992	81.6973	54.1992	81.8485	54.1992	81.7607	54.1992	81.9408	54.1992	81.8366	54.1992	82.043	54.1992	81.9235	54.1992	82.1534	54.1992	82.0201	54.1992	82.2704	54.1992	82.1254	54.1992	82.3922	54.1992	82.2385	54.1992	82.5168	54.1992	82.3583	54.1992	82.6412	54.1992	82.483	54.1992	82.761	54.1992	82.6099	54.1992	82.8703	54.1992	82.7342	54.1992	82.9619	54.1992	82.8492	54.1992	83.0277	54.1992	82.947	54.1992	83.0613	54.1992	83.019	54.1992	83.0584
