"SPL Vertical"
"On-Axis"		"10°"		"-10°"		"20°"		"-20°"		"30°"		"-30°"		"40°"		"-40°"		"50°"		"-50°"		"60°"		"-60°"		"70°"		"-70°"		"80°"		"-80°"		"90°"		"-90°"		"100°"		"-100°"		"110°"		"-110°"		"120°"		"-120°"		"130°"		"-130°"		"140°"		"-140°"		"150°"		"-150°"		"160°"		"-160°"		"170°"		"-170°"		"180°"
"Frequency / Hz"	"Sound Pressure Level / dB (re 20 µPa/V)   /[0.3V at 1m]"	"Frequency / Hz"	"Sound Pressure Level / dB (re 20 µPa/V)   /[0.3V at 1m]"	"Frequency / Hz"	"Sound Pressure Level / dB (re 20 µPa/V)   /[0.3V at 1m]"	"Frequency / Hz"	"Sound Pressure Level / dB (re 20 µPa/V)   /[0.3V at 1m]"	"Frequency / Hz"	"Sound Pressure Level / dB (re 20 µPa/V)   /[0.3V at 1m]"	"Frequency / Hz"	"Sound Pressure Level / dB (re 20 µPa/V)   /[0.3V at 1m]"	"Frequency / Hz"	"Sound Pressure Level / dB (re 20 µPa/V)   /[0.3V at 1m]"	"Frequency / Hz"	"Sound Pressure Level / dB (re 20 µPa/V)   /[0.3V at 1m]"	"Frequency / Hz"	"Sound Pressure Level / dB (re 20 µPa/V)   /[0.3V at 1m]"	"Frequency / Hz"	"Sound Pressure Level / dB (re 20 µPa/V)   /[0.3V at 1m]"	"Frequency / Hz"	"Sound Pressure Level / dB (re 20 µPa/V)   /[0.3V at 1m]"	"Frequency / Hz"	"Sound Pressure Level / dB (re 20 µPa/V)   /[0.3V at 1m]"	"Frequency / Hz"	"Sound Pressure Level / dB (re 20 µPa/V)   /[0.3V at 1m]"	"Frequency / Hz"	"Sound Pressure Level / dB (re 20 µPa/V)   /[0.3V at 1m]"	"Frequency / Hz"	"Sound Pressure Level / dB (re 20 µPa/V)   /[0.3V at 1m]"	"Frequency / Hz"	"Sound Pressure Level / dB (re 20 µPa/V)   /[0.3V at 1m]"	"Frequency / Hz"	"Sound Pressure Level / dB (re 20 µPa/V)   /[0.3V at 1m]"	"Frequency / Hz"	"Sound Pressure Level / dB (re 20 µPa/V)   /[0.3V at 1m]"	"Frequency / Hz"	"Sound Pressure Level / dB (re 20 µPa/V)   /[0.3V at 1m]"	"Frequency / Hz"	"Sound Pressure Level / dB (re 20 µPa/V)   /[0.3V at 1m]"	"Frequency / Hz"	"Sound Pressure Level / dB (re 20 µPa/V)   /[0.3V at 1m]"	"Frequency / Hz"	"Sound Pressure Level / dB (re 20 µPa/V)   /[0.3V at 1m]"	"Frequency / Hz"	"Sound Pressure Level / dB (re 20 µPa/V)   /[0.3V at 1m]"	"Frequency / Hz"	"Sound Pressure Level / dB (re 20 µPa/V)   /[0.3V at 1m]"	"Frequency / Hz"	"Sound Pressure Level / dB (re 20 µPa/V)   /[0.3V at 1m]"	"Frequency / Hz"	"Sound Pressure Level / dB (re 20 µPa/V)   /[0.3V at 1m]"	"Frequency / Hz"	"Sound Pressure Level / dB (re 20 µPa/V)   /[0.3V at 1m]"	"Frequency / Hz"	"Sound Pressure Level / dB (re 20 µPa/V)   /[0.3V at 1m]"	"Frequency / Hz"	"Sound Pressure Level / dB (re 20 µPa/V)   /[0.3V at 1m]"	"Frequency / Hz"	"Sound Pressure Level / dB (re 20 µPa/V)   /[0.3V at 1m]"	"Frequency / Hz"	"Sound Pressure Level / dB (re 20 µPa/V)   /[0.3V at 1m]"	"Frequency / Hz"	"Sound Pressure Level / dB (re 20 µPa/V)   /[0.3V at 1m]"	"Frequency / Hz"	"Sound Pressure Level / dB (re 20 µPa/V)   /[0.3V at 1m]"	"Frequency / Hz"	"Sound Pressure Level / dB (re 20 µPa/V)   /[0.3V at 1m]"	"Frequency / Hz"	"Sound Pressure Level / dB (re 20 µPa/V)   /[0.3V at 1m]"	"Frequency / Hz"	"Sound Pressure Level / dB (re 20 µPa/V)   /[0.3V at 1m]"
20.5078	34.0615	20.5078	34.2293	20.5078	33.9308	20.5078	34.4313	20.5078	33.8394	20.5078	34.6641	20.5078	33.7892	20.5078	34.923	20.5078	33.7822	20.5078	35.2029	20.5078	33.8208	20.5078	35.4974	20.5078	33.9076	20.5078	35.7997	20.5078	34.0456	20.5078	36.1024	20.5078	34.2369	20.5078	36.3976	20.5078	34.4818	20.5078	36.6769	20.5078	34.7771	20.5078	36.9318	20.5078	35.115	20.5078	37.1538	20.5078	35.4832	20.5078	37.3342	20.5078	35.865	20.5078	37.4649	20.5078	36.2419	20.5078	37.5383	20.5078	36.5952	20.5078	37.5483	20.5078	36.908	20.5078	37.4905	20.5078	37.167	20.5078	37.3629
21.9727	37.1701	21.9727	36.9545	21.9727	37.437	21.9727	36.7973	21.9727	37.7458	21.9727	36.7034	21.9727	38.0857	21.9727	36.6749	21.9727	38.4446	21.9727	36.7115	21.9727	38.8101	21.9727	36.8103	21.9727	39.1698	21.9727	36.9666	21.9727	39.5118	21.9727	37.1739	21.9727	39.8254	21.9727	37.4245	21.9727	40.1011	21.9727	37.7099	21.9727	40.3311	21.9727	38.0211	21.9727	40.5093	21.9727	38.3491	21.9727	40.6316	21.9727	38.6848	21.9727	40.6956	21.9727	39.0192	21.9727	40.7008	21.9727	39.3436	21.9727	40.6483	21.9727	39.6497	21.9727	40.5404	21.9727	39.9295	21.9727	40.3812	21.9727	40.1756
23.4375	35.3406	23.4375	34.7964	23.4375	35.9352	23.4375	34.323	23.4375	36.5599	23.4375	33.9403	23.4375	37.1948	23.4375	33.6661	23.4375	37.8208	23.4375	33.5149	23.4375	38.4201	23.4375	33.4955	23.4375	38.9762	23.4375	33.6097	23.4375	39.4745	23.4375	33.851	23.4375	39.9023	23.4375	34.2061	23.4375	40.2493	23.4375	34.6561	23.4375	40.5076	23.4375	35.1795	23.4375	40.6718	23.4375	35.7542	23.4375	40.7391	23.4375	36.3594	23.4375	40.7092	23.4375	36.9759	23.4375	40.5839	23.4375	37.5865	23.4375	40.3674	23.4375	38.176	23.4375	40.0655	23.4375	38.7304	23.4375	39.686	23.4375	39.2375
24.9023	39.0026	24.9023	38.4168	24.9023	39.6409	24.9023	37.9002	24.9023	40.3127	24.9023	37.4673	24.9023	40.9976	24.9023	37.1308	24.9023	41.675	24.9023	36.9017	24.9023	42.3245	24.9023	36.7903	24.9023	42.9272	24.9023	36.8052	24.9023	43.466	24.9023	36.9517	24.9023	43.9263	24.9023	37.2299	24.9023	44.2959	24.9023	37.633	24.9023	44.5651	24.9023	38.1464	24.9023	44.7272	24.9023	38.7492	24.9023	44.7779	24.9023	39.4167	24.9023	44.7158	24.9023	40.1224	24.9023	44.5422	24.9023	40.8408	24.9023	44.2608	24.9023	41.5481	24.9023	43.878	24.9023	42.223	24.9023	43.4029	24.9023	42.8466
26.3672	42.2758	26.3672	41.7594	26.3672	42.846	26.3672	41.3113	26.3672	43.4526	26.3672	40.9421	26.3672	44.0757	26.3672	40.6592	26.3672	44.6943	26.3672	40.4675	26.3672	45.2879	26.3672	40.3702	26.3672	45.8368	26.3672	40.3697	26.3672	46.3234	26.3672	40.4675	26.3672	46.7326	26.3672	40.6637	26.3672	47.0521	26.3672	40.9558	26.3672	47.2724	26.3672	41.3384	26.3672	47.3872	26.3672	41.802	26.3672	47.3933	26.3672	42.3332	26.3672	47.2906	26.3672	42.9154	26.3672	47.0824	26.3672	43.5293	26.3672	46.7746	26.3672	44.1549	26.3672	46.3765	26.3672	44.7716	26.3672	45.9	26.3672	45.3594
27.832	46.8511	27.832	46.4548	27.832	47.2957	27.832	46.1168	27.832	47.775	27.832	45.8431	27.832	48.2726	27.832	45.636	27.832	48.7699	27.832	45.4952	27.832	49.2483	27.832	45.4191	27.832	49.6894	27.832	45.4053	27.832	50.0765	27.832	45.4522	27.832	50.3952	27.832	45.5588	27.832	50.6334	27.832	45.7247	27.832	50.7825	27.832	45.9501	27.832	50.8368	27.832	46.2343	27.832	50.7945	27.832	46.5751	27.832	50.657	27.832	46.9678	27.832	50.4297	27.832	47.4042	27.832	50.1213	27.832	47.8729	27.832	49.7441	27.832	48.3589	27.832	49.3129	27.832	48.845
29.2969	51.8606	29.2969	51.5432	29.2969	52.2125	29.2969	51.2665	29.2969	52.5897	29.2969	51.0342	29.2969	52.981	29.2969	50.848	29.2969	53.3727	29.2969	50.7085	29.2969	53.7503	29.2969	50.6153	29.2969	54.0984	29.2969	50.5679	29.2969	54.4024	29.2969	50.5663	29.2969	54.649	29.2969	50.611	29.2969	54.8271	29.2969	50.703	29.2969	54.928	29.2969	50.8436	29.2969	54.9464	29.2969	51.0342	29.2969	54.8806	29.2969	51.2751	29.2969	54.7325	29.2969	51.5648	29.2969	54.5079	29.2969	51.8992	29.2969	54.2162	29.2969	52.271	29.2969	53.8704	29.2969	52.6691	29.2969	53.4858	29.2969	53.0796
30.7617	55.9623	30.7617	55.6777	30.7617	56.2763	30.7617	55.4282	30.7617	56.6117	30.7617	55.2172	30.7617	56.9586	30.7617	55.0468	30.7617	57.3048	30.7617	54.9173	30.7617	57.6374	30.7617	54.8289	30.7617	57.9427	30.7617	54.781	30.7617	58.2075	30.7617	54.7733	30.7617	58.4196	30.7617	54.8061	30.7617	58.5687	30.7617	54.8799	30.7617	58.6472	30.7617	54.9955	30.7617	58.6503	30.7617	55.1539	30.7617	58.5771	30.7617	55.3556	30.7617	58.4298	30.7617	55.6	30.7617	58.2149	30.7617	55.8846	30.7617	57.9419	30.7617	56.2043	30.7617	57.6237	30.7617	56.5507	30.7617	57.2752	30.7617	56.9123
32.2266	59.7235	32.2266	59.4536	32.2266	60.0205	32.2266	59.2166	32.2266	60.3369	32.2266	59.0166	32.2266	60.6629	32.2266	58.8558	32.2266	60.9874	32.2266	58.7352	32.2266	61.2981	32.2266	58.6552	32.2266	61.5824	32.2266	58.6152	32.2266	61.8282	32.2266	58.615	32.2266	62.0243	32.2266	58.654	32.2266	62.1614	32.2266	58.7319	32.2266	62.2325	32.2266	58.8486	32.2266	62.2336	32.2266	59.0039	32.2266	62.1641	32.2266	59.1975	32.2266	62.0267	32.2266	59.428	32.2266	61.8276	32.2266	59.6928	32.2266	61.5762	32.2266	59.9873	32.2266	61.2844	32.2266	60.3045	32.2266	60.9658	32.2266	60.6347
33.6914	64.0354	33.6914	63.8004	33.6914	64.2903	33.6914	63.5903	33.6914	64.5585	33.6914	63.4087	33.6914	64.8323	33.6914	63.2578	33.6914	65.1022	33.6914	63.139	33.6914	65.3582	33.6914	63.053	33.6914	65.5895	33.6914	63.0001	33.6914	65.7858	33.6914	62.9802	33.6914	65.9374	33.6914	62.9935	33.6914	66.0364	33.6914	63.0399	33.6914	66.0769	33.6914	63.1197	33.6914	66.0557	33.6914	63.2332	33.6914	65.973	33.6914	63.3805	33.6914	65.8319	33.6914	63.5612	33.6914	65.6391	33.6914	63.774	33.6914	65.4038	33.6914	64.0159	33.6914	65.1378	33.6914	64.2819	33.6914	64.8537	33.6914	64.5645
35.1562	67.1752	35.1562	66.9517	35.1562	67.417	35.1562	66.7512	35.1562	67.671	35.1562	66.5772	35.1562	67.9296	35.1562	66.432	35.1562	68.1839	35.1562	66.3167	35.1562	68.4242	35.1562	66.2321	35.1562	68.6404	35.1562	66.1784	35.1562	68.8225	35.1562	66.1557	35.1562	68.9615	35.1562	66.1638	35.1562	69.0497	35.1562	66.2029	35.1562	69.0816	35.1562	66.2732	35.1562	69.0546	35.1562	66.3749	35.1562	68.9688	35.1562	66.5085	35.1562	68.8279	35.1562	66.6737	35.1562	68.6385	35.1562	66.8697	35.1562	68.41	35.1562	67.0942	35.1562	68.1539	35.1562	67.3426	35.1562	67.8827	35.1562	67.6085
36.6211	70.3508	36.6211	70.1342	36.6211	70.5837	36.6211	69.9386	36.6211	70.827	36.6211	69.7677	36.6211	71.0732	36.6211	69.6238	36.6211	71.3139	36.6211	69.5085	36.6211	71.5399	36.6211	69.4226	36.6211	71.7418	36.6211	69.3666	36.6211	71.91	36.6211	69.3404	36.6211	72.0363	36.6211	69.3442	36.6211	72.1134	36.6211	69.3778	36.6211	72.1366	36.6211	69.4416	36.6211	72.1034	36.6211	69.5355	36.6211	72.0145	36.6211	69.6599	36.6211	71.8737	36.6211	69.8145	36.6211	71.6876	36.6211	69.9985	36.6211	71.4655	36.6211	70.21	36.6211	71.2185	36.6211	70.4448	36.6211	70.9585	36.6211	70.6971
38.0859	73.2218	38.0859	73.0105	38.0859	73.4481	38.0859	72.8188	38.0859	73.6832	38.0859	72.6506	38.0859	73.92	38.0859	72.5084	38.0859	74.1502	38.0859	72.3939	38.0859	74.3651	38.0859	72.3081	38.0859	74.5554	38.0859	72.2514	38.0859	74.7124	38.0859	72.2239	38.0859	74.8281	38.0859	72.2254	38.0859	74.8959	38.0859	72.256	38.0859	74.9115	38.0859	72.3155	38.0859	74.873	38.0859	72.4038	38.0859	74.7814	38.0859	72.5211	38.0859	74.6407	38.0859	72.6672	38.0859	74.4576	38.0859	72.8411	38.0859	74.2414	38.0859	73.0411	38.0859	74.0028	38.0859	73.2638	38.0859	73.7532	38.0859	73.5037
39.5508	75.8345	39.5508	75.6269	39.5508	76.0552	39.5508	75.4372	39.5508	76.2828	39.5508	75.2693	39.5508	76.5105	39.5508	75.1261	39.5508	76.7301	39.5508	75.0094	39.5508	76.9333	39.5508	74.9205	39.5508	77.1115	39.5508	74.8599	39.5508	77.2561	39.5508	74.8278	39.5508	77.36	39.5508	74.8242	39.5508	77.417	39.5508	74.8489	39.5508	77.4232	39.5508	74.9019	39.5508	77.3772	39.5508	74.9829	39.5508	77.2803	39.5508	75.0919	39.5508	77.1369	39.5508	75.2288	39.5508	76.9538	39.5508	75.3928	39.5508	76.7403	39.5508	75.5823	39.5508	76.507	39.5508	75.7945	39.5508	76.2648	39.5508	76.0243
41.0156	78.4563	41.0156	78.2343	41.0156	78.6877	41.0156	78.0274	41.0156	78.9215	41.0156	77.8402	41.0156	79.1502	41.0156	77.6765	41.0156	79.3652	41.0156	77.5388	41.0156	79.5578	41.0156	77.429	41.0156	79.719	41.0156	77.3481	41.0156	79.8407	41.0156	77.2966	41.0156	79.9158	41.0156	77.2745	41.0156	79.9393	41.0156	77.2814	41.0156	79.9083	41.0156	77.3169	41.0156	79.8234	41.0156	77.3805	41.0156	79.6879	41.0156	77.4718	41.0156	79.5088	41.0156	77.5906	41.0156	79.2954	41.0156	77.7366	41.0156	79.059	41.0156	77.9093	41.0156	78.8116	41.0156	78.107	41.0156	78.5644	41.0156	78.3271
42.4805	80.2432	42.4805	80.025	42.4805	80.4693	42.4805	79.8203	42.4805	80.6964	42.4805	79.634	42.4805	80.917	42.4805	79.4698	42.4805	81.1229	42.4805	79.3306	42.4805	81.3056	42.4805	79.2184	42.4805	81.4566	42.4805	79.1345	42.4805	81.5682	42.4805	79.0793	42.4805	81.6337	42.4805	79.0529	42.4805	81.6484	42.4805	79.0551	42.4805	81.6102	42.4805	79.0854	42.4805	81.5196	42.4805	79.1432	42.4805	81.3806	42.4805	79.2282	42.4805	81.2002	42.4805	79.3399	42.4805	80.9879	42.4805	79.4782	42.4805	80.7548	42.4805	79.6426	42.4805	80.5127	42.4805	79.8317	42.4805	80.2724	42.4805	80.0432
43.9453	81.5844	43.9453	81.371	43.9453	81.8042	43.9453	81.1698	43.9453	82.024	43.9453	80.9858	43.9453	82.2362	43.9453	80.8227	43.9453	82.4329	43.9453	80.6836	43.9453	82.6059	43.9453	80.5705	43.9453	82.747	43.9453	80.4849	43.9453	82.8489	43.9453	80.4273	43.9453	82.9054	43.9453	80.3978	43.9453	82.9122	43.9453	80.3961	43.9453	82.8674	43.9453	80.4218	43.9453	82.7722	43.9453	80.4742	43.9453	82.6307	43.9453	80.5528	43.9453	82.4501	43.9453	80.6572	43.9453	82.2401	43.9453	80.7873	43.9453	82.0116	43.9453	80.9426	43.9453	81.7761	43.9453	81.1222	43.9453	81.544	43.9453	81.324
45.4102	82.4816	45.4102	82.2714	45.4102	82.6974	45.4102	82.0724	45.4102	82.9121	45.4102	81.8896	45.4102	83.1185	45.4102	81.7268	45.4102	83.3088	45.4102	81.5872	45.4102	83.4749	45.4102	81.473	45.4102	83.6091	45.4102	81.3856	45.4102	83.7041	45.4102	81.3257	45.4102	83.7542	45.4102	81.2934	45.4102	83.7554	45.4102	81.2886	45.4102	83.706	45.4102	81.3106	45.4102	83.6074	45.4102	81.3588	45.4102	83.464	45.4102	81.4328	45.4102	83.2831	45.4102	81.5322	45.4102	83.0742	45.4102	81.6568	45.4102	82.8485	45.4102	81.8063	45.4102	82.617	45.4102	81.9799	45.4102	82.39	45.4102	82.1756
46.875	83.1063	46.875	82.8989	46.875	83.3183	46.875	82.7021	46.875	83.5284	46.875	82.5206	46.875	83.7293	46.875	82.3587	46.875	83.9136	46.875	82.2194	46.875	84.0732	46.875	82.1052	46.875	84.2008	46.875	82.0174	46.875	84.2894	46.875	81.9569	46.875	84.3335	46.875	81.9238	46.875	84.3295	46.875	81.9177	46.875	84.2763	46.875	81.9382	46.875	84.1753	46.875	81.9843	46.875	84.0313	46.875	82.0556	46.875	83.8516	46.875	82.1514	46.875	83.6459	46.875	82.2715	46.875	83.4249	46.875	82.4156	46.875	83.1994	46.875	82.5829	46.875	82.9792	46.875	82.7719
48.3398	83.4092	48.3398	83.2045	48.3398	83.618	48.3398	83.01	48.3398	83.8244	48.3398	82.8305	48.3398	84.0213	48.3398	82.6704	48.3398	84.201	48.3398	82.5328	48.3398	84.356	48.3398	82.4202	48.3398	84.4788	48.3398	82.334	48.3398	84.5629	48.3398	82.275	48.3398	84.603	48.3398	82.2433	48.3398	84.5959	48.3398	82.2384	48.3398	84.5405	48.3398	82.2595	48.3398	84.4389	48.3398	82.3056	48.3398	84.2958	48.3398	82.3759	48.3398	84.1187	48.3398	82.4697	48.3398	83.9173	48.3398	82.5865	48.3398	83.7019	48.3398	82.7261	48.3398	83.4831	48.3398	82.8877	48.3398	83.2701	48.3398	83.07
51.2695	83.7569	51.2695	83.555	51.2695	83.9612	51.2695	83.3615	51.2695	84.1613	51.2695	83.1817	51.2695	84.3499	51.2695	83.0201	51.2695	84.5198	51.2695	82.8803	51.2695	84.6637	51.2695	82.765	51.2695	84.7747	51.2695	82.676	51.2695	84.8469	51.2695	82.6142	51.2695	84.8755	51.2695	82.5797	51.2695	84.858	51.2695	82.572	51.2695	84.7942	51.2695	82.5901	51.2695	84.6866	51.2695	82.6329	51.2695	84.5406	51.2695	82.6991	51.2695	84.3637	51.2695	82.7878	51.2695	84.1658	51.2695	82.8982	51.2695	83.9568	51.2695	83.0299	51.2695	83.7468	51.2695	83.1823	51.2695	83.5439	51.2695	83.3543
52.7344	83.7793	52.7344	83.5811	52.7344	83.9794	52.7344	83.3909	52.7344	84.1747	52.7344	83.214	52.7344	84.3583	52.7344	83.0549	52.7344	84.5228	52.7344	82.9174	52.7344	84.6612	52.7344	82.8042	52.7344	84.7668	52.7344	82.7171	52.7344	84.8338	52.7344	82.6568	52.7344	84.858	52.7344	82.6236	52.7344	84.837	52.7344	82.6167	52.7344	84.7709	52.7344	82.635	52.7344	84.6627	52.7344	82.6771	52.7344	84.5177	52.7344	82.7417	52.7344	84.344	52.7344	82.8276	52.7344	84.1509	52.7344	82.9339	52.7344	83.9485	52.7344	83.0601	52.7344	83.7461	52.7344	83.2058	52.7344	83.5514	52.7344	83.3702
54.1992	83.7544	54.1992	83.5582	54.1992	83.9519	54.1992	83.3693	54.1992	84.1441	54.1992	83.1934	54.1992	84.3237	54.1992	83.0349	54.1992	84.4838	54.1992	82.8978	54.1992	84.6174	54.1992	82.7849	54.1992	84.7179	54.1992	82.698	54.1992	84.7798	54.1992	82.638	54.1992	84.7993	54.1992	82.605	54.1992	84.7742	54.1992	82.5982	54.1992	84.7051	54.1992	82.6162	54.1992	84.595	54.1992	82.6577	54.1992	84.4497	54.1992	82.721	54.1992	84.2773	54.1992	82.8047	54.1992	84.0872	54.1992	82.9078	54.1992	83.8893	54.1992	83.0299	54.1992	83.6924	54.1992	83.1704	54.1992	83.504	54.1992	83.329
55.6641	83.6763	55.6641	83.4812	55.6641	83.8719	55.6641	83.2928	55.6641	84.0614	55.6641	83.1169	55.6641	84.2377	55.6641	82.958	55.6641	84.3938	55.6641	82.8203	55.6641	84.5228	55.6641	82.7066	55.6641	84.6183	55.6641	82.619	55.6641	84.6752	55.6641	82.5582	55.6641	84.6898	55.6641	82.5244	55.6641	84.6602	55.6641	82.5168	55.6641	84.5873	55.6641	82.534	55.6641	84.4745	55.6641	82.5742	55.6641	84.3279	55.6641	82.6358	55.6641	84.1556	55.6641	82.7172	55.6641	83.9671	55.6641	82.8174	55.6641	83.7722	55.6641	82.9358	55.6641	83.5794	55.6641	83.072	55.6641	83.3957	55.6641	83.2257
58.5938	83.5116	58.5938	83.3187	58.5938	83.7036	58.5938	83.1314	58.5938	83.888	58.5938	82.9554	58.5938	84.0578	58.5938	82.7958	58.5938	84.2061	58.5938	82.6568	58.5938	84.3262	58.5938	82.5416	58.5938	84.4123	58.5938	82.4524	58.5938	84.4595	58.5938	82.3901	58.5938	84.4646	58.5938	82.3549	58.5938	84.4265	58.5938	82.3458	58.5938	84.3465	58.5938	82.3612	58.5938	84.2288	58.5938	82.3992	58.5938	84.0797	58.5938	82.4578	58.5938	83.9078	58.5938	82.5351	58.5938	83.7227	58.5938	82.6299	58.5938	83.5336	58.5938	82.7414	58.5938	83.3488	58.5938	82.8694	58.5938	83.1744	58.5938	83.0139
60.0586	83.4222	60.0586	83.2294	60.0586	83.6135	60.0586	83.0414	60.0586	83.7964	60.0586	82.8643	60.0586	83.9639	60.0586	82.7033	60.0586	84.1093	60.0586	82.5626	60.0586	84.2259	60.0586	82.4457	60.0586	84.308	60.0586	82.3549	60.0586	84.351	60.0586	82.2912	60.0586	84.3519	60.0586	82.2548	60.0586	84.3098	60.0586	82.2447	60.0586	84.2264	60.0586	82.2593	60.0586	84.106	60.0586	82.2965	60.0586	83.9553	60.0586	82.3541	60.0586	83.7829	60.0586	82.4302	60.0586	83.5984	60.0586	82.5233	60.0586	83.411	60.0586	82.6327	60.0586	83.2287	60.0586	82.7582	60.0586	83.0571	60.0586	82.8998
62.9883	83.2966	62.9883	83.1069	62.9883	83.4832	62.9883	82.9208	62.9883	83.6599	62.9883	82.7441	62.9883	83.82	62.9883	82.5823	62.9883	83.9566	62.9883	82.4401	62.9883	84.0636	62.9883	82.3211	62.9883	84.1356	62.9883	82.2276	62.9883	84.1683	62.9883	82.1611	62.9883	84.1594	62.9883	82.1218	62.9883	84.1084	62.9883	82.1087	62.9883	84.0178	62.9883	82.1201	62.9883	83.8923	62.9883	82.1539	62.9883	83.7392	62.9883	82.2076	62.9883	83.5674	62.9883	82.279	62.9883	83.3862	62.9883	82.3665	62.9883	83.2048	62.9883	82.4692	62.9883	83.0303	62.9883	82.5868	62.9883	82.8677	62.9883	82.7196
64.4531	83.2494	64.4531	83.0622	64.4531	83.4332	64.4531	82.8779	64.4531	83.6067	64.4531	82.7028	64.4531	83.7631	64.4531	82.5421	64.4531	83.8957	64.4531	82.4007	64.4531	83.9984	64.4531	82.282	64.4531	84.0658	64.4531	82.1885	64.4531	84.094	64.4531	82.1217	64.4531	84.0807	64.4531	82.0816	64.4531	84.0259	64.4531	82.0673	64.4531	83.932	64.4531	82.077	64.4531	83.8042	64.4531	82.1086	64.4531	83.6499	64.4531	82.1594	64.4531	83.4782	64.4531	82.2274	64.4531	83.2986	64.4531	82.3108	64.4531	83.1201	64.4531	82.4088	64.4531	82.9495	64.4531	82.5213	64.4531	82.7917	64.4531	82.6488
67.3828	83.1498	67.3828	82.9634	67.3828	83.3324	67.3828	82.7799	67.3828	83.5042	67.3828	82.6054	67.3828	83.6583	67.3828	82.4457	67.3828	83.7882	67.3828	82.3055	67.3828	83.8877	67.3828	82.1885	67.3828	83.9517	67.3828	82.0972	67.3828	83.9765	67.3828	82.0329	67.3828	83.96	67.3828	81.9956	67.3828	83.9026	67.3828	81.9842	67.3828	83.8071	67.3828	81.9965	67.3828	83.679	67.3828	82.0301	67.3828	83.526	67.3828	82.0821	67.3828	83.3572	67.3828	82.1501	67.3828	83.1822	67.3828	82.2322	67.3828	83.0094	67.3828	82.3274	67.3828	82.8455	67.3828	82.4357	67.3828	82.6944	67.3828	82.5578
