"SPL Horizontal"
"On-Axis"		"10°"		"-10°"		"20°"		"-20°"		"30°"		"-30°"		"40°"		"-40°"		"50°"		"-50°"		"60°"		"-60°"		"70°"		"-70°"		"80°"		"-80°"		"90°"		"-90°"		"100°"		"-100°"		"110°"		"-110°"		"120°"		"-120°"		"130°"		"-130°"		"140°"		"-140°"		"150°"		"-150°"		"160°"		"-160°"		"170°"		"-170°"		"180°"
"Frequency [Hz]"	"Sound Pessure Level [dB]  / [2.83V 1m] "	"Frequency [Hz]"	"Sound Pessure Level [dB]  / [2.83V 1m] "	"Frequency [Hz]"	"Sound Pessure Level [dB]  / [2.83V 1m] "	"Frequency [Hz]"	"Sound Pessure Level [dB]  / [2.83V 1m] "	"Frequency [Hz]"	"Sound Pessure Level [dB]  / [2.83V 1m] "	"Frequency [Hz]"	"Sound Pessure Level [dB]  / [2.83V 1m] "	"Frequency [Hz]"	"Sound Pessure Level [dB]  / [2.83V 1m] "	"Frequency [Hz]"	"Sound Pessure Level [dB]  / [2.83V 1m] "	"Frequency [Hz]"	"Sound Pessure Level [dB]  / [2.83V 1m] "	"Frequency [Hz]"	"Sound Pessure Level [dB]  / [2.83V 1m] "	"Frequency [Hz]"	"Sound Pessure Level [dB]  / [2.83V 1m] "	"Frequency [Hz]"	"Sound Pessure Level [dB]  / [2.83V 1m] "	"Frequency [Hz]"	"Sound Pessure Level [dB]  / [2.83V 1m] "	"Frequency [Hz]"	"Sound Pessure Level [dB]  / [2.83V 1m] "	"Frequency [Hz]"	"Sound Pessure Level [dB]  / [2.83V 1m] "	"Frequency [Hz]"	"Sound Pessure Level [dB]  / [2.83V 1m] "	"Frequency [Hz]"	"Sound Pessure Level [dB]  / [2.83V 1m] "	"Frequency [Hz]"	"Sound Pessure Level [dB]  / [2.83V 1m] "	"Frequency [Hz]"	"Sound Pessure Level [dB]  / [2.83V 1m] "	"Frequency [Hz]"	"Sound Pessure Level [dB]  / [2.83V 1m] "	"Frequency [Hz]"	"Sound Pessure Level [dB]  / [2.83V 1m] "	"Frequency [Hz]"	"Sound Pessure Level [dB]  / [2.83V 1m] "	"Frequency [Hz]"	"Sound Pessure Level [dB]  / [2.83V 1m] "	"Frequency [Hz]"	"Sound Pessure Level [dB]  / [2.83V 1m] "	"Frequency [Hz]"	"Sound Pessure Level [dB]  / [2.83V 1m] "	"Frequency [Hz]"	"Sound Pessure Level [dB]  / [2.83V 1m] "	"Frequency [Hz]"	"Sound Pessure Level [dB]  / [2.83V 1m] "	"Frequency [Hz]"	"Sound Pessure Level [dB]  / [2.83V 1m] "	"Frequency [Hz]"	"Sound Pessure Level [dB]  / [2.83V 1m] "	"Frequency [Hz]"	"Sound Pessure Level [dB]  / [2.83V 1m] "	"Frequency [Hz]"	"Sound Pessure Level [dB]  / [2.83V 1m] "	"Frequency [Hz]"	"Sound Pessure Level [dB]  / [2.83V 1m] "	"Frequency [Hz]"	"Sound Pessure Level [dB]  / [2.83V 1m] "	"Frequency [Hz]"	"Sound Pessure Level [dB]  / [2.83V 1m] "	"Frequency [Hz]"	"Sound Pessure Level [dB]  / [2.83V 1m] "	"Frequency [Hz]"	"Sound Pessure Level [dB]  / [2.83V 1m] "
20.5078	60.4861	20.5078	60.4335	20.5078	60.4534	20.5078	60.2974	20.5078	60.3373	20.5078	60.0847	20.5078	60.144	20.5078	59.8106	20.5078	59.8862	20.5078	59.5042	20.5078	59.5882	20.5078	59.2157	20.5078	59.2911	20.5078	59.0204	20.5078	59.0587	20.5078	59.01	20.5078	58.9744	20.5078	59.2595	20.5078	59.1195	20.5078	59.7841	20.5078	59.5346	20.5078	60.5242	20.5078	60.1912	20.5078	61.376	20.5078	61.0035	20.5078	62.2334	20.5078	61.8672	20.5078	63.0126	20.5078	62.6895	20.5078	63.6553	20.5078	63.4001	20.5078	64.1242	20.5078	63.9502	20.5078	64.3964	20.5078	64.3088	20.5078	64.4593
21.9727	61.6367	21.9727	61.5812	21.9727	61.6096	21.9727	61.4451	21.9727	61.502	21.9727	61.2356	21.9727	61.3203	21.9727	60.9686	21.9727	61.0777	21.9727	60.6733	21.9727	60.7976	21.9727	60.399	21.9727	60.5187	21.9727	60.2177	21.9727	60.2985	21.9727	60.2149	21.9727	60.2108	21.9727	60.4591	21.9727	60.3274	21.9727	60.963	21.9727	60.6875	21.9727	61.6711	21.9727	61.2735	21.9727	62.4862	21.9727	62.016	21.9727	63.3075	21.9727	62.823	21.9727	64.0537	21.9727	63.6075	21.9727	64.6667	21.9727	64.2999	21.9727	65.1078	21.9727	64.849	21.9727	65.3533	21.9727	65.2198	21.9727	65.3911
23.4375	63.3089	23.4375	63.2771	23.4375	63.2827	23.4375	63.1891	23.4375	63.201	23.4375	63.0521	23.4375	63.0709	23.4375	62.8805	23.4375	62.9055	23.4375	62.6982	23.4375	62.7257	23.4375	62.5417	23.4375	62.5621	23.4375	62.4594	23.4375	62.4553	23.4375	62.5047	23.4375	62.452	23.4375	62.7196	23.4375	62.5939	23.4375	63.115	23.4375	62.9026	23.4375	63.6625	23.4375	63.3677	23.4375	64.3029	23.4375	63.9486	23.4375	64.9652	23.4375	64.5866	23.4375	65.5828	23.4375	65.2198	23.4375	66.1009	23.4375	65.7915	23.4375	66.4792	23.4375	66.2546	23.4375	66.6909	23.4375	66.5731	23.4375	66.7225
24.9023	64.7712	24.9023	64.7379	24.9023	64.7434	24.9023	64.6453	24.9023	64.6568	24.9023	64.4997	24.9023	64.5176	24.9023	64.3139	24.9023	64.3373	24.9023	64.1098	24.9023	64.1344	24.9023	63.921	24.9023	63.9366	24.9023	63.7935	24.9023	63.7819	24.9023	63.7804	24.9023	63.7159	24.9023	63.927	24.9023	63.7835	24.9023	64.2519	24.9023	64.0139	24.9023	64.7349	24.9023	64.407	24.9023	65.3218	24.9023	64.9294	24.9023	65.9426	24.9023	65.525	24.9023	66.5287	24.9023	66.1297	24.9023	67.023	24.9023	66.6838	24.9023	67.3833	24.9023	67.1375	24.9023	67.5819	24.9023	67.453	24.9023	67.6053
26.3672	66.4666	26.3672	66.426	26.3672	66.464	26.3672	66.3449	26.3672	66.4187	26.3672	66.2295	26.3672	66.3343	26.3672	66.0907	26.3672	66.2178	26.3672	65.9449	26.3672	66.0813	26.3672	65.8157	26.3672	65.9423	26.3672	65.7329	26.3672	65.8246	26.3672	65.7296	26.3672	65.7576	26.3672	65.8345	26.3672	65.7722	26.3672	66.0625	26.3672	65.8939	26.3672	66.4063	26.3672	66.1331	26.3672	66.8359	26.3672	66.4795	26.3672	67.3044	26.3672	66.9025	26.3672	67.7589	26.3672	67.3577	26.3672	68.149	26.3672	67.7962	26.3672	68.4337	26.3672	68.1718	26.3672	68.5846	26.3672	68.4452	26.3672	68.588
27.832	67.9661	27.832	67.9509	27.832	67.9306	27.832	67.8864	27.832	67.8452	27.832	67.7763	27.832	67.7127	27.832	67.6278	27.832	67.5387	27.832	67.4525	27.832	67.3329	27.832	67.268	27.832	67.1104	27.832	67.0993	27.832	66.8937	27.832	66.9781	27.832	66.7127	27.832	66.9385	27.832	66.6034	27.832	67.0086	27.832	66.6003	27.832	67.1993	27.832	66.7261	27.832	67.4966	27.832	66.981	27.832	67.8626	27.832	67.3393	27.832	68.2443	27.832	67.755	27.832	68.5862	27.832	68.1734	27.832	68.8404	27.832	68.5416	27.832	68.9725	27.832	68.8157	27.832	68.9646
29.2969	68.8559	29.2969	68.835	29.2969	68.8303	29.2969	68.7687	29.2969	68.7596	29.2969	68.6606	29.2969	68.6472	29.2969	68.5177	29.2969	68.4995	29.2969	68.3515	29.2969	68.3268	29.2969	68.1795	29.2969	68.1442	29.2969	68.0257	29.2969	67.9731	29.2969	67.9204	29.2969	67.8404	29.2969	67.8956	29.2969	67.7764	29.2969	67.9769	29.2969	67.8085	29.2969	68.1737	29.2969	67.9524	29.2969	68.4723	29.2969	68.2048	29.2969	68.8364	29.2969	68.5412	29.2969	69.2162	29.2969	68.9213	29.2969	69.5591	29.2969	69.2977	29.2969	69.8196	29.2969	69.6238	29.2969	69.9653	29.2969	69.8604	29.2969	69.9791
30.7617	69.8243	30.7617	69.7921	30.7617	69.8135	30.7617	69.7176	30.7617	69.7609	30.7617	69.6041	30.7617	69.6694	30.7617	69.4576	30.7617	69.5445	30.7617	69.2883	30.7617	69.3945	30.7617	69.1119	30.7617	69.2317	30.7617	68.9502	30.7617	69.073	30.7617	68.8306	30.7617	68.9405	30.7617	68.7826	30.7617	68.8594	30.7617	68.8312	30.7617	68.8542	30.7617	68.9875	30.7617	68.9417	30.7617	69.2416	30.7617	69.1243	30.7617	69.5623	30.7617	69.3864	30.7617	69.9039	30.7617	69.6963	30.7617	70.2165	30.7617	70.0132	30.7617	70.4559	30.7617	70.2942	30.7617	70.5908	30.7617	70.5013	30.7617	70.6055
32.2266	70.8124	32.2266	70.7856	32.2266	70.7996	32.2266	70.7199	32.2266	70.7479	32.2266	70.6185	32.2266	70.6599	32.2266	70.4868	32.2266	70.5403	32.2266	70.3342	32.2266	70.3965	32.2266	70.1743	32.2266	70.2396	32.2266	70.0263	32.2266	70.085	32.2266	69.9139	32.2266	69.9527	32.2266	69.8629	32.2266	69.8661	32.2266	69.8955	32.2266	69.8484	32.2266	70.0226	32.2266	69.9162	32.2266	70.2375	32.2266	70.0732	32.2266	70.5146	32.2266	70.3066	32.2266	70.8141	32.2266	70.588	32.2266	71.091	32.2266	70.8794	32.2266	71.3041	32.2266	71.1401	32.2266	71.4234	32.2266	71.3339	32.2266	71.4333
33.6914	71.7347	33.6914	71.7131	33.6914	71.7192	33.6914	71.6551	33.6914	71.6671	33.6914	71.5633	33.6914	71.5805	33.6914	71.4423	33.6914	71.4634	33.6914	71.2998	33.6914	71.3221	33.6914	71.1469	33.6914	71.1656	33.6914	70.9992	33.6914	71.007	33.6914	70.8763	33.6914	70.8631	33.6914	70.8	33.6914	70.7538	33.6914	70.7906	33.6914	70.7	33.6914	70.8605	33.6914	70.7187	33.6914	71.0084	33.6914	70.8173	33.6914	71.2161	33.6914	70.9891	33.6914	71.4515	33.6914	71.2128	33.6914	71.6753	33.6914	71.4559	33.6914	71.8494	33.6914	71.6813	33.6914	71.9451	33.6914	71.8538	33.6914	71.9466
35.1562	72.5548	35.1562	72.5378	35.1562	72.5362	35.1562	72.4855	35.1562	72.4829	35.1562	72.3999	35.1562	72.3969	35.1562	72.2849	35.1562	72.2819	35.1562	72.1468	35.1562	72.1437	35.1562	71.9954	35.1562	71.9904	35.1562	71.8447	35.1562	71.8337	35.1562	71.7124	35.1562	71.6886	35.1562	71.6191	35.1562	71.5732	35.1562	71.5848	35.1562	71.5065	35.1562	71.6231	35.1562	71.5048	35.1562	71.7357	35.1562	71.576	35.1562	71.9088	35.1562	71.7162	35.1562	72.1138	35.1562	71.9075	35.1562	72.314	35.1562	72.1213	35.1562	72.4727	35.1562	72.3229	35.1562	72.561	35.1562	72.479	35.1562	72.5632
36.6211	73.2482	36.6211	73.2292	36.6211	73.2334	36.6211	73.1772	36.6211	73.1856	36.6211	73.0939	36.6211	73.1064	36.6211	72.9831	36.6211	72.9991	36.6211	72.8506	36.6211	72.8688	36.6211	72.7054	36.6211	72.7226	36.6211	72.5599	36.6211	72.5709	36.6211	72.4303	36.6211	72.4269	36.6211	72.3354	36.6211	72.3068	36.6211	72.2934	36.6211	72.2279	36.6211	72.3176	36.6211	72.2059	36.6211	72.4104	36.6211	72.2505	36.6211	72.5598	36.6211	72.3609	36.6211	72.7402	36.6211	72.5235	36.6211	72.9174	36.6211	72.7132	36.6211	73.0572	36.6211	72.8978	36.6211	73.1322	36.6211	73.0448	36.6211	73.1279
38.0859	74.0823	38.0859	74.0694	38.0859	74.0644	38.0859	74.0263	38.0859	74.0163	38.0859	73.9543	38.0859	73.9396	38.0859	73.8564	38.0859	73.8368	38.0859	73.7376	38.0859	73.7121	38.0859	73.6051	38.0859	73.5714	38.0859	73.4693	38.0859	73.4229	38.0859	73.3436	38.0859	73.278	38.0859	73.244	38.0859	73.1503	38.0859	73.1863	38.0859	73.0554	38.0859	73.1829	38.0859	73.0085	38.0859	73.2375	38.0859	73.0207	38.0859	73.3422	38.0859	73.0943	38.0859	73.4764	38.0859	73.2202	38.0859	73.6114	38.0859	73.3775	38.0859	73.7169	38.0859	73.5378	38.0859	73.7684	38.0859	73.6712	38.0859	73.7528
39.5508	74.7811	39.5508	74.7691	39.5508	74.7626	39.5508	74.7268	39.5508	74.7141	39.5508	74.6552	39.5508	74.6371	39.5508	74.5568	39.5508	74.5338	39.5508	74.4354	39.5508	74.4078	39.5508	74.2974	39.5508	74.264	39.5508	74.1519	39.5508	74.1097	39.5508	74.0111	39.5508	73.9544	39.5508	73.8896	39.5508	73.8104	39.5508	73.803	39.5508	73.6921	39.5508	73.7643	39.5508	73.6145	39.5508	73.7792	39.5508	73.5893	39.5508	73.8429	39.5508	73.6217	39.5508	73.9389	39.5508	73.7062	39.5508	74.0417	39.5508	73.8262	39.5508	74.1234	39.5508	73.9566	39.5508	74.1612	39.5508	74.0701	39.5508	74.143
41.0156	75.7031	41.0156	75.6867	41.0156	75.6908	41.0156	75.6418	41.0156	75.6503	41.0156	75.5689	41.0156	75.5828	41.0156	75.4698	41.0156	75.4898	41.0156	75.3476	41.0156	75.3744	41.0156	75.207	41.0156	75.2408	41.0156	75.0552	41.0156	75.0954	41.0156	74.9021	41.0156	74.9472	41.0156	74.7596	41.0156	74.8077	41.0156	74.6415	41.0156	74.69	41.0156	74.5605	41.0156	74.6065	41.0156	74.5254	41.0156	74.5658	41.0156	74.5376	41.0156	74.5685	41.0156	74.588	41.0156	74.6068	41.0156	74.6587	41.0156	74.6656	41.0156	74.7279	41.0156	74.7267	41.0156	74.7761	41.0156	74.7731	41.0156	74.7918
42.4805	76.0635	42.4805	76.042	42.4805	76.0568	42.4805	75.9921	42.4805	76.0222	42.4805	75.9147	42.4805	75.9606	42.4805	75.8111	42.4805	75.8733	42.4805	75.6842	42.4805	75.7626	42.4805	75.5386	42.4805	75.6319	42.4805	75.3816	42.4805	75.4864	42.4805	75.2232	42.4805	75.3335	42.4805	75.0762	42.4805	75.1832	42.4805	74.9549	42.4805	75.0472	42.4805	74.8727	42.4805	74.9379	42.4805	74.8378	42.4805	74.8659	42.4805	74.8499	42.4805	74.837	42.4805	74.8977	42.4805	74.85	42.4805	74.9616	42.4805	74.8951	42.4805	75.0191	42.4805	74.9562	42.4805	75.0515	42.4805	75.0135	42.4805	75.0491
43.9453	76.6892	43.9453	76.6809	43.9453	76.6711	43.9453	76.6458	43.9453	76.627	43.9453	76.5843	43.9453	76.5581	43.9453	76.4972	43.9453	76.4658	43.9453	76.3868	43.9453	76.3525	43.9453	76.2565	43.9453	76.2216	43.9453	76.1119	43.9453	76.0781	43.9453	75.9611	43.9453	75.9289	43.9453	75.8148	43.9453	75.7829	43.9453	75.6855	43.9453	75.6512	43.9453	75.5858	43.9453	75.5452	43.9453	75.5253	43.9453	75.475	43.9453	75.5069	43.9453	75.4462	43.9453	75.5243	43.9453	75.4572	43.9453	75.5631	43.9453	75.498	43.9453	75.6044	43.9453	75.5522	43.9453	75.6305	43.9453	75.6014	43.9453	75.6301
45.4102	77.1849	45.4102	77.1819	45.4102	77.1622	45.4102	77.1528	45.4102	77.1147	45.4102	77.0975	45.4102	77.0431	45.4102	77.0164	45.4102	76.9489	45.4102	76.9108	45.4102	76.8338	45.4102	76.7833	45.4102	76.7007	45.4102	76.6384	45.4102	76.5538	45.4102	76.4831	45.4102	76.3992	45.4102	76.327	45.4102	76.2452	45.4102	76.1821	45.4102	76.1019	45.4102	76.0611	45.4102	75.9808	45.4102	75.9747	45.4102	75.8924	45.4102	75.9281	45.4102	75.8436	45.4102	75.918	45.4102	75.8344	45.4102	75.9329	45.4102	75.8572	45.4102	75.9559	45.4102	75.8975	45.4102	75.9703	45.4102	75.9383	45.4102	75.965
46.875	77.7195	46.875	77.7136	46.875	77.6998	46.875	77.6816	46.875	77.6549	46.875	77.6232	46.875	77.5859	46.875	77.5389	46.875	77.4938	46.875	77.4297	46.875	77.3802	46.875	77.2981	46.875	77.2474	46.875	77.1485	46.875	77.0993	46.875	76.9875	46.875	76.941	46.875	76.8244	46.875	76.78	46.875	76.6704	46.875	76.6258	46.875	76.5379	46.875	76.4893	46.875	76.4372	46.875	76.3811	46.875	76.3741	46.875	76.3093	46.875	76.3466	46.875	76.2761	46.875	76.3449	46.875	76.2765	46.875	76.3542	46.875	76.2991	46.875	76.3596	46.875	76.3287	46.875	76.3514
48.3398	78.2497	48.3398	78.2418	48.3398	78.2331	48.3398	78.209	48.3398	78.1927	48.3398	78.1512	48.3398	78.1289	48.3398	78.0684	48.3398	78.0425	48.3398	77.9613	48.3398	77.9347	48.3398	77.832	48.3398	77.8072	48.3398	77.6838	48.3398	77.6631	48.3398	77.5224	48.3398	77.5068	48.3398	77.3558	48.3398	77.3446	48.3398	77.1944	48.3398	77.1849	48.3398	77.0496	48.3398	77.038	48.3398	76.9324	48.3398	76.9142	48.3398	76.8496	48.3398	76.8221	48.3398	76.8019	48.3398	76.7658	48.3398	76.7823	48.3398	76.7428	48.3398	76.7787	48.3398	76.7444	48.3398	76.778	48.3398	76.758	48.3398	76.7714
51.2695	79.1546	51.2695	79.1513	51.2695	79.1354	51.2695	79.1247	51.2695	79.0939	51.2695	79.0742	51.2695	79.0306	51.2695	78.9995	51.2695	78.9457	51.2695	78.9004	51.2695	78.8398	51.2695	78.7777	51.2695	78.714	51.2695	78.6337	51.2695	78.5702	51.2695	78.4725	51.2695	78.4119	51.2695	78.3005	51.2695	78.2444	51.2695	78.1268	51.2695	78.075	51.2695	77.9625	51.2695	77.9133	51.2695	77.8189	51.2695	77.7699	51.2695	77.7049	51.2695	77.6544	51.2695	77.6243	51.2695	77.573	51.2695	77.5741	51.2695	77.5259	51.2695	77.5459	51.2695	77.5075	51.2695	77.5292	51.2695	77.5078	51.2695	77.5169
52.7344	79.5863	52.7344	79.5836	52.7344	79.5676	52.7344	79.5588	52.7344	79.5281	52.7344	79.5111	52.7344	79.4681	52.7344	79.4398	52.7344	79.3877	52.7344	79.3446	52.7344	79.2875	52.7344	79.2258	52.7344	79.168	52.7344	79.085	52.7344	79.0308	52.7344	78.9259	52.7344	78.8786	52.7344	78.7542	52.7344	78.7158	52.7344	78.5783	52.7344	78.549	52.7344	78.4087	52.7344	78.3866	52.7344	78.2567	52.7344	78.2385	52.7344	78.1319	52.7344	78.1141	52.7344	78.0392	52.7344	78.02	52.7344	77.9778	52.7344	77.958	52.7344	77.9415	52.7344	77.9244	52.7344	77.9218	52.7344	77.9118	52.7344	77.9123
54.1992	79.9572	54.1992	79.9552	54.1992	79.9384	54.1992	79.9318	54.1992	79.8996	54.1992	79.886	54.1992	79.8409	54.1992	79.8169	54.1992	79.7625	54.1992	79.7238	54.1992	79.6647	54.1992	79.6068	54.1992	79.5478	54.1992	79.467	54.1992	79.413	54.1992	79.3075	54.1992	79.2625	54.1992	79.1335	54.1992	79.1001	54.1992	78.9529	54.1992	78.9318	54.1992	78.7758	54.1992	78.7653	54.1992	78.6134	54.1992	78.6101	54.1992	78.4761	54.1992	78.4755	54.1992	78.3702	54.1992	78.3687	54.1992	78.2965	54.1992	78.2928	54.1992	78.2507	54.1992	78.2459	54.1992	78.2261	54.1992	78.2227	54.1992	78.2172
55.6641	80.3469	55.6641	80.3446	55.6641	80.3294	55.6641	80.3217	55.6641	80.2925	55.6641	80.2771	55.6641	80.2363	55.6641	80.2099	55.6641	80.1609	55.6641	80.119	55.6641	80.0658	55.6641	80.0042	55.6641	79.9513	55.6641	79.8661	55.6641	79.8179	55.6641	79.707	55.6641	79.6673	55.6641	79.5315	55.6641	79.5028	55.6641	79.3468	55.6641	79.3295	55.6641	79.1624	55.6641	79.1549	55.6641	78.9895	55.6641	78.988	55.6641	78.8385	55.6641	78.8387	55.6641	78.717	55.6641	78.7153	55.6641	78.6275	55.6641	78.6229	55.6641	78.568	55.6641	78.5621	55.6641	78.5339	55.6641	78.5297	55.6641	78.5213
58.5938	80.9681	58.5938	80.9669	58.5938	80.9511	58.5938	80.9466	58.5938	80.9161	58.5938	80.906	58.5938	80.8631	58.5938	80.8435	58.5938	80.7915	58.5938	80.7577	58.5938	80.7005	58.5938	80.6474	58.5938	80.5893	58.5938	80.5126	58.5938	80.4576	58.5938	80.3543	58.5938	80.3061	58.5938	80.176	58.5938	80.1368	58.5938	79.9835	58.5938	79.9539	58.5938	79.7854	58.5938	79.7642	58.5938	79.5925	58.5938	79.5767	58.5938	79.416	58.5938	79.4021	58.5938	79.2657	58.5938	79.2512	58.5938	79.1478	58.5938	79.1324	58.5938	79.0639	58.5938	79.0501	58.5938	79.0128	58.5938	79.0044	58.5938	78.9928
60.0586	81.2628	60.0586	81.2628	60.0586	81.2459	60.0586	81.2449	60.0586	81.2122	60.0586	81.2078	60.0586	81.1617	60.0586	81.1497	60.0586	81.0935	60.0586	81.069	60.0586	81.0067	60.0586	80.9641	60.0586	80.9003	60.0586	80.8344	60.0586	80.7737	60.0586	80.6805	60.0586	80.6269	60.0586	80.5051	60.0586	80.4618	60.0586	80.3136	60.0586	80.2818	60.0586	80.1139	60.0586	80.0929	60.0586	79.9166	60.0586	79.9038	60.0586	79.7331	60.0586	79.7248	60.0586	79.5741	60.0586	79.5668	60.0586	79.447	60.0586	79.4392	60.0586	79.3555	60.0586	79.3479	60.0586	79.2998	60.0586	79.295	60.0586	79.2795
62.9883	81.8909	62.9883	81.8903	62.9883	81.876	62.9883	81.8733	62.9883	81.8458	62.9883	81.8384	62.9883	81.8	62.9883	81.7835	62.9883	81.7376	62.9883	81.7067	62.9883	81.6572	62.9883	81.6058	62.9883	81.5575	62.9883	81.4795	62.9883	81.4371	62.9883	81.3277	62.9883	81.2956	62.9883	81.1523	62.9883	81.1336	62.9883	80.9575	62.9883	80.9538	62.9883	80.7509	62.9883	80.7612	62.9883	80.5426	62.9883	80.5637	62.9883	80.3447	62.9883	80.3713	62.9883	80.1694	62.9883	80.1959	62.9883	80.0266	62.9883	80.0485	62.9883	79.9229	62.9883	79.9377	62.9883	79.8615	62.9883	79.8687	62.9883	79.8432
64.4531	82.1542	64.4531	82.1567	64.4531	82.1368	64.4531	82.1432	64.4531	82.1049	64.4531	82.1122	64.4531	82.058	64.4531	82.0614	64.4531	81.9951	64.4531	81.9886	64.4531	81.9148	64.4531	81.8914	64.4531	81.8154	64.4531	81.7682	64.4531	81.6954	64.4531	81.6184	64.4531	81.5538	64.4531	81.4433	64.4531	81.391	64.4531	81.2469	64.4531	81.209	64.4531	81.0359	64.4531	81.0126	64.4531	80.8203	64.4531	80.8093	64.4531	80.6123	64.4531	80.6096	64.4531	80.4246	64.4531	80.4258	64.4531	80.2685	64.4531	80.2701	64.4531	80.1523	64.4531	80.153	64.4531	80.0809	64.4531	80.0809	64.4531	80.0567
67.3828	82.6422	67.3828	82.6486	67.3828	82.6209	67.3828	82.6391	67.3828	82.5852	67.3828	82.6117	67.3828	82.5345	67.3828	82.564	67.3828	82.4677	67.3828	82.4932	67.3828	82.3829	67.3828	82.3962	67.3828	82.2783	67.3828	82.2707	67.3828	82.152	67.3828	82.1154	67.3828	82.0027	67.3828	81.9308	67.3828	81.8303	67.3828	81.7202	67.3828	81.637	67.3828	81.4903	67.3828	81.4272	67.3828	81.2513	67.3828	81.2087	67.3828	81.0169	67.3828	80.9923	67.3828	80.8018	67.3828	80.791	67.3828	80.6206	67.3828	80.6182	67.3828	80.4846	67.3828	80.4859	67.3828	80.4012	67.3828	80.4026	67.3828	80.3737
68.8477	82.7876	68.8477	82.7851	68.8477	82.7765	68.8477	82.7681	68.8477	82.752	68.8477	82.7347	68.8477	82.7133	68.8477	82.6824	68.8477	82.6589	68.8477	82.6081	68.8477	82.5866	68.8477	82.5088	68.8477	82.4941	68.8477	82.3819	68.8477	82.379	68.8477	82.2259	68.8477	82.2396	68.8477	82.0411	68.8477	82.0755	68.8477	81.8309	68.8477	81.8883	68.8477	81.6021	68.8477	81.6821	68.8477	81.3651	68.8477	81.4641	68.8477	81.1342	68.8477	81.2445	68.8477	80.925	68.8477	81.0357	68.8477	80.7526	68.8477	80.851	68.8477	80.629	68.8477	80.7027	68.8477	80.5614	68.8477	80.6009	68.8477	80.5524
