"SPL Horizontal"
"On-Axis"		"10°"		"-10°"		"20°"		"-20°"		"30°"		"-30°"		"40°"		"-40°"		"50°"		"-50°"		"60°"		"-60°"		"70°"		"-70°"		"80°"		"-80°"		"90°"		"-90°"		"100°"		"-100°"		"110°"		"-110°"		"120°"		"-120°"		"130°"		"-130°"		"140°"		"-140°"		"150°"		"-150°"		"160°"		"-160°"		"170°"		"-170°"		"180°"
"Frequency / Hz"	"Sound Pressure Level / dB (re 20 µPa/V)  [2.83  V @ 1. m]"	"Frequency / Hz"	"Sound Pressure Level / dB (re 20 µPa/V)  [2.83  V @ 1. m]"	"Frequency / Hz"	"Sound Pressure Level / dB (re 20 µPa/V)  [2.83  V @ 1. m]"	"Frequency / Hz"	"Sound Pressure Level / dB (re 20 µPa/V)  [2.83  V @ 1. m]"	"Frequency / Hz"	"Sound Pressure Level / dB (re 20 µPa/V)  [2.83  V @ 1. m]"	"Frequency / Hz"	"Sound Pressure Level / dB (re 20 µPa/V)  [2.83  V @ 1. m]"	"Frequency / Hz"	"Sound Pressure Level / dB (re 20 µPa/V)  [2.83  V @ 1. m]"	"Frequency / Hz"	"Sound Pressure Level / dB (re 20 µPa/V)  [2.83  V @ 1. m]"	"Frequency / Hz"	"Sound Pressure Level / dB (re 20 µPa/V)  [2.83  V @ 1. m]"	"Frequency / Hz"	"Sound Pressure Level / dB (re 20 µPa/V)  [2.83  V @ 1. m]"	"Frequency / Hz"	"Sound Pressure Level / dB (re 20 µPa/V)  [2.83  V @ 1. m]"	"Frequency / Hz"	"Sound Pressure Level / dB (re 20 µPa/V)  [2.83  V @ 1. m]"	"Frequency / Hz"	"Sound Pressure Level / dB (re 20 µPa/V)  [2.83  V @ 1. m]"	"Frequency / Hz"	"Sound Pressure Level / dB (re 20 µPa/V)  [2.83  V @ 1. m]"	"Frequency / Hz"	"Sound Pressure Level / dB (re 20 µPa/V)  [2.83  V @ 1. m]"	"Frequency / Hz"	"Sound Pressure Level / dB (re 20 µPa/V)  [2.83  V @ 1. m]"	"Frequency / Hz"	"Sound Pressure Level / dB (re 20 µPa/V)  [2.83  V @ 1. m]"	"Frequency / Hz"	"Sound Pressure Level / dB (re 20 µPa/V)  [2.83  V @ 1. m]"	"Frequency / Hz"	"Sound Pressure Level / dB (re 20 µPa/V)  [2.83  V @ 1. m]"	"Frequency / Hz"	"Sound Pressure Level / dB (re 20 µPa/V)  [2.83  V @ 1. m]"	"Frequency / Hz"	"Sound Pressure Level / dB (re 20 µPa/V)  [2.83  V @ 1. m]"	"Frequency / Hz"	"Sound Pressure Level / dB (re 20 µPa/V)  [2.83  V @ 1. m]"	"Frequency / Hz"	"Sound Pressure Level / dB (re 20 µPa/V)  [2.83  V @ 1. m]"	"Frequency / Hz"	"Sound Pressure Level / dB (re 20 µPa/V)  [2.83  V @ 1. m]"	"Frequency / Hz"	"Sound Pressure Level / dB (re 20 µPa/V)  [2.83  V @ 1. m]"	"Frequency / Hz"	"Sound Pressure Level / dB (re 20 µPa/V)  [2.83  V @ 1. m]"	"Frequency / Hz"	"Sound Pressure Level / dB (re 20 µPa/V)  [2.83  V @ 1. m]"	"Frequency / Hz"	"Sound Pressure Level / dB (re 20 µPa/V)  [2.83  V @ 1. m]"	"Frequency / Hz"	"Sound Pressure Level / dB (re 20 µPa/V)  [2.83  V @ 1. m]"	"Frequency / Hz"	"Sound Pressure Level / dB (re 20 µPa/V)  [2.83  V @ 1. m]"	"Frequency / Hz"	"Sound Pressure Level / dB (re 20 µPa/V)  [2.83  V @ 1. m]"	"Frequency / Hz"	"Sound Pressure Level / dB (re 20 µPa/V)  [2.83  V @ 1. m]"	"Frequency / Hz"	"Sound Pressure Level / dB (re 20 µPa/V)  [2.83  V @ 1. m]"	"Frequency / Hz"	"Sound Pressure Level / dB (re 20 µPa/V)  [2.83  V @ 1. m]"	"Frequency / Hz"	"Sound Pressure Level / dB (re 20 µPa/V)  [2.83  V @ 1. m]"	"Frequency / Hz"	"Sound Pressure Level / dB (re 20 µPa/V)  [2.83  V @ 1. m]"
20.5078	60.0534	20.5078	59.9091	20.5078	60.22	20.5078	59.7898	20.5078	60.4018	20.5078	59.6944	20.5078	60.5885	20.5078	59.6192	20.5078	60.7674	20.5078	59.5602	20.5078	60.9262	20.5078	59.5144	20.5078	61.0544	20.5078	59.4809	20.5078	61.146	20.5078	59.4617	20.5078	61.2003	20.5078	59.461	20.5078	61.2234	20.5078	59.4849	20.5078	61.2266	20.5078	59.5405	20.5078	61.2236	20.5078	59.6348	20.5078	61.2246	20.5078	59.7726	20.5078	61.2313	20.5078	59.9543	20.5078	61.2344	20.5078	60.1735	20.5078	61.2161	20.5078	60.4148	20.5078	61.1568	20.5078	60.656	20.5078	61.0428	20.5078	60.8722
21.9727	60.9037	21.9727	61.0274	21.9727	60.7742	21.9727	61.1425	21.9727	60.6446	21.9727	61.2486	21.9727	60.5225	21.9727	61.3469	21.9727	60.417	21.9727	61.4402	21.9727	60.3377	21.9727	61.5308	21.9727	60.2923	21.9727	61.6201	21.9727	60.2854	21.9727	61.7078	21.9727	60.3179	21.9727	61.7917	21.9727	60.3866	21.9727	61.8679	21.9727	60.4863	21.9727	61.9313	21.9727	60.6111	21.9727	61.9763	21.9727	60.7548	21.9727	61.9977	21.9727	60.9115	21.9727	61.9917	21.9727	61.0755	21.9727	61.9563	21.9727	61.2407	21.9727	61.8919	21.9727	61.4011	21.9727	61.8006	21.9727	61.5511	21.9727	61.6857
23.4375	66.057	23.4375	66.0633	23.4375	66.0405	23.4375	66.0581	23.4375	66.0158	23.4375	66.0412	23.4375	65.9859	23.4375	66.0137	23.4375	65.954	23.4375	65.9778	23.4375	65.9232	23.4375	65.9361	23.4375	65.8957	23.4375	65.8922	23.4375	65.8732	23.4375	65.8495	23.4375	65.8567	23.4375	65.8117	23.4375	65.8468	23.4375	65.7816	23.4375	65.8438	23.4375	65.7617	23.4375	65.8475	23.4375	65.7532	23.4375	65.8574	23.4375	65.7564	23.4375	65.8713	23.4375	65.7703	23.4375	65.8858	23.4375	65.7929	23.4375	65.8967	23.4375	65.821	23.4375	65.9	23.4375	65.8501	23.4375	65.8929	23.4375	65.8755
24.9023	71.132	24.9023	71.1329	24.9023	71.1285	24.9023	71.1316	24.9023	71.1219	24.9023	71.1285	24.9023	71.1116	24.9023	71.1237	24.9023	71.0976	24.9023	71.1173	24.9023	71.0804	24.9023	71.1097	24.9023	71.0612	24.9023	71.1013	24.9023	71.0417	24.9023	71.0931	24.9023	71.0246	24.9023	71.0866	24.9023	71.0124	24.9023	71.083	24.9023	71.0079	24.9023	71.0837	24.9023	71.0128	24.9023	71.089	24.9023	71.0273	24.9023	71.0986	24.9023	71.0497	24.9023	71.1115	24.9023	71.0768	24.9023	71.1257	24.9023	71.104	24.9023	71.1385	24.9023	71.127	24.9023	71.1472	24.9023	71.1426	24.9023	71.1492
26.3672	74.5123	26.3672	74.4987	26.3672	74.5246	26.3672	74.4841	26.3672	74.535	26.3672	74.4688	26.3672	74.5431	26.3672	74.453	26.3672	74.5485	26.3672	74.437	26.3672	74.5508	26.3672	74.4212	26.3672	74.55	26.3672	74.4061	26.3672	74.5462	26.3672	74.3923	26.3672	74.54	26.3672	74.3806	26.3672	74.5321	26.3672	74.372	26.3672	74.5236	26.3672	74.3672	26.3672	74.5154	26.3672	74.367	26.3672	74.5082	26.3672	74.3716	26.3672	74.5018	26.3672	74.3809	26.3672	74.4954	26.3672	74.3943	26.3672	74.4877	26.3672	74.411	26.3672	74.4774	26.3672	74.4293	26.3672	74.4639	26.3672	74.4475
27.832	77.3508	27.832	77.3457	27.832	77.353	27.832	77.3376	27.832	77.3519	27.832	77.3266	27.832	77.3476	27.832	77.3127	27.832	77.3399	27.832	77.2963	27.832	77.3288	27.832	77.2777	27.832	77.3147	27.832	77.2574	27.832	77.2977	27.832	77.2365	27.832	77.2789	27.832	77.2157	27.832	77.2591	27.832	77.1963	27.832	77.2398	27.832	77.1793	27.832	77.2223	27.832	77.1656	27.832	77.2077	27.832	77.156	27.832	77.1963	27.832	77.1507	27.832	77.1878	27.832	77.1496	27.832	77.1813	27.832	77.1521	27.832	77.1755	27.832	77.157	27.832	77.1695	27.832	77.1632
29.2969	80.3512	29.2969	80.3476	29.2969	80.3505	29.2969	80.3398	29.2969	80.3455	29.2969	80.3279	29.2969	80.3361	29.2969	80.312	29.2969	80.3223	29.2969	80.2923	29.2969	80.3044	29.2969	80.2695	29.2969	80.2827	29.2969	80.2441	29.2969	80.2582	29.2969	80.2171	29.2969	80.2319	29.2969	80.1898	29.2969	80.2053	29.2969	80.1634	29.2969	80.1798	29.2969	80.1394	29.2969	80.1567	29.2969	80.1188	29.2969	80.1369	29.2969	80.1025	29.2969	80.1208	29.2969	80.0909	29.2969	80.1082	29.2969	80.0837	29.2969	80.0986	29.2969	80.0804	29.2969	80.0914	29.2969	80.0801	29.2969	80.086	29.2969	80.0822
30.7617	83.2227	30.7617	83.2304	30.7617	83.211	30.7617	83.2336	30.7617	83.1956	30.7617	83.2322	30.7617	83.1769	30.7617	83.2258	30.7617	83.1554	30.7617	83.2145	30.7617	83.132	30.7617	83.1984	30.7617	83.1074	30.7617	83.1779	30.7617	83.0829	30.7617	83.1536	30.7617	83.0596	30.7617	83.1266	30.7617	83.0387	30.7617	83.0979	30.7617	83.0211	30.7617	83.0691	30.7617	83.0073	30.7617	83.042	30.7617	82.997	30.7617	83.0183	30.7617	82.9899	30.7617	82.9993	30.7617	82.985	30.7617	82.9857	30.7617	82.9813	30.7617	82.9776	30.7617	82.9783	30.7617	82.974	30.7617	82.9756	30.7617	82.9739
32.2266	85.4927	32.2266	85.4976	32.2266	85.4832	32.2266	85.4978	32.2266	85.4692	32.2266	85.4935	32.2266	85.4508	32.2266	85.4848	32.2266	85.4285	32.2266	85.472	32.2266	85.4028	32.2266	85.4553	32.2266	85.3746	32.2266	85.4352	32.2266	85.3448	32.2266	85.4122	32.2266	85.3144	32.2266	85.3868	32.2266	85.2845	32.2266	85.3597	32.2266	85.2564	32.2266	85.3315	32.2266	85.2311	32.2266	85.303	32.2266	85.2093	32.2266	85.2751	32.2266	85.1919	32.2266	85.2487	32.2266	85.179	32.2266	85.2248	32.2266	85.171	32.2266	85.2044	32.2266	85.1679	32.2266	85.1881	32.2266	85.1697	32.2266	85.1764
33.6914	87.7646	33.6914	87.7649	33.6914	87.7566	33.6914	87.7574	33.6914	87.7412	33.6914	87.7422	33.6914	87.7185	33.6914	87.7196	33.6914	87.6891	33.6914	87.6899	33.6914	87.6536	33.6914	87.6538	33.6914	87.6127	33.6914	87.6124	33.6914	87.5675	33.6914	87.5668	33.6914	87.5191	33.6914	87.5183	33.6914	87.4691	33.6914	87.4686	33.6914	87.4191	33.6914	87.4193	33.6914	87.3708	33.6914	87.372	33.6914	87.3262	33.6914	87.3281	33.6914	87.2869	33.6914	87.2892	33.6914	87.2541	33.6914	87.2565	33.6914	87.229	33.6914	87.2309	33.6914	87.2121	33.6914	87.2133	33.6914	87.2038	33.6914	87.2042
35.1562	90.2372	35.1562	90.2384	35.1562	90.2284	35.1562	90.2318	35.1562	90.2122	35.1562	90.2177	35.1562	90.189	35.1562	90.1962	35.1562	90.1595	35.1562	90.1679	35.1562	90.1243	35.1562	90.1335	35.1562	90.0844	35.1562	90.094	35.1562	90.0409	35.1562	90.0506	35.1562	89.9953	35.1562	90.0047	35.1562	89.9488	35.1562	89.9578	35.1562	89.903	35.1562	89.9114	35.1562	89.8596	35.1562	89.867	35.1562	89.8199	35.1562	89.8261	35.1562	89.7852	35.1562	89.79	35.1562	89.7565	35.1562	89.7598	35.1562	89.7345	35.1562	89.7365	35.1562	89.7196	35.1562	89.7206	35.1562	89.7122	35.1562	89.7125
36.6211	91.8454	36.6211	91.8464	36.6211	91.8356	36.6211	91.8384	36.6211	91.8172	36.6211	91.8217	36.6211	91.7905	36.6211	91.7964	36.6211	91.7564	36.6211	91.7634	36.6211	91.7155	36.6211	91.7232	36.6211	91.6689	36.6211	91.677	36.6211	91.6179	36.6211	91.626	36.6211	91.5637	36.6211	91.5716	36.6211	91.5081	36.6211	91.5155	36.6211	91.4526	36.6211	91.4594	36.6211	91.3991	36.6211	91.4051	36.6211	91.3493	36.6211	91.3542	36.6211	91.305	36.6211	91.3087	36.6211	91.2676	36.6211	91.27	36.6211	91.2383	36.6211	91.2397	36.6211	91.2182	36.6211	91.2189	36.6211	91.208	36.6211	91.2082
38.0859	93.7139	38.0859	93.7148	38.0859	93.7031	38.0859	93.7057	38.0859	93.6828	38.0859	93.6868	38.0859	93.6535	38.0859	93.6584	38.0859	93.6159	38.0859	93.6212	38.0859	93.5709	38.0859	93.576	38.0859	93.5198	38.0859	93.524	38.0859	93.4637	38.0859	93.4667	38.0859	93.4042	38.0859	93.4055	38.0859	93.343	38.0859	93.3424	38.0859	93.2817	38.0859	93.2793	38.0859	93.2224	38.0859	93.2183	38.0859	93.1668	38.0859	93.1613	38.0859	93.1169	38.0859	93.1106	38.0859	93.0742	38.0859	93.068	38.0859	93.0404	38.0859	93.0351	38.0859	93.0166	38.0859	93.013	38.0859	93.0038	38.0859	93.0025
39.5508	95.4881	39.5508	95.4898	39.5508	95.476	39.5508	95.4809	39.5508	95.4538	39.5508	95.4614	39.5508	95.4223	39.5508	95.4317	39.5508	95.3823	39.5508	95.3925	39.5508	95.3347	39.5508	95.3445	39.5508	95.2807	39.5508	95.289	39.5508	95.2217	39.5508	95.2276	39.5508	95.1591	39.5508	95.1618	39.5508	95.0947	39.5508	95.0938	39.5508	95.0301	39.5508	95.0257	39.5508	94.9673	39.5508	94.9598	39.5508	94.9082	39.5508	94.8986	39.5508	94.8547	39.5508	94.8441	39.5508	94.8088	39.5508	94.7985	39.5508	94.772	39.5508	94.7635	39.5508	94.7459	39.5508	94.7402	39.5508	94.7314	39.5508	94.7295
41.0156	97.138	41.0156	97.1437	41.0156	97.1214	41.0156	97.1385	41.0156	97.0945	41.0156	97.1223	41.0156	97.0579	41.0156	97.0956	41.0156	97.0124	41.0156	97.059	41.0156	96.9591	41.0156	97.0136	41.0156	96.8992	41.0156	96.9604	41.0156	96.8343	41.0156	96.901	41.0156	96.7661	41.0156	96.8369	41.0156	96.6965	41.0156	96.7697	41.0156	96.6277	41.0156	96.7013	41.0156	96.562	41.0156	96.6335	41.0156	96.5015	41.0156	96.5684	41.0156	96.4485	41.0156	96.508	41.0156	96.405	41.0156	96.4546	41.0156	96.3728	41.0156	96.4101	41.0156	96.3534	41.0156	96.3765	41.0156	96.3474	41.0156	96.3553
42.4805	98.4102	42.4805	98.4154	42.4805	98.394	42.4805	98.4092	42.4805	98.367	42.4805	98.3918	42.4805	98.3301	42.4805	98.3633	42.4805	98.2841	42.4805	98.3243	42.4805	98.2301	42.4805	98.2756	42.4805	98.1695	42.4805	98.2185	42.4805	98.1038	42.4805	98.1542	42.4805	98.0346	42.4805	98.0845	42.4805	97.9637	42.4805	98.0114	42.4805	97.8931	42.4805	97.9372	42.4805	97.8248	42.4805	97.8642	42.4805	97.7608	42.4805	97.795	42.4805	97.7036	42.4805	97.732	42.4805	97.6552	42.4805	97.6777	42.4805	97.6177	42.4805	97.6341	42.4805	97.5929	42.4805	97.6029	42.4805	97.5819	42.4805	97.5852
43.9453	99.3593	43.9453	99.3652	43.9453	99.3419	43.9453	99.3594	43.9453	99.3134	43.9453	99.342	43.9453	99.2745	43.9453	99.3134	43.9453	99.226	43.9453	99.2742	43.9453	99.1693	43.9453	99.2253	43.9453	99.1056	43.9453	99.168	43.9453	99.0366	43.9453	99.1036	43.9453	98.9641	43.9453	99.0339	43.9453	98.8904	43.9453	98.9608	43.9453	98.8176	43.9453	98.8865	43.9453	98.748	43.9453	98.8133	43.9453	98.6842	43.9453	98.7437	43.9453	98.6282	43.9453	98.68	43.9453	98.5822	43.9453	98.6246	43.9453	98.5479	43.9453	98.5793	43.9453	98.5266	43.9453	98.5459	43.9453	98.5191	43.9453	98.5256
45.4102	99.83	45.4102	99.8345	45.4102	99.8145	45.4102	99.828	45.4102	99.7884	45.4102	99.8106	45.4102	99.7525	45.4102	99.7829	45.4102	99.7076	45.4102	99.7454	45.4102	99.6549	45.4102	99.6992	45.4102	99.596	45.4102	99.6455	45.4102	99.5322	45.4102	99.5858	45.4102	99.4654	45.4102	99.5216	45.4102	99.3975	45.4102	99.4549	45.4102	99.3306	45.4102	99.3875	45.4102	99.2667	45.4102	99.3215	45.4102	99.2082	45.4102	99.259	45.4102	99.157	45.4102	99.202	45.4102	99.115	45.4102	99.1524	45.4102	99.0838	45.4102	99.1119	45.4102	99.0645	45.4102	99.082	45.4102	99.0578	45.4102	99.0637
46.875	100.08	46.875	100.086	46.875	100.063	46.875	100.079	46.875	100.033	46.875	100.06	46.875	99.9933	46.875	100.029	46.875	99.9436	46.875	99.9873	46.875	99.8858	46.875	99.9362	46.875	99.8218	46.875	99.877	46.875	99.7533	46.875	99.8117	46.875	99.6827	46.875	99.7423	46.875	99.612	46.875	99.6709	46.875	99.5432	46.875	99.5999	46.875	99.4786	46.875	99.5315	46.875	99.42	46.875	99.4677	46.875	99.3693	46.875	99.4106	46.875	99.328	46.875	99.3616	46.875	99.2974	46.875	99.3223	46.875	99.2783	46.875	99.2936	46.875	99.2713	46.875	99.2765
48.3398	99.915	48.3398	99.9178	48.3398	99.8993	48.3398	99.9078	48.3398	99.8713	48.3398	99.8852	48.3398	99.8319	48.3398	99.8505	48.3398	99.7821	48.3398	99.8048	48.3398	99.7234	48.3398	99.7495	48.3398	99.6579	48.3398	99.6862	48.3398	99.5875	48.3398	99.6171	48.3398	99.5146	48.3398	99.5443	48.3398	99.4415	48.3398	99.4704	48.3398	99.3706	48.3398	99.3979	48.3398	99.304	48.3398	99.3292	48.3398	99.244	48.3398	99.2665	48.3398	99.1921	48.3398	99.2115	48.3398	99.1498	48.3398	99.1656	48.3398	99.118	48.3398	99.1299	48.3398	99.0975	48.3398	99.1049	48.3398	99.0885	48.3398	99.091
51.2695	99.357	51.2695	99.3585	51.2695	99.3418	51.2695	99.3461	51.2695	99.3133	51.2695	99.3201	51.2695	99.2723	51.2695	99.2813	51.2695	99.2198	51.2695	99.2308	51.2695	99.1574	51.2695	99.1699	51.2695	99.0869	51.2695	99.1004	51.2695	99.0104	51.2695	99.0246	51.2695	98.9302	51.2695	98.9447	51.2695	98.8487	51.2695	98.8634	51.2695	98.7687	51.2695	98.7834	51.2695	98.6926	51.2695	98.7072	51.2695	98.623	51.2695	98.6373	51.2695	98.5623	51.2695	98.5757	51.2695	98.5123	51.2695	98.5242	51.2695	98.4745	51.2695	98.4839	51.2695	98.4497	51.2695	98.4558	51.2695	98.4384	51.2695	98.4405
52.7344	99.1139	52.7344	99.1172	52.7344	99.0967	52.7344	99.1066	52.7344	99.0663	52.7344	99.0822	52.7344	99.0235	52.7344	99.0448	52.7344	98.9696	52.7344	98.9954	52.7344	98.9061	52.7344	98.9354	52.7344	98.8351	52.7344	98.8666	52.7344	98.7586	52.7344	98.791	52.7344	98.6788	52.7344	98.711	52.7344	98.5984	52.7344	98.6292	52.7344	98.5197	52.7344	98.5482	52.7344	98.4452	52.7344	98.4709	52.7344	98.3775	52.7344	98.3997	52.7344	98.3185	52.7344	98.3371	52.7344	98.2701	52.7344	98.2848	52.7344	98.2335	52.7344	98.2441	52.7344	98.2095	52.7344	98.2159	52.7344	98.1985	52.7344	98.2007
54.1992	98.9569	54.1992	98.9606	54.1992	98.9392	54.1992	98.9505	54.1992	98.9081	54.1992	98.927	54.1992	98.8645	54.1992	98.891	54.1992	98.8096	54.1992	98.8437	54.1992	98.7453	54.1992	98.7868	54.1992	98.6738	54.1992	98.7223	54.1992	98.5975	54.1992	98.6523	54.1992	98.5195	54.1992	98.5792	54.1992	98.4425	54.1992	98.5055	54.1992	98.3696	54.1992	98.4337	54.1992	98.3034	54.1992	98.3661	54.1992	98.246	54.1992	98.3046	54.1992	98.1991	54.1992	98.251	54.1992	98.1633	54.1992	98.2063	54.1992	98.1388	54.1992	98.1709	54.1992	98.1253	54.1992	98.1451	54.1992	98.1222	54.1992	98.1289
55.6641	98.7394	55.6641	98.7373	55.6641	98.7254	55.6641	98.7195	55.6641	98.6957	55.6641	98.6866	55.6641	98.6506	55.6641	98.6394	55.6641	98.5912	55.6641	98.5794	55.6641	98.5188	55.6641	98.5083	55.6641	98.4355	55.6641	98.428	55.6641	98.3436	55.6641	98.341	55.6641	98.2461	55.6641	98.2501	55.6641	98.1464	55.6641	98.158	55.6641	98.0483	55.6641	98.0677	55.6641	97.9556	55.6641	97.982	55.6641	97.8718	55.6641	97.9032	55.6641	97.8003	55.6641	97.8336	55.6641	97.7431	55.6641	97.7747	55.6641	97.7018	55.6641	97.7277	55.6641	97.6766	55.6641	97.6936	55.6641	97.6673	55.6641	97.6732
58.5938	98.5839	58.5938	98.5834	58.5938	98.5675	58.5938	98.5657	58.5938	98.5346	58.5938	98.5313	58.5938	98.4863	58.5938	98.4811	58.5938	98.4241	58.5938	98.4165	58.5938	98.3497	58.5938	98.3393	58.5938	98.2653	58.5938	98.2519	58.5938	98.1733	58.5938	98.1571	58.5938	98.0763	58.5938	98.0577	58.5938	97.9772	58.5938	97.9569	58.5938	97.8789	58.5938	97.858	58.5938	97.7842	58.5938	97.7639	58.5938	97.6961	58.5938	97.6776	58.5938	97.6175	58.5938	97.6016	58.5938	97.5509	58.5938	97.5383	58.5938	97.4985	58.5938	97.4895	58.5938	97.4621	58.5938	97.4567	58.5938	97.4427	58.5938	97.4409
60.0586	98.6757	60.0586	98.6756	60.0586	98.6606	60.0586	98.6603	60.0586	98.6308	60.0586	98.6303	60.0586	98.5871	60.0586	98.5865	60.0586	98.531	60.0586	98.5306	60.0586	98.4643	60.0586	98.4641	60.0586	98.3892	60.0586	98.3895	60.0586	98.3082	60.0586	98.309	60.0586	98.2237	60.0586	98.2253	60.0586	98.1387	60.0586	98.1412	60.0586	98.0557	60.0586	98.0592	60.0586	97.9773	60.0586	97.982	60.0586	97.906	60.0586	97.9118	60.0586	97.8438	60.0586	97.8505	60.0586	97.7926	60.0586	97.7995	60.0586	97.7538	60.0586	97.7598	60.0586	97.7282	60.0586	97.7324	60.0586	97.7162	60.0586	97.7177
62.9883	98.7863	62.9883	98.7821	62.9883	98.7734	62.9883	98.7606	62.9883	98.7438	62.9883	98.7225	62.9883	98.6988	62.9883	98.669	62.9883	98.6399	62.9883	98.6019	62.9883	98.5694	62.9883	98.5237	62.9883	98.4896	62.9883	98.4373	62.9883	98.4036	62.9883	98.3461	62.9883	98.3143	62.9883	98.2535	62.9883	98.2248	62.9883	98.1631	62.9883	98.1383	62.9883	98.078	62.9883	98.0574	62.9883	98.0009	62.9883	97.9845	62.9883	97.9339	62.9883	97.9213	62.9883	97.8782	62.9883	97.8691	62.9883	97.8346	62.9883	97.8284	62.9883	97.8034	62.9883	97.7996	62.9883	97.7844	62.9883	97.7826	62.9883	97.7776
64.4531	98.8623	64.4531	98.858	64.4531	98.8495	64.4531	98.8365	64.4531	98.8201	64.4531	98.7986	64.4531	98.7752	64.4531	98.7456	64.4531	98.7165	64.4531	98.6795	64.4531	98.6462	64.4531	98.6027	64.4531	98.5668	64.4531	98.5182	64.4531	98.4813	64.4531	98.429	64.4531	98.3928	64.4531	98.3386	64.4531	98.3043	64.4531	98.2501	64.4531	98.2189	64.4531	98.1666	64.4531	98.1392	64.4531	98.0906	64.4531	98.0676	64.4531	98.0243	64.4531	98.0058	64.4531	97.9689	64.4531	97.9548	64.4531	97.9254	64.4531	97.9154	64.4531	97.894	64.4531	97.8876	64.4531	97.8747	64.4531	97.8716	64.4531	97.8673
67.3828	99.0065	67.3828	98.9994	67.3828	98.9969	67.3828	98.9757	67.3828	98.9709	67.3828	98.9364	67.3828	98.9298	67.3828	98.8829	67.3828	98.8751	67.3828	98.8175	67.3828	98.8092	67.3828	98.7426	67.3828	98.7349	67.3828	98.6615	67.3828	98.6552	67.3828	98.5773	67.3828	98.5732	67.3828	98.4933	67.3828	98.4923	67.3828	98.4128	67.3828	98.4153	67.3828	98.3384	67.3828	98.3445	67.3828	98.2724	67.3828	98.2816	67.3828	98.2164	67.3828	98.2279	67.3828	98.1713	67.3828	98.1836	67.3828	98.1375	67.3828	98.1488	67.3828	98.1147	67.3828	98.1234	67.3828	98.1024	67.3828	98.1071	67.3828	98.1001
