"SPL Vertical"
"On-Axis"		"10°"		"-10°"		"20°"		"-20°"		"30°"		"-30°"		"40°"		"-40°"		"50°"		"-50°"		"60°"		"-60°"		"70°"		"-70°"		"80°"		"-80°"		"90°"		"-90°"		"100°"		"-100°"		"110°"		"-110°"		"120°"		"-120°"		"130°"		"-130°"		"140°"		"-140°"		"150°"		"-150°"		"160°"		"-160°"		"170°"		"-170°"		"180°"
"Frequency / Hz"	"Sound Pressure Level / dB (re 20 µPa/V)  [2.83  V @ 1. m]"	"Frequency / Hz"	"Sound Pressure Level / dB (re 20 µPa/V)  [2.83  V @ 1. m]"	"Frequency / Hz"	"Sound Pressure Level / dB (re 20 µPa/V)  [2.83  V @ 1. m]"	"Frequency / Hz"	"Sound Pressure Level / dB (re 20 µPa/V)  [2.83  V @ 1. m]"	"Frequency / Hz"	"Sound Pressure Level / dB (re 20 µPa/V)  [2.83  V @ 1. m]"	"Frequency / Hz"	"Sound Pressure Level / dB (re 20 µPa/V)  [2.83  V @ 1. m]"	"Frequency / Hz"	"Sound Pressure Level / dB (re 20 µPa/V)  [2.83  V @ 1. m]"	"Frequency / Hz"	"Sound Pressure Level / dB (re 20 µPa/V)  [2.83  V @ 1. m]"	"Frequency / Hz"	"Sound Pressure Level / dB (re 20 µPa/V)  [2.83  V @ 1. m]"	"Frequency / Hz"	"Sound Pressure Level / dB (re 20 µPa/V)  [2.83  V @ 1. m]"	"Frequency / Hz"	"Sound Pressure Level / dB (re 20 µPa/V)  [2.83  V @ 1. m]"	"Frequency / Hz"	"Sound Pressure Level / dB (re 20 µPa/V)  [2.83  V @ 1. m]"	"Frequency / Hz"	"Sound Pressure Level / dB (re 20 µPa/V)  [2.83  V @ 1. m]"	"Frequency / Hz"	"Sound Pressure Level / dB (re 20 µPa/V)  [2.83  V @ 1. m]"	"Frequency / Hz"	"Sound Pressure Level / dB (re 20 µPa/V)  [2.83  V @ 1. m]"	"Frequency / Hz"	"Sound Pressure Level / dB (re 20 µPa/V)  [2.83  V @ 1. m]"	"Frequency / Hz"	"Sound Pressure Level / dB (re 20 µPa/V)  [2.83  V @ 1. m]"	"Frequency / Hz"	"Sound Pressure Level / dB (re 20 µPa/V)  [2.83  V @ 1. m]"	"Frequency / Hz"	"Sound Pressure Level / dB (re 20 µPa/V)  [2.83  V @ 1. m]"	"Frequency / Hz"	"Sound Pressure Level / dB (re 20 µPa/V)  [2.83  V @ 1. m]"	"Frequency / Hz"	"Sound Pressure Level / dB (re 20 µPa/V)  [2.83  V @ 1. m]"	"Frequency / Hz"	"Sound Pressure Level / dB (re 20 µPa/V)  [2.83  V @ 1. m]"	"Frequency / Hz"	"Sound Pressure Level / dB (re 20 µPa/V)  [2.83  V @ 1. m]"	"Frequency / Hz"	"Sound Pressure Level / dB (re 20 µPa/V)  [2.83  V @ 1. m]"	"Frequency / Hz"	"Sound Pressure Level / dB (re 20 µPa/V)  [2.83  V @ 1. m]"	"Frequency / Hz"	"Sound Pressure Level / dB (re 20 µPa/V)  [2.83  V @ 1. m]"	"Frequency / Hz"	"Sound Pressure Level / dB (re 20 µPa/V)  [2.83  V @ 1. m]"	"Frequency / Hz"	"Sound Pressure Level / dB (re 20 µPa/V)  [2.83  V @ 1. m]"	"Frequency / Hz"	"Sound Pressure Level / dB (re 20 µPa/V)  [2.83  V @ 1. m]"	"Frequency / Hz"	"Sound Pressure Level / dB (re 20 µPa/V)  [2.83  V @ 1. m]"	"Frequency / Hz"	"Sound Pressure Level / dB (re 20 µPa/V)  [2.83  V @ 1. m]"	"Frequency / Hz"	"Sound Pressure Level / dB (re 20 µPa/V)  [2.83  V @ 1. m]"	"Frequency / Hz"	"Sound Pressure Level / dB (re 20 µPa/V)  [2.83  V @ 1. m]"	"Frequency / Hz"	"Sound Pressure Level / dB (re 20 µPa/V)  [2.83  V @ 1. m]"	"Frequency / Hz"	"Sound Pressure Level / dB (re 20 µPa/V)  [2.83  V @ 1. m]"	"Frequency / Hz"	"Sound Pressure Level / dB (re 20 µPa/V)  [2.83  V @ 1. m]"
20.5078	60.0534	20.5078	60.0599	20.5078	60.0878	20.5078	60.1008	20.5078	60.1634	20.5078	60.1664	20.5078	60.2733	20.5078	60.2467	20.5078	60.404	20.5078	60.3331	20.5078	60.5369	20.5078	60.4201	20.5078	60.6517	20.5078	60.505	20.5078	60.7293	20.5078	60.5869	20.5078	60.7566	20.5078	60.6659	20.5078	60.7303	20.5078	60.7421	20.5078	60.6607	20.5078	60.815	20.5078	60.5708	20.5078	60.8822	20.5078	60.4918	20.5078	60.94	20.5078	60.453	20.5078	60.9824	20.5078	60.4705	20.5078	61.0024	20.5078	60.542	20.5078	60.9932	20.5078	60.6492	20.5078	60.9499	20.5078	60.7669	20.5078	60.8722
21.9727	60.9037	21.9727	60.5818	21.9727	61.2941	21.9727	60.339	21.9727	61.7339	21.9727	60.1764	21.9727	62.1974	21.9727	60.0873	21.9727	62.6549	21.9727	60.0599	21.9727	63.0762	21.9727	60.0808	21.9727	63.4325	21.9727	60.1373	21.9727	63.6992	21.9727	60.2193	21.9727	63.8589	21.9727	60.319	21.9727	63.903	21.9727	60.4315	21.9727	63.8337	21.9727	60.5537	21.9727	63.664	21.9727	60.684	21.9727	63.4158	21.9727	60.8221	21.9727	63.1171	21.9727	60.9684	21.9727	62.797	21.9727	61.1246	21.9727	62.4807	21.9727	61.2932	21.9727	62.1856	21.9727	61.4785	21.9727	61.9202	21.9727	61.6857
23.4375	66.057	23.4375	65.7079	23.4375	66.4398	23.4375	65.4024	23.4375	66.8419	23.4375	65.1461	23.4375	67.2452	23.4375	64.9405	23.4375	67.6293	23.4375	64.7841	23.4375	67.972	23.4375	64.6731	23.4375	68.2517	23.4375	64.6032	23.4375	68.449	23.4375	64.5699	23.4375	68.5493	23.4375	64.5696	23.4375	68.5447	23.4375	64.5995	23.4375	68.4358	23.4375	64.658	23.4375	68.2316	23.4375	64.7442	23.4375	67.9495	23.4375	64.858	23.4375	67.6124	23.4375	65.0001	23.4375	67.2455	23.4375	65.1713	23.4375	66.8725	23.4375	65.3732	23.4375	66.5124	23.4375	65.6074	23.4375	66.1778	23.4375	65.8755
24.9023	71.132	24.9023	70.8281	24.9023	71.4601	24.9023	70.5559	24.9023	71.8015	24.9023	70.3203	24.9023	72.1425	24.9023	70.1234	24.9023	72.4672	24.9023	69.9656	24.9023	72.7585	24.9023	69.8462	24.9023	72.9997	24.9023	69.7641	24.9023	73.1756	24.9023	69.7186	24.9023	73.2751	24.9023	69.7089	24.9023	73.2922	24.9023	69.7349	24.9023	73.2271	24.9023	69.7967	24.9023	73.0868	24.9023	69.8941	24.9023	72.8831	24.9023	70.0269	24.9023	72.6316	24.9023	70.1938	24.9023	72.3482	24.9023	70.3928	24.9023	72.0476	24.9023	70.621	24.9023	71.7419	24.9023	70.8746	24.9023	71.4402	24.9023	71.1492
26.3672	74.5123	26.3672	74.2303	26.3672	74.8144	26.3672	73.9759	26.3672	75.1266	26.3672	73.7538	26.3672	75.4364	26.3672	73.5668	26.3672	75.7295	26.3672	73.4157	26.3672	75.9908	26.3672	73.3002	26.3672	76.2053	26.3672	73.2196	26.3672	76.3596	26.3672	73.1729	26.3672	76.4438	26.3672	73.1594	26.3672	76.4528	26.3672	73.1788	26.3672	76.3869	26.3672	73.2308	26.3672	76.2526	26.3672	73.3152	26.3672	76.0608	26.3672	73.4319	26.3672	75.8254	26.3672	73.5801	26.3672	75.561	26.3672	73.7583	26.3672	75.2809	26.3672	73.9643	26.3672	74.9964	26.3672	74.1953	26.3672	74.7163	26.3672	74.4475
27.832	77.3508	27.832	77.0748	27.832	77.6438	27.832	76.8225	27.832	77.9447	27.832	76.5984	27.832	78.242	27.832	76.4053	27.832	78.5225	27.832	76.2445	27.832	78.772	27.832	76.1164	27.832	78.9761	27.832	76.0211	27.832	79.1219	27.832	75.9585	27.832	79.1998	27.832	75.9287	27.832	79.2044	27.832	75.9322	27.832	79.1361	27.832	75.9694	27.832	79.0003	27.832	76.0411	27.832	78.8074	27.832	76.1477	27.832	78.5703	27.832	76.289	27.832	78.3027	27.832	76.4639	27.832	78.0178	27.832	76.6704	27.832	77.7269	27.832	76.905	27.832	77.4394	27.832	77.1632
29.2969	80.3512	29.2969	80.0892	29.2969	80.6267	29.2969	79.847	29.2969	80.9074	29.2969	79.6291	29.2969	81.183	29.2969	79.4384	29.2969	81.4415	29.2969	79.2767	29.2969	81.6698	29.2969	79.145	29.2969	81.8549	29.2969	79.0441	29.2969	81.985	29.2969	78.9745	29.2969	82.0514	29.2969	78.9367	29.2969	82.0492	29.2969	78.9317	29.2969	81.979	29.2969	78.96	29.2969	81.8459	29.2969	79.0225	29.2969	81.6595	29.2969	79.1195	29.2969	81.4316	29.2969	79.2508	29.2969	81.175	29.2969	79.4155	29.2969	80.9019	29.2969	79.6114	29.2969	80.6228	29.2969	79.8351	29.2969	80.347	29.2969	80.0822
30.7617	83.2227	30.7617	82.9709	30.7617	83.4871	30.7617	82.7379	30.7617	83.7561	30.7617	82.5279	30.7617	84.0197	30.7617	82.3438	30.7617	84.2665	30.7617	82.1875	30.7617	84.4839	30.7617	82.0598	30.7617	84.6599	30.7617	81.9616	30.7617	84.7835	30.7617	81.8933	30.7617	84.847	30.7617	81.8555	30.7617	84.8461	30.7617	81.8493	30.7617	84.7815	30.7617	81.8754	30.7617	84.6581	30.7617	81.9349	30.7617	84.4844	30.7617	82.0285	30.7617	84.2709	30.7617	82.1565	30.7617	84.0287	30.7617	82.3179	30.7617	83.7686	30.7617	82.5106	30.7617	83.5003	30.7617	82.731	30.7617	83.2327	30.7617	82.9739
32.2266	85.4927	32.2266	85.2461	32.2266	85.7491	32.2266	85.0158	32.2266	86.0069	32.2266	84.8068	32.2266	86.2565	32.2266	84.6226	32.2266	86.4869	32.2266	84.4654	32.2266	86.6869	32.2266	84.3369	32.2266	86.8453	32.2266	84.2377	32.2266	86.9527	32.2266	84.1687	32.2266	87.002	32.2266	84.1303	32.2266	86.9901	32.2266	84.123	32.2266	86.918	32.2266	84.1474	32.2266	86.7909	32.2266	84.2039	32.2266	86.6174	32.2266	84.2926	32.2266	86.408	32.2266	84.4132	32.2266	86.1736	32.2266	84.5645	32.2266	85.9247	32.2266	84.7446	32.2266	85.6704	32.2266	84.95	32.2266	85.4186	32.2266	85.1764
33.6914	87.7646	33.6914	87.541	33.6914	87.9936	33.6914	87.3281	33.6914	88.221	33.6914	87.1304	33.6914	88.4388	33.6914	86.9511	33.6914	88.6375	33.6914	86.7927	33.6914	88.807	33.6914	86.6571	33.6914	88.9372	33.6914	86.5457	33.6914	89.0191	33.6914	86.4598	33.6914	89.046	33.6914	86.4007	33.6914	89.0151	33.6914	86.3695	33.6914	88.9273	33.6914	86.3673	33.6914	88.7882	33.6914	86.3953	33.6914	88.6064	33.6914	86.4544	33.6914	88.3926	33.6914	86.545	33.6914	88.1581	33.6914	86.667	33.6914	87.9132	33.6914	86.8192	33.6914	87.6674	33.6914	86.9994	33.6914	87.4288	33.6914	87.2042
35.1562	90.2372	35.1562	90.0211	35.1562	90.4585	35.1562	89.8157	35.1562	90.678	35.1562	89.6255	35.1562	90.8875	35.1562	89.4535	35.1562	91.0777	35.1562	89.3023	35.1562	91.239	35.1562	89.1736	35.1562	91.3618	35.1562	89.0686	35.1562	91.4381	35.1562	88.9885	35.1562	91.4619	35.1562	88.9342	35.1562	91.4308	35.1562	88.9067	35.1562	91.3464	35.1562	88.907	35.1562	91.2138	35.1562	88.9358	35.1562	91.0414	35.1562	88.994	35.1562	90.8391	35.1562	89.082	35.1562	90.6172	35.1562	89.1994	35.1562	90.3854	35.1562	89.3453	35.1562	90.1525	35.1562	89.5174	35.1562	89.926	35.1562	89.7125
36.6211	91.8454	36.6211	91.6253	36.6211	92.0701	36.6211	91.4155	36.6211	92.2921	36.6211	91.2206	36.6211	92.503	36.6211	91.0438	36.6211	92.6933	36.6211	90.8878	36.6211	92.8531	36.6211	90.7542	36.6211	92.9725	36.6211	90.6444	36.6211	93.0434	36.6211	90.5594	36.6211	93.0599	36.6211	90.5	36.6211	93.0194	36.6211	90.4667	36.6211	92.9237	36.6211	90.4603	36.6211	92.7783	36.6211	90.4814	36.6211	92.5917	36.6211	90.5307	36.6211	92.3748	36.6211	90.6088	36.6211	92.1388	36.6211	90.7161	36.6211	91.8949	36.6211	90.8525	36.6211	91.6531	36.6211	91.0173	36.6211	91.4219	36.6211	91.2082
38.0859	93.7139	38.0859	93.4965	38.0859	93.9341	38.0859	93.2876	38.0859	94.1501	38.0859	93.092	38.0859	94.3536	38.0859	92.9131	38.0859	94.5353	38.0859	92.7537	38.0859	94.6859	38.0859	92.6158	38.0859	94.7961	38.0859	92.5011	38.0859	94.858	38.0859	92.4106	38.0859	94.8663	38.0859	92.3454	38.0859	94.8189	38.0859	92.3061	38.0859	94.7177	38.0859	92.2936	38.0859	94.5681	38.0859	92.3087	38.0859	94.3788	38.0859	92.3519	38.0859	94.1604	38.0859	92.424	38.0859	93.9242	38.0859	92.5255	38.0859	93.681	38.0859	92.6564	38.0859	93.441	38.0859	92.816	38.0859	93.2125	38.0859	93.0025
39.5508	95.4881	39.5508	95.2785	39.5508	95.6992	39.5508	95.0762	39.5508	95.905	39.5508	94.8856	39.5508	96.0977	39.5508	94.7104	39.5508	96.2684	39.5508	94.5533	39.5508	96.4081	39.5508	94.4164	39.5508	96.5081	39.5508	94.3014	39.5508	96.5612	39.5508	94.2094	39.5508	96.5623	39.5508	94.1414	39.5508	96.5097	39.5508	94.0983	39.5508	96.4054	39.5508	94.0808	39.5508	96.2549	39.5508	94.0896	39.5508	96.0668	39.5508	94.1256	39.5508	95.8515	39.5508	94.1894	39.5508	95.6199	39.5508	94.2818	39.5508	95.3829	39.5508	94.403	39.5508	95.1502	39.5508	94.5528	39.5508	94.9302	39.5508	94.7295
41.0156	97.138	41.0156	96.9371	41.0156	97.339	41.0156	96.7419	41.0156	97.5338	41.0156	96.5568	41.0156	97.7148	41.0156	96.3856	41.0156	97.8738	41.0156	96.2311	41.0156	98.0023	41.0156	96.0957	41.0156	98.0925	41.0156	95.981	41.0156	98.1375	41.0156	95.8884	41.0156	98.1328	41.0156	95.8189	41.0156	98.0772	41.0156	95.7734	41.0156	97.9726	41.0156	95.7527	41.0156	97.8246	41.0156	95.7574	41.0156	97.6413	41.0156	95.7883	41.0156	97.4326	41.0156	95.8462	41.0156	97.2091	41.0156	95.9319	41.0156	96.981	41.0156	96.0456	41.0156	96.7576	41.0156	96.1872	41.0156	96.5469	41.0156	96.3553
42.4805	98.4102	42.4805	98.213	42.4805	98.6065	42.4805	98.0203	42.4805	98.7954	42.4805	97.8365	42.4805	98.9696	42.4805	97.6655	42.4805	99.1214	42.4805	97.5101	42.4805	99.2426	42.4805	97.3729	42.4805	99.3257	42.4805	97.2556	42.4805	99.3645	42.4805	97.1598	42.4805	99.3548	42.4805	97.0867	42.4805	99.2954	42.4805	97.0373	42.4805	99.1887	42.4805	97.0124	42.4805	99.0398	42.4805	97.0128	42.4805	98.8569	42.4805	97.0393	42.4805	98.6494	42.4805	97.0928	42.4805	98.4277	42.4805	97.174	42.4805	98.2018	42.4805	97.2835	42.4805	97.9811	42.4805	97.421	42.4805	97.7734	42.4805	97.5852
43.9453	99.3593	43.9453	99.1687	43.9453	99.5478	43.9453	98.9814	43.9453	99.7281	43.9453	98.8018	43.9453	99.8933	43.9453	98.6338	43.9453	100.036	43.9453	98.4804	43.9453	100.148	43.9453	98.3441	43.9453	100.223	43.9453	98.2271	43.9453	100.255	43.9453	98.131	43.9453	100.241	43.9453	98.0571	43.9453	100.179	43.9453	98.0065	43.9453	100.072	43.9453	97.9801	43.9453	99.926	43.9453	97.9787	43.9453	99.7478	43.9453	98.003	43.9453	99.5471	43.9453	98.0537	43.9453	99.3335	43.9453	98.1313	43.9453	99.1165	43.9453	98.2363	43.9453	98.9049	43.9453	98.3682	43.9453	98.7059	43.9453	98.5256
45.4102	99.83	45.4102	99.6441	45.4102	100.014	45.4102	99.4621	45.4102	100.191	45.4102	99.2885	45.4102	100.354	45.4102	99.1268	45.4102	100.494	45.4102	98.9802	45.4102	100.605	45.4102	98.8512	45.4102	100.679	45.4102	98.7417	45.4102	100.711	45.4102	98.6531	45.4102	100.698	45.4102	98.5867	45.4102	100.639	45.4102	98.5433	45.4102	100.536	45.4102	98.5233	45.4102	100.396	45.4102	98.5271	45.4102	100.225	45.4102	98.5552	45.4102	100.033	45.4102	98.6078	45.4102	99.8299	45.4102	98.6851	45.4102	99.6238	45.4102	98.7872	45.4102	99.4232	45.4102	98.9137	45.4102	99.2347	45.4102	99.0637
46.875	100.08	46.875	99.8974	46.875	100.26	46.875	99.7165	46.875	100.43	46.875	99.5424	46.875	100.584	46.875	99.3792	46.875	100.714	46.875	99.2302	46.875	100.815	46.875	99.0983	46.875	100.879	46.875	98.9857	46.875	100.903	46.875	98.8942	46.875	100.882	46.875	98.8251	46.875	100.818	46.875	98.7791	46.875	100.713	46.875	98.7569	46.875	100.573	46.875	98.7586	46.875	100.405	46.875	98.7846	46.875	100.217	46.875	98.8349	46.875	100.019	46.875	98.9095	46.875	99.8194	46.875	99.0084	46.875	99.6249	46.875	99.1311	46.875	99.4422	46.875	99.2765
48.3398	99.915	48.3398	99.736	48.3398	100.089	48.3398	99.5577	48.3398	100.253	48.3398	99.3849	48.3398	100.399	48.3398	99.2218	48.3398	100.522	48.3398	99.0722	48.3398	100.614	48.3398	98.939	48.3398	100.67	48.3398	98.8249	48.3398	100.686	48.3398	98.7317	48.3398	100.66	48.3398	98.6608	48.3398	100.592	48.3398	98.6134	48.3398	100.485	48.3398	98.5898	48.3398	100.345	48.3398	98.5903	48.3398	100.18	48.3398	98.6149	48.3398	99.9972	48.3398	98.6636	48.3398	99.8056	48.3398	98.7361	48.3398	99.6129	48.3398	98.8321	48.3398	99.4259	48.3398	98.9508	48.3398	99.2504	48.3398	99.091
51.2695	99.357	51.2695	99.184	51.2695	99.5233	51.2695	99.0097	51.2695	99.6771	51.2695	98.8389	51.2695	99.8123	51.2695	98.6759	51.2695	99.9225	51.2695	98.5246	51.2695	100.002	51.2695	98.3882	51.2695	100.045	51.2695	98.2694	51.2695	100.049	51.2695	98.1705	51.2695	100.012	51.2695	98.093	51.2695	99.9336	51.2695	98.0381	51.2695	99.8187	51.2695	98.0064	51.2695	99.673	51.2695	97.9982	51.2695	99.504	51.2695	98.0136	51.2695	99.3201	51.2695	98.0527	51.2695	99.1298	51.2695	98.1153	51.2695	98.9406	51.2695	98.2012	51.2695	98.7593	51.2695	98.3099	51.2695	98.5912	51.2695	98.4405
52.7344	99.1139	52.7344	98.9449	52.7344	99.2759	52.7344	98.7742	52.7344	99.4252	52.7344	98.6068	52.7344	99.5557	52.7344	98.4469	52.7344	99.6614	52.7344	98.2983	52.7344	99.7365	52.7344	98.1642	52.7344	99.7761	52.7344	98.0474	52.7344	99.7769	52.7344	97.9498	52.7344	99.7375	52.7344	97.8732	52.7344	99.6591	52.7344	97.8185	52.7344	99.5453	52.7344	97.7863	52.7344	99.402	52.7344	97.777	52.7344	99.2366	52.7344	97.7907	52.7344	99.0571	52.7344	97.8274	52.7344	98.8714	52.7344	97.8869	52.7344	98.6871	52.7344	97.9693	52.7344	98.5105	52.7344	98.0742	52.7344	98.347	52.7344	98.2007
54.1992	98.9569	54.1992	98.7936	54.1992	99.1129	54.1992	98.6283	54.1992	99.2557	54.1992	98.4662	54.1992	99.3793	54.1992	98.3117	54.1992	99.4779	54.1992	98.1688	54.1992	99.5459	54.1992	98.041	54.1992	99.579	54.1992	97.9311	54.1992	99.5746	54.1992	97.8412	54.1992	99.532	54.1992	97.773	54.1992	99.4534	54.1992	97.7272	54.1992	99.3432	54.1992	97.7042	54.1992	99.2078	54.1992	97.7038	54.1992	99.0548	54.1992	97.7253	54.1992	98.8917	54.1992	97.7679	54.1992	98.7256	54.1992	97.8307	54.1992	98.5622	54.1992	97.9125	54.1992	98.4061	54.1992	98.0123	54.1992	98.2608	54.1992	98.1289
55.6641	98.7394	55.6641	98.578	55.6641	98.8901	55.6641	98.4114	55.6641	99.0246	55.6641	98.2444	55.6641	99.1373	55.6641	98.0817	55.6641	99.2226	55.6641	97.9275	55.6641	99.2755	55.6641	97.7854	55.6641	99.292	55.6641	97.6589	55.6641	99.2695	55.6641	97.5504	55.6641	99.2078	55.6641	97.4622	55.6641	99.1091	55.6641	97.3957	55.6641	98.9783	55.6641	97.3518	55.6641	98.8222	55.6641	97.331	55.6641	98.6494	55.6641	97.3331	55.6641	98.4683	55.6641	97.358	55.6641	98.2871	55.6641	97.405	55.6641	98.1126	55.6641	97.4736	55.6641	97.9498	55.6641	97.5633	55.6641	97.8026	55.6641	97.6732
58.5938	98.5839	58.5938	98.4226	58.5938	98.7339	58.5938	98.2549	58.5938	98.8673	58.5938	98.0859	58.5938	98.9787	58.5938	97.9201	58.5938	99.0628	58.5938	97.7617	58.5938	99.1147	58.5938	97.6146	58.5938	99.1305	58.5938	97.4821	58.5938	99.1075	58.5938	97.3669	58.5938	99.045	58.5938	97.2713	58.5938	98.9449	58.5938	97.1971	58.5938	98.8113	58.5938	97.1453	58.5938	98.6508	58.5938	97.1168	58.5938	98.4712	58.5938	97.1118	58.5938	98.2812	58.5938	97.1306	58.5938	98.0896	58.5938	97.1729	58.5938	97.9042	58.5938	97.2389	58.5938	97.7313	58.5938	97.3283	58.5938	97.5758	58.5938	97.4409
60.0586	98.6757	60.0586	98.5167	60.0586	98.8253	60.0586	98.3535	60.0586	98.9595	60.0586	98.1913	60.0586	99.0728	60.0586	98.0348	60.0586	99.1597	60.0586	97.8881	60.0586	99.2152	60.0586	97.7548	60.0586	99.2357	60.0586	97.6378	60.0586	99.219	60.0586	97.5395	60.0586	99.1653	60.0586	97.4615	60.0586	99.0767	60.0586	97.4049	60.0586	98.9577	60.0586	97.3701	60.0586	98.8146	60.0586	97.3573	60.0586	98.6545	60.0586	97.3662	60.0586	98.4852	60.0586	97.3962	60.0586	98.3137	60.0586	97.4469	60.0586	98.1466	60.0586	97.5177	60.0586	97.9891	60.0586	97.6082	60.0586	97.8452	60.0586	97.7177
62.9883	98.7863	62.9883	98.6292	62.9883	98.9308	62.9883	98.4651	62.9883	99.0569	62.9883	98.2995	62.9883	99.1593	62.9883	98.1378	62.9883	99.2333	62.9883	97.9849	62.9883	99.2747	62.9883	97.8452	62.9883	99.2807	62.9883	97.7223	62.9883	99.2503	62.9883	97.6192	62.9883	99.1845	62.9883	97.5378	62.9883	99.0865	62.9883	97.4795	62.9883	98.9613	62.9883	97.4444	62.9883	98.8157	62.9883	97.4323	62.9883	98.6571	62.9883	97.4421	62.9883	98.493	62.9883	97.4727	62.9883	98.3299	62.9883	97.5226	62.9883	98.1734	62.9883	97.5907	62.9883	98.0275	62.9883	97.6759	62.9883	97.8951	62.9883	97.7776
64.4531	98.8623	64.4531	98.7067	64.4531	99.0051	64.4531	98.544	64.4531	99.1295	64.4531	98.3798	64.4531	99.23	64.4531	98.2195	64.4531	99.3021	64.4531	98.0679	64.4531	99.3417	64.4531	97.9295	64.4531	99.3464	64.4531	97.808	64.4531	99.3153	64.4531	97.7061	64.4531	99.2496	64.4531	97.626	64.4531	99.1527	64.4531	97.5687	64.4531	99.0296	64.4531	97.5345	64.4531	98.887	64.4531	97.523	64.4531	98.732	64.4531	97.5333	64.4531	98.5714	64.4531	97.564	64.4531	98.4117	64.4531	97.6139	64.4531	98.2581	64.4531	97.6816	64.4531	98.1145	64.4531	97.7664	64.4531	97.9836	64.4531	97.8673
67.3828	99.0065	67.3828	98.8496	67.3828	99.1502	67.3828	98.6852	67.3828	99.2749	67.3828	98.5195	67.3828	99.3754	67.3828	98.358	67.3828	99.4471	67.3828	98.2063	67.3828	99.4868	67.3828	98.069	67.3828	99.4923	67.3828	97.9503	67.3828	99.4634	67.3828	97.8531	67.3828	99.4017	67.3828	97.7796	67.3828	99.311	67.3828	97.7308	67.3828	99.1964	67.3828	97.7065	67.3828	99.064	67.3828	97.7061	67.3828	98.9204	67.3828	97.7278	67.3828	98.7718	67.3828	97.7697	67.3828	98.6234	67.3828	97.8297	67.3828	98.4793	67.3828	97.9058	67.3828	98.3428	67.3828	97.9964	67.3828	98.2159	67.3828	98.1001
