"SPL Vertical"
"On-Axis"		"10°"		"-10°"		"20°"		"-20°"		"30°"		"-30°"		"40°"		"-40°"		"50°"		"-50°"		"60°"		"-60°"		"70°"		"-70°"		"80°"		"-80°"		"90°"		"-90°"		"100°"		"-100°"		"110°"		"-110°"		"120°"		"-120°"		"130°"		"-130°"		"140°"		"-140°"		"150°"		"-150°"		"160°"		"-160°"		"170°"		"-170°"		"180°"
"Frequency / Hz"	"Sound Pressure Level / dB (re 20 µPa/V)  [2.83  V @ 1. m]"	"Frequency / Hz"	"Sound Pressure Level / dB (re 20 µPa/V)  [2.83  V @ 1. m]"	"Frequency / Hz"	"Sound Pressure Level / dB (re 20 µPa/V)  [2.83  V @ 1. m]"	"Frequency / Hz"	"Sound Pressure Level / dB (re 20 µPa/V)  [2.83  V @ 1. m]"	"Frequency / Hz"	"Sound Pressure Level / dB (re 20 µPa/V)  [2.83  V @ 1. m]"	"Frequency / Hz"	"Sound Pressure Level / dB (re 20 µPa/V)  [2.83  V @ 1. m]"	"Frequency / Hz"	"Sound Pressure Level / dB (re 20 µPa/V)  [2.83  V @ 1. m]"	"Frequency / Hz"	"Sound Pressure Level / dB (re 20 µPa/V)  [2.83  V @ 1. m]"	"Frequency / Hz"	"Sound Pressure Level / dB (re 20 µPa/V)  [2.83  V @ 1. m]"	"Frequency / Hz"	"Sound Pressure Level / dB (re 20 µPa/V)  [2.83  V @ 1. m]"	"Frequency / Hz"	"Sound Pressure Level / dB (re 20 µPa/V)  [2.83  V @ 1. m]"	"Frequency / Hz"	"Sound Pressure Level / dB (re 20 µPa/V)  [2.83  V @ 1. m]"	"Frequency / Hz"	"Sound Pressure Level / dB (re 20 µPa/V)  [2.83  V @ 1. m]"	"Frequency / Hz"	"Sound Pressure Level / dB (re 20 µPa/V)  [2.83  V @ 1. m]"	"Frequency / Hz"	"Sound Pressure Level / dB (re 20 µPa/V)  [2.83  V @ 1. m]"	"Frequency / Hz"	"Sound Pressure Level / dB (re 20 µPa/V)  [2.83  V @ 1. m]"	"Frequency / Hz"	"Sound Pressure Level / dB (re 20 µPa/V)  [2.83  V @ 1. m]"	"Frequency / Hz"	"Sound Pressure Level / dB (re 20 µPa/V)  [2.83  V @ 1. m]"	"Frequency / Hz"	"Sound Pressure Level / dB (re 20 µPa/V)  [2.83  V @ 1. m]"	"Frequency / Hz"	"Sound Pressure Level / dB (re 20 µPa/V)  [2.83  V @ 1. m]"	"Frequency / Hz"	"Sound Pressure Level / dB (re 20 µPa/V)  [2.83  V @ 1. m]"	"Frequency / Hz"	"Sound Pressure Level / dB (re 20 µPa/V)  [2.83  V @ 1. m]"	"Frequency / Hz"	"Sound Pressure Level / dB (re 20 µPa/V)  [2.83  V @ 1. m]"	"Frequency / Hz"	"Sound Pressure Level / dB (re 20 µPa/V)  [2.83  V @ 1. m]"	"Frequency / Hz"	"Sound Pressure Level / dB (re 20 µPa/V)  [2.83  V @ 1. m]"	"Frequency / Hz"	"Sound Pressure Level / dB (re 20 µPa/V)  [2.83  V @ 1. m]"	"Frequency / Hz"	"Sound Pressure Level / dB (re 20 µPa/V)  [2.83  V @ 1. m]"	"Frequency / Hz"	"Sound Pressure Level / dB (re 20 µPa/V)  [2.83  V @ 1. m]"	"Frequency / Hz"	"Sound Pressure Level / dB (re 20 µPa/V)  [2.83  V @ 1. m]"	"Frequency / Hz"	"Sound Pressure Level / dB (re 20 µPa/V)  [2.83  V @ 1. m]"	"Frequency / Hz"	"Sound Pressure Level / dB (re 20 µPa/V)  [2.83  V @ 1. m]"	"Frequency / Hz"	"Sound Pressure Level / dB (re 20 µPa/V)  [2.83  V @ 1. m]"	"Frequency / Hz"	"Sound Pressure Level / dB (re 20 µPa/V)  [2.83  V @ 1. m]"	"Frequency / Hz"	"Sound Pressure Level / dB (re 20 µPa/V)  [2.83  V @ 1. m]"	"Frequency / Hz"	"Sound Pressure Level / dB (re 20 µPa/V)  [2.83  V @ 1. m]"	"Frequency / Hz"	"Sound Pressure Level / dB (re 20 µPa/V)  [2.83  V @ 1. m]"
20.5078	50.0191	20.5078	50.1352	20.5078	49.9114	20.5078	50.2566	20.5078	49.8142	20.5078	50.3797	20.5078	49.7289	20.5078	50.5004	20.5078	49.6557	20.5078	50.6138	20.5078	49.5939	20.5078	50.7149	20.5078	49.542	20.5078	50.7977	20.5078	49.4983	20.5078	50.8557	20.5078	49.4608	20.5078	50.882	20.5078	49.4279	20.5078	50.8703	20.5078	49.3987	20.5078	50.816	20.5078	49.3732	20.5078	50.7173	20.5078	49.353	20.5078	50.5766	20.5078	49.3415	20.5078	50.4013	20.5078	49.3445	20.5078	50.2041	20.5078	49.3692	20.5078	50.001	20.5078	49.4237	20.5078	49.8094	20.5078	49.5144	20.5078	49.644
21.9727	48.1169	21.9727	48.2195	21.9727	48.0239	21.9727	48.3296	21.9727	47.9424	21.9727	48.4442	21.9727	47.8735	21.9727	48.56	21.9727	47.8179	21.9727	48.673	21.9727	47.7755	21.9727	48.7789	21.9727	47.7462	21.9727	48.873	21.9727	47.7293	21.9727	48.9502	21.9727	47.7239	21.9727	49.0054	21.9727	47.7293	21.9727	49.034	21.9727	47.7448	21.9727	49.0323	21.9727	47.7701	21.9727	48.9982	21.9727	47.8055	21.9727	48.9319	21.9727	47.8521	21.9727	48.8365	21.9727	47.9117	21.9727	48.7179	21.9727	47.9863	21.9727	48.5843	21.9727	48.0776	21.9727	48.4454	21.9727	48.1862	21.9727	48.3103
23.4375	51.1401	23.4375	51.1551	23.4375	51.1274	23.4375	51.172	23.4375	51.1176	23.4375	51.1901	23.4375	51.1112	23.4375	51.209	23.4375	51.1085	23.4375	51.2277	23.4375	51.1097	23.4375	51.2456	23.4375	51.1148	23.4375	51.2615	23.4375	51.1235	23.4375	51.2745	23.4375	51.1352	23.4375	51.2834	23.4375	51.149	23.4375	51.2874	23.4375	51.1638	23.4375	51.2862	23.4375	51.1784	23.4375	51.2799	23.4375	51.1916	23.4375	51.2698	23.4375	51.2022	23.4375	51.2574	23.4375	51.2097	23.4375	51.2449	23.4375	51.2143	23.4375	51.2341	23.4375	51.2168	23.4375	51.2261	23.4375	51.2186	23.4375	51.2212
24.9023	54.0361	24.9023	54.0664	24.9023	54.0088	24.9023	54.0989	24.9023	53.9854	24.9023	54.1324	24.9023	53.9666	24.9023	54.1658	24.9023	53.9526	24.9023	54.1978	24.9023	53.9437	24.9023	54.2272	24.9023	53.9399	24.9023	54.2527	24.9023	53.9408	24.9023	54.273	24.9023	53.9462	24.9023	54.2869	24.9023	53.9554	24.9023	54.2934	24.9023	53.9679	24.9023	54.292	24.9023	53.9829	24.9023	54.2827	24.9023	53.9999	24.9023	54.266	24.9023	54.0183	24.9023	54.2435	24.9023	54.0379	24.9023	54.2168	24.9023	54.0587	24.9023	54.188	24.9023	54.081	24.9023	54.1589	24.9023	54.105	24.9023	54.131
26.3672	54.7318	26.3672	54.7656	26.3672	54.6953	26.3672	54.7963	26.3672	54.657	26.3672	54.8239	26.3672	54.6185	26.3672	54.849	26.3672	54.5816	26.3672	54.8723	26.3672	54.5484	26.3672	54.8942	26.3672	54.5207	26.3672	54.9149	26.3672	54.5003	26.3672	54.934	26.3672	54.4883	26.3672	54.9505	26.3672	54.4854	26.3672	54.963	26.3672	54.4921	26.3672	54.9699	26.3672	54.508	26.3672	54.9695	26.3672	54.5325	26.3672	54.9605	26.3672	54.5647	26.3672	54.9423	26.3672	54.6034	26.3672	54.9151	26.3672	54.647	26.3672	54.8797	26.3672	54.6941	26.3672	54.8379	26.3672	54.7429	26.3672	54.7916
27.832	55.3913	27.832	55.3914	27.832	55.3947	27.832	55.3954	27.832	55.4017	27.832	55.4041	27.832	55.4128	27.832	55.4184	27.832	55.429	27.832	55.4394	27.832	55.4512	27.832	55.4678	27.832	55.4805	27.832	55.5042	27.832	55.5176	27.832	55.5485	27.832	55.5625	27.832	55.6004	27.832	55.6149	27.832	55.6588	27.832	55.6736	27.832	55.7223	27.832	55.7366	27.832	55.7882	27.832	55.8015	27.832	55.8538	27.832	55.8653	27.832	55.9152	27.832	55.9243	27.832	55.9685	27.832	55.9752	27.832	56.0101	27.832	56.0143	27.832	56.0368	27.832	56.0388	27.832	56.0465
29.2969	57.3744	29.2969	57.3828	29.2969	57.3603	29.2969	57.3851	29.2969	57.3414	29.2969	57.3807	29.2969	57.3187	29.2969	57.3694	29.2969	57.2934	29.2969	57.3511	29.2969	57.2666	29.2969	57.3257	29.2969	57.2394	29.2969	57.2933	29.2969	57.2126	29.2969	57.2545	29.2969	57.1867	29.2969	57.2102	29.2969	57.1618	29.2969	57.1618	29.2969	57.1376	29.2969	57.1117	29.2969	57.1136	29.2969	57.0627	29.2969	57.0892	29.2969	57.0181	29.2969	57.0638	29.2969	56.981	29.2969	57.0373	29.2969	56.9543	29.2969	57.0105	29.2969	56.9395	29.2969	56.9846	29.2969	56.9368	29.2969	56.9618	29.2969	56.945
30.7617	57.5362	30.7617	57.6039	30.7617	57.4765	30.7617	57.6761	30.7617	57.4287	30.7617	57.75	30.7617	57.3962	30.7617	57.8235	30.7617	57.3817	30.7617	57.895	30.7617	57.3869	30.7617	57.9636	30.7617	57.412	30.7617	58.0286	30.7617	57.456	30.7617	58.0897	30.7617	57.5169	30.7617	58.1463	30.7617	57.5918	30.7617	58.1979	30.7617	57.6776	30.7617	58.244	30.7617	57.7706	30.7617	58.2836	30.7617	57.8671	30.7617	58.3158	30.7617	57.9632	30.7617	58.3393	30.7617	58.0549	30.7617	58.3523	30.7617	58.1385	30.7617	58.3533	30.7617	58.2108	30.7617	58.3405	30.7617	58.2694	30.7617	58.3128
32.2266	60.9747	32.2266	60.9723	32.2266	60.9767	32.2266	60.9697	32.2266	60.9782	32.2266	60.9665	32.2266	60.9788	32.2266	60.9626	32.2266	60.9782	32.2266	60.9574	32.2266	60.9761	32.2266	60.9505	32.2266	60.9721	32.2266	60.9417	32.2266	60.9663	32.2266	60.9308	32.2266	60.9586	32.2266	60.918	32.2266	60.9493	32.2266	60.904	32.2266	60.9386	32.2266	60.8896	32.2266	60.927	32.2266	60.876	32.2266	60.915	32.2266	60.8644	32.2266	60.903	32.2266	60.8557	32.2266	60.8914	32.2266	60.8504	32.2266	60.8804	32.2266	60.8487	32.2266	60.8704	32.2266	60.8504	32.2266	60.8618	32.2266	60.855
33.6914	62.7936	33.6914	62.7901	33.6914	62.7934	33.6914	62.7828	33.6914	62.7894	33.6914	62.7718	33.6914	62.7814	33.6914	62.7571	33.6914	62.7694	33.6914	62.739	33.6914	62.7534	33.6914	62.7177	33.6914	62.7334	33.6914	62.6936	33.6914	62.7097	33.6914	62.6673	33.6914	62.6827	33.6914	62.6396	33.6914	62.6532	33.6914	62.6111	33.6914	62.6221	33.6914	62.583	33.6914	62.5907	33.6914	62.556	33.6914	62.5603	33.6914	62.5311	33.6914	62.5323	33.6914	62.5092	33.6914	62.508	33.6914	62.4909	33.6914	62.4884	33.6914	62.4769	33.6914	62.4744	33.6914	62.4679	33.6914	62.4663	33.6914	62.4642
35.1562	64.5262	35.1562	64.5355	35.1562	64.5176	35.1562	64.5449	35.1562	64.51	35.1562	64.5538	35.1562	64.5038	35.1562	64.5616	35.1562	64.4991	35.1562	64.5679	35.1562	64.4958	35.1562	64.5724	35.1562	64.4939	35.1562	64.575	35.1562	64.4933	35.1562	64.5758	35.1562	64.4937	35.1562	64.575	35.1562	64.4952	35.1562	64.573	35.1562	64.4977	35.1562	64.5703	35.1562	64.5013	35.1562	64.567	35.1562	64.5059	35.1562	64.5636	35.1562	64.5115	35.1562	64.5602	35.1562	64.5178	35.1562	64.5567	35.1562	64.5245	35.1562	64.5528	35.1562	64.5313	35.1562	64.5485	35.1562	64.5377	35.1562	64.5435
36.6211	66.2407	36.6211	66.2442	36.6211	66.2342	36.6211	66.2448	36.6211	66.2251	36.6211	66.2422	36.6211	66.2137	36.6211	66.2365	36.6211	66.2001	36.6211	66.2278	36.6211	66.1847	36.6211	66.2164	36.6211	66.168	36.6211	66.2026	36.6211	66.1503	36.6211	66.1869	36.6211	66.1321	36.6211	66.1699	36.6211	66.1141	36.6211	66.1522	36.6211	66.0968	36.6211	66.1343	36.6211	66.081	36.6211	66.1169	36.6211	66.0672	36.6211	66.1006	36.6211	66.056	36.6211	66.0856	36.6211	66.0477	36.6211	66.0724	36.6211	66.0425	36.6211	66.0612	36.6211	66.0406	36.6211	66.0522	36.6211	66.0417	36.6211	66.0456
38.0859	68.1096	38.0859	68.1142	38.0859	68.1029	38.0859	68.1166	38.0859	68.0942	38.0859	68.1168	38.0859	68.0837	38.0859	68.1149	38.0859	68.0717	38.0859	68.1111	38.0859	68.0583	38.0859	68.1056	38.0859	68.0441	38.0859	68.0988	38.0859	68.0294	38.0859	68.0911	38.0859	68.0149	38.0859	68.0827	38.0859	68.0012	38.0859	68.0741	38.0859	67.9891	38.0859	68.0654	38.0859	67.9792	38.0859	68.0566	38.0859	67.9723	38.0859	68.0476	38.0859	67.9687	38.0859	68.0383	38.0859	67.9686	38.0859	68.0284	38.0859	67.9718	38.0859	68.018	38.0859	67.9781	38.0859	68.0073	38.0859	67.9866	38.0859	67.9966
39.5508	69.6122	39.5508	69.6144	39.5508	69.606	39.5508	69.6124	39.5508	69.5958	39.5508	69.6063	39.5508	69.582	39.5508	69.5965	39.5508	69.5649	39.5508	69.5835	39.5508	69.5449	39.5508	69.568	39.5508	69.5227	39.5508	69.5508	39.5508	69.4989	39.5508	69.5328	39.5508	69.4747	39.5508	69.515	39.5508	69.4509	39.5508	69.4979	39.5508	69.4288	39.5508	69.482	39.5508	69.4095	39.5508	69.4675	39.5508	69.3942	39.5508	69.4543	39.5508	69.3835	39.5508	69.442	39.5508	69.3777	39.5508	69.4303	39.5508	69.3769	39.5508	69.4187	39.5508	69.3805	39.5508	69.4075	39.5508	69.3874	39.5508	69.3968
41.0156	71.3031	41.0156	71.2968	41.0156	71.3045	41.0156	71.286	41.0156	71.301	41.0156	71.271	41.0156	71.2926	41.0156	71.2526	41.0156	71.2794	41.0156	71.2314	41.0156	71.2618	41.0156	71.2083	41.0156	71.2404	41.0156	71.1843	41.0156	71.216	41.0156	71.1602	41.0156	71.1895	41.0156	71.1371	41.0156	71.162	41.0156	71.1156	41.0156	71.1348	41.0156	71.0964	41.0156	71.109	41.0156	71.0798	41.0156	71.086	41.0156	71.066	41.0156	71.0665	41.0156	71.0547	41.0156	71.0512	41.0156	71.0458	41.0156	71.0403	41.0156	71.0389	41.0156	71.0337	41.0156	71.034	41.0156	71.0309	41.0156	71.0312
42.4805	72.9603	42.4805	72.9538	42.4805	72.9594	42.4805	72.9399	42.4805	72.951	42.4805	72.9193	42.4805	72.9354	42.4805	72.8924	42.4805	72.9132	42.4805	72.8601	42.4805	72.8848	42.4805	72.8236	42.4805	72.8512	42.4805	72.7839	42.4805	72.8133	42.4805	72.7422	42.4805	72.7722	42.4805	72.7	42.4805	72.7291	42.4805	72.6584	42.4805	72.6855	42.4805	72.6188	42.4805	72.6427	42.4805	72.5823	42.4805	72.6023	42.4805	72.5498	42.4805	72.5656	42.4805	72.5223	42.4805	72.5338	42.4805	72.5003	42.4805	72.5081	42.4805	72.4844	42.4805	72.489	42.4805	72.475	42.4805	72.4771	42.4805	72.4724
43.9453	74.4183	43.9453	74.4128	43.9453	74.4167	43.9453	74.4005	43.9453	74.4083	43.9453	74.3815	43.9453	74.3935	43.9453	74.3566	43.9453	74.3728	43.9453	74.3264	43.9453	74.3469	43.9453	74.292	43.9453	74.3167	43.9453	74.2547	43.9453	74.283	43.9453	74.2157	43.9453	74.247	43.9453	74.1766	43.9453	74.2098	43.9453	74.1386	43.9453	74.1726	43.9453	74.1032	43.9453	74.1366	43.9453	74.0714	43.9453	74.1028	43.9453	74.0441	43.9453	74.0722	43.9453	74.022	43.9453	74.0457	43.9453	74.0054	43.9453	74.0239	43.9453	73.9945	43.9453	74.0071	43.9453	73.9893	43.9453	73.9957	43.9453	73.9897
45.4102	75.6998	45.4102	75.6935	45.4102	75.6985	45.4102	75.6796	45.4102	75.6897	45.4102	75.6587	45.4102	75.6737	45.4102	75.6313	45.4102	75.651	45.4102	75.5983	45.4102	75.6224	45.4102	75.5609	45.4102	75.5888	45.4102	75.5202	45.4102	75.5513	45.4102	75.4778	45.4102	75.5112	45.4102	75.4351	45.4102	75.4697	45.4102	75.3936	45.4102	75.4283	45.4102	75.3547	45.4102	75.3882	45.4102	75.3196	45.4102	75.3507	45.4102	75.2893	45.4102	75.3169	45.4102	75.2646	45.4102	75.2878	45.4102	75.246	45.4102	75.2639	45.4102	75.2335	45.4102	75.2457	45.4102	75.2273	45.4102	75.2335	45.4102	75.2273
46.875	76.8775	46.875	76.8711	46.875	76.8753	46.875	76.8564	46.875	76.8647	46.875	76.8337	46.875	76.846	46.875	76.8039	46.875	76.8198	46.875	76.7677	46.875	76.787	46.875	76.7264	46.875	76.7486	46.875	76.6814	46.875	76.7059	46.875	76.6342	46.875	76.6603	46.875	76.5864	46.875	76.6133	46.875	76.5396	46.875	76.5663	46.875	76.4953	46.875	76.521	46.875	76.4549	46.875	76.4786	46.875	76.4197	46.875	76.4406	46.875	76.3904	46.875	76.4078	46.875	76.3676	46.875	76.3811	46.875	76.3519	46.875	76.3611	46.875	76.3434	46.875	76.348	46.875	76.342
48.3398	77.968	48.3398	77.9617	48.3398	77.9657	48.3398	77.947	48.3398	77.9549	48.3398	77.9242	48.3398	77.9359	48.3398	77.8942	48.3398	77.9093	48.3398	77.8579	48.3398	77.876	48.3398	77.8163	48.3398	77.837	48.3398	77.7708	48.3398	77.7935	48.3398	77.723	48.3398	77.747	48.3398	77.6744	48.3398	77.699	48.3398	77.6267	48.3398	77.651	48.3398	77.5814	48.3398	77.6046	48.3398	77.5398	48.3398	77.5612	48.3398	77.5034	48.3398	77.5222	48.3398	77.4729	48.3398	77.4886	48.3398	77.449	48.3398	77.4612	48.3398	77.4324	48.3398	77.4406	48.3398	77.4231	48.3398	77.4273	48.3398	77.4214
51.2695	79.5465	51.2695	79.5379	51.2695	79.5453	51.2695	79.5197	51.2695	79.5345	51.2695	79.4924	51.2695	79.5146	51.2695	79.4568	51.2695	79.4862	51.2695	79.4139	51.2695	79.4504	51.2695	79.3651	51.2695	79.4082	51.2695	79.3121	51.2695	79.361	51.2695	79.2567	51.2695	79.3104	51.2695	79.2008	51.2695	79.2579	51.2695	79.1464	51.2695	79.2051	51.2695	79.0952	51.2695	79.1536	51.2695	79.0491	51.2695	79.1049	51.2695	79.0093	51.2695	79.0603	51.2695	78.9769	51.2695	79.021	51.2695	78.9528	51.2695	78.9879	51.2695	78.9373	51.2695	78.9617	51.2695	78.9306	51.2695	78.9431	51.2695	78.9326
52.7344	80.0779	52.7344	80.0701	52.7344	80.0764	52.7344	80.0531	52.7344	80.0657	52.7344	80.0274	52.7344	80.0462	52.7344	79.9938	52.7344	80.0186	52.7344	79.9532	52.7344	79.9837	52.7344	79.9068	52.7344	79.9427	52.7344	79.8563	52.7344	79.8969	52.7344	79.8034	52.7344	79.8478	52.7344	79.7499	52.7344	79.7971	52.7344	79.6976	52.7344	79.7463	52.7344	79.6484	52.7344	79.6969	52.7344	79.6039	52.7344	79.6506	52.7344	79.5655	52.7344	79.6084	52.7344	79.5342	52.7344	79.5714	52.7344	79.5107	52.7344	79.5404	52.7344	79.4955	52.7344	79.5162	52.7344	79.4885	52.7344	79.4992	52.7344	79.4899
54.1992	80.5319	54.1992	80.5245	54.1992	80.5299	54.1992	80.5078	54.1992	80.5186	54.1992	80.4824	54.1992	80.4983	54.1992	80.4491	54.1992	80.4697	54.1992	80.4088	54.1992	80.4339	54.1992	80.363	54.1992	80.3921	54.1992	80.3132	54.1992	80.3456	54.1992	80.2612	54.1992	80.2963	54.1992	80.2087	54.1992	80.2457	54.1992	80.1576	54.1992	80.1955	54.1992	80.1097	54.1992	80.1473	54.1992	80.0665	54.1992	80.1026	54.1992	80.0292	54.1992	80.0623	54.1992	79.9988	54.1992	80.0275	54.1992	79.9759	54.1992	79.9989	54.1992	79.9607	54.1992	79.9768	54.1992	79.9534	54.1992	79.9617	54.1992	79.9538
55.6641	80.8628	55.6641	80.8568	55.6641	80.8592	55.6641	80.8415	55.6641	80.8462	55.6641	80.8173	55.6641	80.8243	55.6641	80.7851	55.6641	80.7943	55.6641	80.7461	55.6641	80.7573	55.6641	80.7016	55.6641	80.7148	55.6641	80.6534	55.6641	80.6684	55.6641	80.6031	55.6641	80.6196	55.6641	80.5526	55.6641	80.5704	55.6641	80.5037	55.6641	80.5224	55.6641	80.4581	55.6641	80.4771	55.6641	80.4172	55.6641	80.4358	55.6641	80.382	55.6641	80.3993	55.6641	80.3532	55.6641	80.3685	55.6641	80.3313	55.6641	80.3437	55.6641	80.3165	55.6641	80.3252	55.6641	80.3086	55.6641	80.3131	55.6641	80.3075
58.5938	81.4308	58.5938	81.4234	58.5938	81.4276	58.5938	81.4056	58.5938	81.4138	58.5938	81.378	58.5938	81.3902	58.5938	81.3416	58.5938	81.3576	58.5938	81.2978	58.5938	81.3172	58.5938	81.2482	58.5938	81.2707	58.5938	81.1947	58.5938	81.2198	58.5938	81.1394	58.5938	81.1666	58.5938	81.0845	58.5938	81.1129	58.5938	81.0319	58.5938	81.0608	58.5938	80.9833	58.5938	81.0118	58.5938	80.9403	58.5938	80.9675	58.5938	80.9039	58.5938	80.9287	58.5938	80.8748	58.5938	80.8961	58.5938	80.8531	58.5938	80.87	58.5938	80.8387	58.5938	80.8505	58.5938	80.8315	58.5938	80.8376	58.5938	80.8312
60.0586	81.7362	60.0586	81.7281	60.0586	81.7334	60.0586	81.7091	60.0586	81.7197	60.0586	81.68	60.0586	81.6957	60.0586	81.6419	60.0586	81.6625	60.0586	81.5961	60.0586	81.6213	60.0586	81.5445	60.0586	81.5739	60.0586	81.489	60.0586	81.522	60.0586	81.4319	60.0586	81.4678	60.0586	81.3754	60.0586	81.4132	60.0586	81.3217	60.0586	81.3603	60.0586	81.2724	60.0586	81.3107	60.0586	81.2293	60.0586	81.2658	60.0586	81.1932	60.0586	81.2266	60.0586	81.1648	60.0586	81.1936	60.0586	81.1441	60.0586	81.1671	60.0586	81.1311	60.0586	81.147	60.0586	81.1251	60.0586	81.1334	60.0586	81.126
62.9883	82.2155	62.9883	82.2052	62.9883	82.2139	62.9883	82.1834	62.9883	82.2007	62.9883	82.1509	62.9883	82.1765	62.9883	82.109	62.9883	82.1423	62.9883	82.0593	62.9883	82.0996	62.9883	82.0038	62.9883	82.0503	62.9883	81.9448	62.9883	81.9964	62.9883	81.8847	62.9883	81.9401	62.9883	81.8259	62.9883	81.8838	62.9883	81.7707	62.9883	81.8294	62.9883	81.721	62.9883	81.7787	62.9883	81.6783	62.9883	81.7331	62.9883	81.6435	62.9883	81.6933	62.9883	81.617	62.9883	81.6599	62.9883	81.5988	62.9883	81.6328	62.9883	81.5882	62.9883	81.6119	62.9883	81.5847	62.9883	81.5969	62.9883	81.5878
64.4531	82.4162	64.4531	82.4046	64.4531	82.4157	64.4531	82.3813	64.4531	82.4031	64.4531	82.3471	64.4531	82.3792	64.4531	82.3034	64.4531	82.345	64.4531	82.2519	64.4531	82.3021	64.4531	82.1948	64.4531	82.2524	64.4531	82.1345	64.4531	82.198	64.4531	82.0734	64.4531	82.1413	64.4531	82.0141	64.4531	82.0846	64.4531	81.959	64.4531	82.03	64.4531	81.9098	64.4531	81.9792	64.4531	81.8681	64.4531	81.9336	64.4531	81.8347	64.4531	81.894	64.4531	81.8099	64.4531	81.8606	64.4531	81.7933	64.4531	81.8335	64.4531	81.7845	64.4531	81.8123	64.4531	81.7826	64.4531	81.7968	64.4531	81.7868
67.3828	82.7698	67.3828	82.7545	67.3828	82.7727	67.3828	82.7271	67.3828	82.7632	67.3828	82.6886	67.3828	82.7421	67.3828	82.6406	67.3828	82.7104	67.3828	82.5851	67.3828	82.67	67.3828	82.5245	67.3828	82.6228	67.3828	82.4614	67.3828	82.571	67.3828	82.3987	67.3828	82.5172	67.3828	82.3392	67.3828	82.4635	67.3828	82.2854	67.3828	82.4119	67.3828	82.2393	67.3828	82.3641	67.3828	82.2024	67.3828	82.321	67.3828	82.1754	67.3828	82.2833	67.3828	82.158	67.3828	82.2508	67.3828	82.1495	67.3828	82.2232	67.3828	82.1488	67.3828	82.2	67.3828	82.1545	67.3828	82.1807	67.3828	82.1655
