"SPL Horizontal"
"On-Axis"		"10°"		"-10°"		"20°"		"-20°"		"30°"		"-30°"		"40°"		"-40°"		"50°"		"-50°"		"60°"		"-60°"		"70°"		"-70°"		"80°"		"-80°"		"90°"		"-90°"		"100°"		"-100°"		"110°"		"-110°"		"120°"		"-120°"		"130°"		"-130°"		"140°"		"-140°"		"150°"		"-150°"		"160°"		"-160°"		"170°"		"-170°"		"180°"
"Frequency [Hz]"	"Sound Pessure Level [dB]  / [2.83V 1m] "	"Frequency [Hz]"	"Sound Pessure Level [dB]  / [2.83V 1m] "	"Frequency [Hz]"	"Sound Pessure Level [dB]  / [2.83V 1m] "	"Frequency [Hz]"	"Sound Pessure Level [dB]  / [2.83V 1m] "	"Frequency [Hz]"	"Sound Pessure Level [dB]  / [2.83V 1m] "	"Frequency [Hz]"	"Sound Pessure Level [dB]  / [2.83V 1m] "	"Frequency [Hz]"	"Sound Pessure Level [dB]  / [2.83V 1m] "	"Frequency [Hz]"	"Sound Pessure Level [dB]  / [2.83V 1m] "	"Frequency [Hz]"	"Sound Pessure Level [dB]  / [2.83V 1m] "	"Frequency [Hz]"	"Sound Pessure Level [dB]  / [2.83V 1m] "	"Frequency [Hz]"	"Sound Pessure Level [dB]  / [2.83V 1m] "	"Frequency [Hz]"	"Sound Pessure Level [dB]  / [2.83V 1m] "	"Frequency [Hz]"	"Sound Pessure Level [dB]  / [2.83V 1m] "	"Frequency [Hz]"	"Sound Pessure Level [dB]  / [2.83V 1m] "	"Frequency [Hz]"	"Sound Pessure Level [dB]  / [2.83V 1m] "	"Frequency [Hz]"	"Sound Pessure Level [dB]  / [2.83V 1m] "	"Frequency [Hz]"	"Sound Pessure Level [dB]  / [2.83V 1m] "	"Frequency [Hz]"	"Sound Pessure Level [dB]  / [2.83V 1m] "	"Frequency [Hz]"	"Sound Pessure Level [dB]  / [2.83V 1m] "	"Frequency [Hz]"	"Sound Pessure Level [dB]  / [2.83V 1m] "	"Frequency [Hz]"	"Sound Pessure Level [dB]  / [2.83V 1m] "	"Frequency [Hz]"	"Sound Pessure Level [dB]  / [2.83V 1m] "	"Frequency [Hz]"	"Sound Pessure Level [dB]  / [2.83V 1m] "	"Frequency [Hz]"	"Sound Pessure Level [dB]  / [2.83V 1m] "	"Frequency [Hz]"	"Sound Pessure Level [dB]  / [2.83V 1m] "	"Frequency [Hz]"	"Sound Pessure Level [dB]  / [2.83V 1m] "	"Frequency [Hz]"	"Sound Pessure Level [dB]  / [2.83V 1m] "	"Frequency [Hz]"	"Sound Pessure Level [dB]  / [2.83V 1m] "	"Frequency [Hz]"	"Sound Pessure Level [dB]  / [2.83V 1m] "	"Frequency [Hz]"	"Sound Pessure Level [dB]  / [2.83V 1m] "	"Frequency [Hz]"	"Sound Pessure Level [dB]  / [2.83V 1m] "	"Frequency [Hz]"	"Sound Pessure Level [dB]  / [2.83V 1m] "	"Frequency [Hz]"	"Sound Pessure Level [dB]  / [2.83V 1m] "	"Frequency [Hz]"	"Sound Pessure Level [dB]  / [2.83V 1m] "	"Frequency [Hz]"	"Sound Pessure Level [dB]  / [2.83V 1m] "	"Frequency [Hz]"	"Sound Pessure Level [dB]  / [2.83V 1m] "
20.1416	69.9911	20.1416	69.9868	20.1416	69.995	20.1416	69.9821	20.1416	69.9983	20.1416	69.9771	20.1416	70.0011	20.1416	69.9721	20.1416	70.0033	20.1416	69.9674	20.1416	70.0051	20.1416	69.9632	20.1416	70.0065	20.1416	69.9599	20.1416	70.0074	20.1416	69.9578	20.1416	70.008	20.1416	69.9571	20.1416	70.0082	20.1416	69.9578	20.1416	70.008	20.1416	69.9599	20.1416	70.0074	20.1416	69.9632	20.1416	70.0065	20.1416	69.9674	20.1416	70.0051	20.1416	69.9721	20.1416	70.0033	20.1416	69.9771	20.1416	70.0011	20.1416	69.9821	20.1416	69.9983	20.1416	69.9868	20.1416	69.995	20.1416	69.9911
20.5078	70.3211	20.5078	70.3158	20.5078	70.3261	20.5078	70.3103	20.5078	70.3306	20.5078	70.3047	20.5078	70.3346	20.5078	70.2992	20.5078	70.3381	20.5078	70.2941	20.5078	70.3411	20.5078	70.2897	20.5078	70.3434	20.5078	70.2863	20.5078	70.3451	20.5078	70.2841	20.5078	70.3461	20.5078	70.2834	20.5078	70.3465	20.5078	70.2841	20.5078	70.3461	20.5078	70.2863	20.5078	70.3451	20.5078	70.2897	20.5078	70.3434	20.5078	70.2941	20.5078	70.3411	20.5078	70.2992	20.5078	70.3381	20.5078	70.3047	20.5078	70.3346	20.5078	70.3103	20.5078	70.3306	20.5078	70.3158	20.5078	70.3261	20.5078	70.3211
21.2402	70.8987	21.2402	70.8932	21.2402	70.9039	21.2402	70.8876	21.2402	70.9088	21.2402	70.882	21.2402	70.9131	21.2402	70.8767	21.2402	70.9169	21.2402	70.8719	21.2402	70.9201	21.2402	70.8679	21.2402	70.9226	21.2402	70.8648	21.2402	70.9244	21.2402	70.8628	21.2402	70.9255	21.2402	70.8622	21.2402	70.9259	21.2402	70.8628	21.2402	70.9255	21.2402	70.8648	21.2402	70.9244	21.2402	70.8679	21.2402	70.9226	21.2402	70.8719	21.2402	70.9201	21.2402	70.8767	21.2402	70.9169	21.2402	70.882	21.2402	70.9131	21.2402	70.8876	21.2402	70.9088	21.2402	70.8932	21.2402	70.9039	21.2402	70.8987
21.9727	71.4511	21.9727	71.4458	21.9727	71.4561	21.9727	71.4406	21.9727	71.4609	21.9727	71.4354	21.9727	71.4652	21.9727	71.4306	21.9727	71.469	21.9727	71.4263	21.9727	71.4722	21.9727	71.4226	21.9727	71.4747	21.9727	71.4199	21.9727	71.4765	21.9727	71.4182	21.9727	71.4777	21.9727	71.4176	21.9727	71.478	21.9727	71.4182	21.9727	71.4777	21.9727	71.4199	21.9727	71.4765	21.9727	71.4226	21.9727	71.4747	21.9727	71.4263	21.9727	71.4722	21.9727	71.4306	21.9727	71.469	21.9727	71.4354	21.9727	71.4652	21.9727	71.4406	21.9727	71.4609	21.9727	71.4458	21.9727	71.4561	21.9727	71.4511
22.7051	71.8954	22.7051	71.8903	22.7051	71.9003	22.7051	71.8852	22.7051	71.9049	22.7051	71.8802	22.7051	71.9091	22.7051	71.8755	22.7051	71.9128	22.7051	71.8712	22.7051	71.916	22.7051	71.8677	22.7051	71.9185	22.7051	71.865	22.7051	71.9203	22.7051	71.8634	22.7051	71.9214	22.7051	71.8628	22.7051	71.9218	22.7051	71.8634	22.7051	71.9214	22.7051	71.865	22.7051	71.9203	22.7051	71.8677	22.7051	71.9185	22.7051	71.8712	22.7051	71.916	22.7051	71.8755	22.7051	71.9128	22.7051	71.8802	22.7051	71.9091	22.7051	71.8852	22.7051	71.9049	22.7051	71.8903	22.7051	71.9003	22.7051	71.8954
23.8037	72.6327	23.8037	72.6282	23.8037	72.637	23.8037	72.6238	23.8037	72.6412	23.8037	72.6194	23.8037	72.6449	23.8037	72.6153	23.8037	72.6482	23.8037	72.6117	23.8037	72.651	23.8037	72.6087	23.8037	72.6533	23.8037	72.6064	23.8037	72.6549	23.8037	72.605	23.8037	72.6559	23.8037	72.6045	23.8037	72.6563	23.8037	72.605	23.8037	72.6559	23.8037	72.6064	23.8037	72.6549	23.8037	72.6087	23.8037	72.6533	23.8037	72.6117	23.8037	72.651	23.8037	72.6153	23.8037	72.6482	23.8037	72.6194	23.8037	72.6449	23.8037	72.6238	23.8037	72.6412	23.8037	72.6282	23.8037	72.637	23.8037	72.6327
24.5361	73.0673	24.5361	73.0628	24.5361	73.0717	24.5361	73.0583	24.5361	73.0758	24.5361	73.054	24.5361	73.0796	24.5361	73.0499	24.5361	73.0829	24.5361	73.0462	24.5361	73.0857	24.5361	73.0432	24.5361	73.088	24.5361	73.0409	24.5361	73.0897	24.5361	73.0395	24.5361	73.0907	24.5361	73.039	24.5361	73.091	24.5361	73.0395	24.5361	73.0907	24.5361	73.0409	24.5361	73.0897	24.5361	73.0432	24.5361	73.088	24.5361	73.0462	24.5361	73.0857	24.5361	73.0499	24.5361	73.0829	24.5361	73.054	24.5361	73.0796	24.5361	73.0583	24.5361	73.0758	24.5361	73.0628	24.5361	73.0717	24.5361	73.0673
25.2686	73.4951	25.2686	73.4905	25.2686	73.4994	25.2686	73.486	25.2686	73.5036	25.2686	73.4816	25.2686	73.5074	25.2686	73.4775	25.2686	73.5108	25.2686	73.4738	25.2686	73.5136	25.2686	73.4708	25.2686	73.5159	25.2686	73.4685	25.2686	73.5176	25.2686	73.467	25.2686	73.5186	25.2686	73.4665	25.2686	73.519	25.2686	73.467	25.2686	73.5186	25.2686	73.4685	25.2686	73.5176	25.2686	73.4708	25.2686	73.5159	25.2686	73.4738	25.2686	73.5136	25.2686	73.4775	25.2686	73.5108	25.2686	73.4816	25.2686	73.5074	25.2686	73.486	25.2686	73.5036	25.2686	73.4905	25.2686	73.4994	25.2686	73.4951
26.3672	74.1119	26.3672	74.1071	26.3672	74.1164	26.3672	74.1024	26.3672	74.1208	26.3672	74.0978	26.3672	74.1247	26.3672	74.0935	26.3672	74.1282	26.3672	74.0897	26.3672	74.1312	26.3672	74.0865	26.3672	74.1336	26.3672	74.0841	26.3672	74.1353	26.3672	74.0826	26.3672	74.1364	26.3672	74.0821	26.3672	74.1367	26.3672	74.0826	26.3672	74.1364	26.3672	74.0841	26.3672	74.1353	26.3672	74.0865	26.3672	74.1336	26.3672	74.0897	26.3672	74.1312	26.3672	74.0935	26.3672	74.1282	26.3672	74.0978	26.3672	74.1247	26.3672	74.1024	26.3672	74.1208	26.3672	74.1071	26.3672	74.1164	26.3672	74.1119
27.0996	74.5695	27.0996	74.5662	27.0996	74.5727	27.0996	74.5628	27.0996	74.5757	27.0996	74.5596	27.0996	74.5784	27.0996	74.5565	27.0996	74.5809	27.0996	74.5538	27.0996	74.5829	27.0996	74.5515	27.0996	74.5845	27.0996	74.5498	27.0996	74.5857	27.0996	74.5487	27.0996	74.5864	27.0996	74.5483	27.0996	74.5866	27.0996	74.5487	27.0996	74.5864	27.0996	74.5498	27.0996	74.5857	27.0996	74.5515	27.0996	74.5845	27.0996	74.5538	27.0996	74.5829	27.0996	74.5565	27.0996	74.5809	27.0996	74.5596	27.0996	74.5784	27.0996	74.5628	27.0996	74.5757	27.0996	74.5662	27.0996	74.5727	27.0996	74.5695
28.1982	75.2359	28.1982	75.2338	28.1982	75.2378	28.1982	75.2316	28.1982	75.2394	28.1982	75.2292	28.1982	75.2408	28.1982	75.2269	28.1982	75.2419	28.1982	75.2246	28.1982	75.2428	28.1982	75.2227	28.1982	75.2435	28.1982	75.2212	28.1982	75.2439	28.1982	75.2203	28.1982	75.2442	28.1982	75.2199	28.1982	75.2443	28.1982	75.2203	28.1982	75.2442	28.1982	75.2212	28.1982	75.2439	28.1982	75.2227	28.1982	75.2435	28.1982	75.2246	28.1982	75.2428	28.1982	75.2269	28.1982	75.2419	28.1982	75.2292	28.1982	75.2408	28.1982	75.2316	28.1982	75.2394	28.1982	75.2338	28.1982	75.2378	28.1982	75.2359
29.2969	75.7227	29.2969	75.7238	29.2969	75.7216	29.2969	75.7246	29.2969	75.7205	29.2969	75.7251	29.2969	75.7193	29.2969	75.7254	29.2969	75.7184	29.2969	75.7255	29.2969	75.7175	29.2969	75.7254	29.2969	75.7169	29.2969	75.7253	29.2969	75.7164	29.2969	75.7251	29.2969	75.7162	29.2969	75.7251	29.2969	75.7161	29.2969	75.7251	29.2969	75.7162	29.2969	75.7253	29.2969	75.7164	29.2969	75.7254	29.2969	75.7169	29.2969	75.7255	29.2969	75.7175	29.2969	75.7254	29.2969	75.7184	29.2969	75.7251	29.2969	75.7193	29.2969	75.7246	29.2969	75.7205	29.2969	75.7238	29.2969	75.7216	29.2969	75.7227
30.0293	76.1084	30.0293	76.1046	30.0293	76.1122	30.0293	76.1009	30.0293	76.1158	30.0293	76.0973	30.0293	76.1191	30.0293	76.094	30.0293	76.1222	30.0293	76.0912	30.0293	76.1248	30.0293	76.0888	30.0293	76.127	30.0293	76.0871	30.0293	76.1286	30.0293	76.086	30.0293	76.1296	30.0293	76.0856	30.0293	76.1299	30.0293	76.086	30.0293	76.1296	30.0293	76.0871	30.0293	76.1286	30.0293	76.0888	30.0293	76.127	30.0293	76.0912	30.0293	76.1248	30.0293	76.094	30.0293	76.1222	30.0293	76.0973	30.0293	76.1191	30.0293	76.1009	30.0293	76.1158	30.0293	76.1046	30.0293	76.1122	30.0293	76.1084
31.1279	76.7457	31.1279	76.7478	31.1279	76.7442	31.1279	76.7503	31.1279	76.7432	31.1279	76.7531	31.1279	76.7428	31.1279	76.7561	31.1279	76.7428	31.1279	76.7589	31.1279	76.743	31.1279	76.7614	31.1279	76.7435	31.1279	76.7633	31.1279	76.7439	31.1279	76.7645	31.1279	76.7442	31.1279	76.7649	31.1279	76.7444	31.1279	76.7645	31.1279	76.7442	31.1279	76.7633	31.1279	76.7439	31.1279	76.7614	31.1279	76.7435	31.1279	76.7589	31.1279	76.743	31.1279	76.7561	31.1279	76.7428	31.1279	76.7531	31.1279	76.7428	31.1279	76.7503	31.1279	76.7432	31.1279	76.7478	31.1279	76.7442	31.1279	76.7457
32.2266	77.0271	32.2266	77.0229	32.2266	77.0321	32.2266	77.0195	32.2266	77.0375	32.2266	77.0172	32.2266	77.0431	32.2266	77.0159	32.2266	77.0483	32.2266	77.0154	32.2266	77.0531	32.2266	77.0155	32.2266	77.0571	32.2266	77.016	32.2266	77.0601	32.2266	77.0164	32.2266	77.062	32.2266	77.0165	32.2266	77.0626	32.2266	77.0164	32.2266	77.062	32.2266	77.016	32.2266	77.0601	32.2266	77.0155	32.2266	77.0571	32.2266	77.0154	32.2266	77.0531	32.2266	77.0159	32.2266	77.0483	32.2266	77.0172	32.2266	77.0431	32.2266	77.0195	32.2266	77.0375	32.2266	77.0229	32.2266	77.0321	32.2266	77.0271
33.3252	77.6883	33.3252	77.6674	33.3252	77.7083	33.3252	77.6465	33.3252	77.7269	33.3252	77.6263	33.3252	77.7435	33.3252	77.6075	33.3252	77.7578	33.3252	77.591	33.3252	77.7696	33.3252	77.5774	33.3252	77.7787	33.3252	77.5673	33.3252	77.7852	33.3252	77.5611	33.3252	77.7891	33.3252	77.559	33.3252	77.7904	33.3252	77.5611	33.3252	77.7891	33.3252	77.5673	33.3252	77.7852	33.3252	77.5774	33.3252	77.7787	33.3252	77.591	33.3252	77.7696	33.3252	77.6075	33.3252	77.7578	33.3252	77.6263	33.3252	77.7435	33.3252	77.6465	33.3252	77.7269	33.3252	77.6674	33.3252	77.7083	33.3252	77.6883
34.79	78.0202	34.79	77.9967	34.79	78.0432	34.79	77.9735	34.79	78.0652	34.79	77.9513	34.79	78.0855	34.79	77.9309	34.79	78.1036	34.79	77.9131	34.79	78.1191	34.79	77.8985	34.79	78.1315	34.79	77.8876	34.79	78.1406	34.79	77.8809	34.79	78.1461	34.79	77.8787	34.79	78.148	34.79	77.8809	34.79	78.1461	34.79	77.8876	34.79	78.1406	34.79	77.8985	34.79	78.1315	34.79	77.9131	34.79	78.1191	34.79	77.9309	34.79	78.1036	34.79	77.9513	34.79	78.0855	34.79	77.9735	34.79	78.0652	34.79	77.9967	34.79	78.0432	34.79	78.0202
35.8887	77.7835	35.8887	77.7803	35.8887	77.7873	35.8887	77.7776	35.8887	77.7918	35.8887	77.7752	35.8887	77.7969	35.8887	77.7731	35.8887	77.8023	35.8887	77.7713	35.8887	77.8076	35.8887	77.7696	35.8887	77.8125	35.8887	77.7683	35.8887	77.8164	35.8887	77.7675	35.8887	77.8189	35.8887	77.7672	35.8887	77.8198	35.8887	77.7675	35.8887	77.8189	35.8887	77.7683	35.8887	77.8164	35.8887	77.7696	35.8887	77.8125	35.8887	77.7713	35.8887	77.8076	35.8887	77.7731	35.8887	77.8023	35.8887	77.7752	35.8887	77.7969	35.8887	77.7776	35.8887	77.7918	35.8887	77.7803	35.8887	77.7873	35.8887	77.7835
36.9873	78.1589	36.9873	78.1726	36.9873	78.1458	36.9873	78.1864	36.9873	78.1337	36.9873	78.1998	36.9873	78.123	36.9873	78.2122	36.9873	78.1138	36.9873	78.223	36.9873	78.1063	36.9873	78.2319	36.9873	78.1005	36.9873	78.2385	36.9873	78.0964	36.9873	78.2425	36.9873	78.0939	36.9873	78.2439	36.9873	78.0931	36.9873	78.2425	36.9873	78.0939	36.9873	78.2385	36.9873	78.0964	36.9873	78.2319	36.9873	78.1005	36.9873	78.223	36.9873	78.1063	36.9873	78.2122	36.9873	78.1138	36.9873	78.1998	36.9873	78.123	36.9873	78.1864	36.9873	78.1337	36.9873	78.1726	36.9873	78.1458	36.9873	78.1589
38.4521	78.5577	38.4521	78.5596	38.4521	78.556	38.4521	78.5618	38.4521	78.5546	38.4521	78.5641	38.4521	78.5533	38.4521	78.5666	38.4521	78.5521	38.4521	78.569	38.4521	78.5511	38.4521	78.5712	38.4521	78.5502	38.4521	78.5729	38.4521	78.5495	38.4521	78.574	38.4521	78.5491	38.4521	78.5744	38.4521	78.549	38.4521	78.574	38.4521	78.5491	38.4521	78.5729	38.4521	78.5495	38.4521	78.5712	38.4521	78.5502	38.4521	78.569	38.4521	78.5511	38.4521	78.5666	38.4521	78.5521	38.4521	78.5641	38.4521	78.5533	38.4521	78.5618	38.4521	78.5546	38.4521	78.5596	38.4521	78.556	38.4521	78.5577
39.917	78.9962	39.917	78.9739	39.917	79.0152	39.917	78.9491	39.917	79.0304	39.917	78.9229	39.917	79.0417	39.917	78.8968	39.917	79.0496	39.917	78.8723	39.917	79.0544	39.917	78.8511	39.917	79.0569	39.917	78.8346	39.917	79.058	39.917	78.8242	39.917	79.0583	39.917	78.8207	39.917	79.0584	39.917	78.8242	39.917	79.0583	39.917	78.8346	39.917	79.058	39.917	78.8511	39.917	79.0569	39.917	78.8723	39.917	79.0544	39.917	78.8968	39.917	79.0496	39.917	78.9229	39.917	79.0417	39.917	78.9491	39.917	79.0304	39.917	78.9739	39.917	79.0152	39.917	78.9962
41.3818	80.3383	41.3818	80.3318	41.3818	80.3444	41.3818	80.325	41.3818	80.3499	41.3818	80.3181	41.3818	80.3547	41.3818	80.3114	41.3818	80.3587	41.3818	80.3053	41.3818	80.362	41.3818	80.3001	41.3818	80.3646	41.3818	80.2961	41.3818	80.3664	41.3818	80.2935	41.3818	80.3675	41.3818	80.2927	41.3818	80.3678	41.3818	80.2935	41.3818	80.3675	41.3818	80.2961	41.3818	80.3664	41.3818	80.3001	41.3818	80.3646	41.3818	80.3053	41.3818	80.362	41.3818	80.3114	41.3818	80.3587	41.3818	80.3181	41.3818	80.3547	41.3818	80.325	41.3818	80.3499	41.3818	80.3318	41.3818	80.3444	41.3818	80.3383
42.8467	80.8026	42.8467	80.7969	42.8467	80.8086	42.8467	80.7916	42.8467	80.8146	42.8467	80.7868	42.8467	80.8205	42.8467	80.7827	42.8467	80.8261	42.8467	80.7792	42.8467	80.831	42.8467	80.7765	42.8467	80.8352	42.8467	80.7746	42.8467	80.8383	42.8467	80.7734	42.8467	80.8402	42.8467	80.773	42.8467	80.8409	42.8467	80.7734	42.8467	80.8402	42.8467	80.7746	42.8467	80.8383	42.8467	80.7765	42.8467	80.8352	42.8467	80.7792	42.8467	80.831	42.8467	80.7827	42.8467	80.8261	42.8467	80.7868	42.8467	80.8205	42.8467	80.7916	42.8467	80.8146	42.8467	80.7969	42.8467	80.8086	42.8467	80.8026
44.3115	81.1326	44.3115	81.1302	44.3115	81.1351	44.3115	81.1279	44.3115	81.1376	44.3115	81.1258	44.3115	81.14	44.3115	81.124	44.3115	81.1422	44.3115	81.1225	44.3115	81.1441	44.3115	81.1214	44.3115	81.1457	44.3115	81.1205	44.3115	81.1468	44.3115	81.12	44.3115	81.1475	44.3115	81.1199	44.3115	81.1478	44.3115	81.12	44.3115	81.1475	44.3115	81.1205	44.3115	81.1468	44.3115	81.1214	44.3115	81.1457	44.3115	81.1225	44.3115	81.1441	44.3115	81.124	44.3115	81.1422	44.3115	81.1258	44.3115	81.14	44.3115	81.1279	44.3115	81.1376	44.3115	81.1302	44.3115	81.1351	44.3115	81.1326
45.7764	81.5859	45.7764	81.5825	45.7764	81.5894	45.7764	81.5793	45.7764	81.5929	45.7764	81.5764	45.7764	81.5964	45.7764	81.5739	45.7764	81.5996	45.7764	81.5718	45.7764	81.6024	45.7764	81.5702	45.7764	81.6047	45.7764	81.569	45.7764	81.6065	45.7764	81.5683	45.7764	81.6076	45.7764	81.5681	45.7764	81.6079	45.7764	81.5683	45.7764	81.6076	45.7764	81.569	45.7764	81.6065	45.7764	81.5702	45.7764	81.6047	45.7764	81.5718	45.7764	81.6024	45.7764	81.5739	45.7764	81.5996	45.7764	81.5764	45.7764	81.5964	45.7764	81.5793	45.7764	81.5929	45.7764	81.5825	45.7764	81.5894	45.7764	81.5859
47.2412	81.9938	47.2412	81.9905	47.2412	81.9974	47.2412	81.9873	47.2412	82.001	47.2412	81.9846	47.2412	82.0046	47.2412	81.9822	47.2412	82.008	47.2412	81.9802	47.2412	82.011	47.2412	81.9787	47.2412	82.0135	47.2412	81.9776	47.2412	82.0154	47.2412	81.977	47.2412	82.0166	47.2412	81.9768	47.2412	82.017	47.2412	81.977	47.2412	82.0166	47.2412	81.9776	47.2412	82.0154	47.2412	81.9787	47.2412	82.0135	47.2412	81.9802	47.2412	82.011	47.2412	81.9822	47.2412	82.008	47.2412	81.9846	47.2412	82.0046	47.2412	81.9873	47.2412	82.001	47.2412	81.9905	47.2412	81.9974	47.2412	81.9938
49.0723	82.5047	49.0723	82.5027	49.0723	82.5068	49.0723	82.501	49.0723	82.5091	49.0723	82.4996	49.0723	82.5114	49.0723	82.4985	49.0723	82.5136	49.0723	82.4977	49.0723	82.5155	49.0723	82.4971	49.0723	82.5172	49.0723	82.4968	49.0723	82.5185	49.0723	82.4966	49.0723	82.5192	49.0723	82.4965	49.0723	82.5195	49.0723	82.4966	49.0723	82.5192	49.0723	82.4968	49.0723	82.5185	49.0723	82.4971	49.0723	82.5172	49.0723	82.4977	49.0723	82.5155	49.0723	82.4985	49.0723	82.5136	49.0723	82.4996	49.0723	82.5114	49.0723	82.501	49.0723	82.5091	49.0723	82.5027	49.0723	82.5068	49.0723	82.5047
50.9033	82.9848	50.9033	82.9796	50.9033	82.9901	50.9033	82.9748	50.9033	82.9955	50.9033	82.9704	50.9033	83.0008	50.9033	82.9666	50.9033	83.0056	50.9033	82.9634	50.9033	83.01	50.9033	82.9609	50.9033	83.0136	50.9033	82.9591	50.9033	83.0163	50.9033	82.958	50.9033	83.018	50.9033	82.9577	50.9033	83.0185	50.9033	82.958	50.9033	83.018	50.9033	82.9591	50.9033	83.0163	50.9033	82.9609	50.9033	83.0136	50.9033	82.9634	50.9033	83.01	50.9033	82.9666	50.9033	83.0056	50.9033	82.9704	50.9033	83.0008	50.9033	82.9748	50.9033	82.9955	50.9033	82.9796	50.9033	82.9901	50.9033	82.9848
52.7344	83.3886	52.7344	83.3852	52.7344	83.392	52.7344	83.3818	52.7344	83.3953	52.7344	83.3786	52.7344	83.3984	52.7344	83.3757	52.7344	83.4011	52.7344	83.3732	52.7344	83.4034	52.7344	83.3711	52.7344	83.4053	52.7344	83.3696	52.7344	83.4067	52.7344	83.3687	52.7344	83.4076	52.7344	83.3684	52.7344	83.4079	52.7344	83.3687	52.7344	83.4076	52.7344	83.3696	52.7344	83.4067	52.7344	83.3711	52.7344	83.4053	52.7344	83.3732	52.7344	83.4034	52.7344	83.3757	52.7344	83.4011	52.7344	83.3786	52.7344	83.3984	52.7344	83.3818	52.7344	83.3953	52.7344	83.3852	52.7344	83.392	52.7344	83.3886
54.5654	83.878	54.5654	83.8737	54.5654	83.8823	54.5654	83.8696	54.5654	83.8866	54.5654	83.8657	54.5654	83.8906	54.5654	83.8623	54.5654	83.8943	54.5654	83.8594	54.5654	83.8975	54.5654	83.8571	54.5654	83.9001	54.5654	83.8554	54.5654	83.902	54.5654	83.8543	54.5654	83.9032	54.5654	83.854	54.5654	83.9036	54.5654	83.8543	54.5654	83.9032	54.5654	83.8554	54.5654	83.902	54.5654	83.8571	54.5654	83.9001	54.5654	83.8594	54.5654	83.8975	54.5654	83.8623	54.5654	83.8943	54.5654	83.8657	54.5654	83.8906	54.5654	83.8696	54.5654	83.8866	54.5654	83.8737	54.5654	83.8823	54.5654	83.878
