"SPL Vertical"
"On-Axis"		"10°"		"-10°"		"20°"		"-20°"		"30°"		"-30°"		"40°"		"-40°"		"50°"		"-50°"		"60°"		"-60°"		"70°"		"-70°"		"80°"		"-80°"		"90°"		"-90°"		"100°"		"-100°"		"110°"		"-110°"		"120°"		"-120°"		"130°"		"-130°"		"140°"		"-140°"		"150°"		"-150°"		"160°"		"-160°"		"170°"		"-170°"		"180°"
"Frequency / Hz"	"Sound Pressure Level / dB (re 20 µPa/V)  [2.83  V @ 1. m]"	"Frequency / Hz"	"Sound Pressure Level / dB (re 20 µPa/V)  [2.83  V @ 1. m]"	"Frequency / Hz"	"Sound Pressure Level / dB (re 20 µPa/V)  [2.83  V @ 1. m]"	"Frequency / Hz"	"Sound Pressure Level / dB (re 20 µPa/V)  [2.83  V @ 1. m]"	"Frequency / Hz"	"Sound Pressure Level / dB (re 20 µPa/V)  [2.83  V @ 1. m]"	"Frequency / Hz"	"Sound Pressure Level / dB (re 20 µPa/V)  [2.83  V @ 1. m]"	"Frequency / Hz"	"Sound Pressure Level / dB (re 20 µPa/V)  [2.83  V @ 1. m]"	"Frequency / Hz"	"Sound Pressure Level / dB (re 20 µPa/V)  [2.83  V @ 1. m]"	"Frequency / Hz"	"Sound Pressure Level / dB (re 20 µPa/V)  [2.83  V @ 1. m]"	"Frequency / Hz"	"Sound Pressure Level / dB (re 20 µPa/V)  [2.83  V @ 1. m]"	"Frequency / Hz"	"Sound Pressure Level / dB (re 20 µPa/V)  [2.83  V @ 1. m]"	"Frequency / Hz"	"Sound Pressure Level / dB (re 20 µPa/V)  [2.83  V @ 1. m]"	"Frequency / Hz"	"Sound Pressure Level / dB (re 20 µPa/V)  [2.83  V @ 1. m]"	"Frequency / Hz"	"Sound Pressure Level / dB (re 20 µPa/V)  [2.83  V @ 1. m]"	"Frequency / Hz"	"Sound Pressure Level / dB (re 20 µPa/V)  [2.83  V @ 1. m]"	"Frequency / Hz"	"Sound Pressure Level / dB (re 20 µPa/V)  [2.83  V @ 1. m]"	"Frequency / Hz"	"Sound Pressure Level / dB (re 20 µPa/V)  [2.83  V @ 1. m]"	"Frequency / Hz"	"Sound Pressure Level / dB (re 20 µPa/V)  [2.83  V @ 1. m]"	"Frequency / Hz"	"Sound Pressure Level / dB (re 20 µPa/V)  [2.83  V @ 1. m]"	"Frequency / Hz"	"Sound Pressure Level / dB (re 20 µPa/V)  [2.83  V @ 1. m]"	"Frequency / Hz"	"Sound Pressure Level / dB (re 20 µPa/V)  [2.83  V @ 1. m]"	"Frequency / Hz"	"Sound Pressure Level / dB (re 20 µPa/V)  [2.83  V @ 1. m]"	"Frequency / Hz"	"Sound Pressure Level / dB (re 20 µPa/V)  [2.83  V @ 1. m]"	"Frequency / Hz"	"Sound Pressure Level / dB (re 20 µPa/V)  [2.83  V @ 1. m]"	"Frequency / Hz"	"Sound Pressure Level / dB (re 20 µPa/V)  [2.83  V @ 1. m]"	"Frequency / Hz"	"Sound Pressure Level / dB (re 20 µPa/V)  [2.83  V @ 1. m]"	"Frequency / Hz"	"Sound Pressure Level / dB (re 20 µPa/V)  [2.83  V @ 1. m]"	"Frequency / Hz"	"Sound Pressure Level / dB (re 20 µPa/V)  [2.83  V @ 1. m]"	"Frequency / Hz"	"Sound Pressure Level / dB (re 20 µPa/V)  [2.83  V @ 1. m]"	"Frequency / Hz"	"Sound Pressure Level / dB (re 20 µPa/V)  [2.83  V @ 1. m]"	"Frequency / Hz"	"Sound Pressure Level / dB (re 20 µPa/V)  [2.83  V @ 1. m]"	"Frequency / Hz"	"Sound Pressure Level / dB (re 20 µPa/V)  [2.83  V @ 1. m]"	"Frequency / Hz"	"Sound Pressure Level / dB (re 20 µPa/V)  [2.83  V @ 1. m]"	"Frequency / Hz"	"Sound Pressure Level / dB (re 20 µPa/V)  [2.83  V @ 1. m]"	"Frequency / Hz"	"Sound Pressure Level / dB (re 20 µPa/V)  [2.83  V @ 1. m]"	"Frequency / Hz"	"Sound Pressure Level / dB (re 20 µPa/V)  [2.83  V @ 1. m]"
20.5078	50.8514	20.5078	50.0183	20.5078	51.2935	20.5078	48.7459	20.5078	51.3591	20.5078	46.9731	20.5078	51.0229	20.5078	44.7825	20.5078	50.2051	20.5078	43.1396	20.5078	48.7289	20.5078	44.1184	20.5078	46.191	20.5078	46.9377	20.5078	41.4867	20.5078	49.7404	20.5078	34.0689	20.5078	52.0954	20.5078	42.6584	20.5078	54.0399	20.5078	48.5806	20.5078	55.6573	20.5078	52.3103	20.5078	57.0111	20.5078	54.9539	20.5078	58.1414	20.5078	56.9167	20.5078	59.0696	20.5078	58.3835	20.5078	59.8029	20.5078	59.4519	20.5078	60.3375	20.5078	60.1796	20.5078	60.6615	20.5078	60.6052	20.5078	60.7578
21.9727	54.6046	21.9727	54.0531	21.9727	54.8722	21.9727	53.1887	21.9727	54.8624	21.9727	51.9597	21.9727	54.5586	21.9727	50.3019	21.9727	53.9166	21.9727	48.2277	21.9727	52.8552	21.9727	46.2905	21.9727	51.245	21.9727	46.3002	21.9727	48.9447	21.9727	48.6415	21.9727	46.3405	21.9727	51.4301	21.9727	46.3291	21.9727	53.8608	21.9727	49.6739	21.9727	55.8681	21.9727	53.0644	21.9727	57.515	21.9727	55.7254	21.9727	58.8594	21.9727	57.7569	21.9727	59.9388	21.9727	59.291	21.9727	60.7724	21.9727	60.416	21.9727	61.3665	21.9727	61.1886	21.9727	61.7177	21.9727	61.6464	21.9727	61.8161
23.4375	55.7088	23.4375	55.093	23.4375	56.0586	23.4375	54.2012	23.4375	56.1424	23.4375	53.0282	23.4375	55.9448	23.4375	51.6246	23.4375	55.4309	23.4375	50.2492	23.4375	54.5415	23.4375	49.6019	23.4375	53.1938	23.4375	50.3857	23.4375	51.3331	23.4375	52.2172	23.4375	49.2911	23.4375	54.2799	23.4375	48.8198	23.4375	56.1829	23.4375	51.1014	23.4375	57.8322	23.4375	54.0869	23.4375	59.2276	23.4375	56.6398	23.4375	60.3865	23.4375	58.6508	23.4375	61.3228	23.4375	60.193	23.4375	62.0427	23.4375	61.3391	23.4375	62.5446	23.4375	62.1418	23.4375	62.8205	23.4375	62.6386	23.4375	62.8577
24.9023	56.3611	24.9023	55.6761	24.9023	56.7657	24.9023	54.6936	24.9023	56.8944	24.9023	53.398	24.9023	56.7353	24.9023	51.8302	24.9023	56.2562	24.9023	50.2828	24.9023	55.4005	24.9023	49.6254	24.9023	54.0866	24.9023	50.6583	24.9023	52.2493	24.9023	52.7383	24.9023	50.1566	24.9023	54.9293	24.9023	49.4543	24.9023	56.8836	24.9023	51.5923	24.9023	58.5478	24.9023	54.5934	24.9023	59.9416	24.9023	57.1843	24.9023	61.0912	24.9023	59.2244	24.9023	62.0149	24.9023	60.7868	24.9023	62.721	24.9023	61.9473	24.9023	63.2092	24.9023	62.7613	24.9023	63.4725	24.9023	63.2685	24.9023	63.4981
26.3672	57.7794	26.3672	57.1349	26.3672	58.1829	26.3672	56.2526	26.3672	58.3417	26.3672	55.1573	26.3672	58.2434	26.3672	53.9556	26.3672	57.8637	26.3672	52.9613	26.3672	57.1667	26.3672	52.7408	26.3672	56.1149	26.3672	53.6269	26.3672	54.7263	26.3672	55.2433	26.3672	53.2954	26.3672	57.0401	26.3672	52.8085	26.3672	58.7302	26.3672	54.1426	26.3672	60.2225	26.3672	56.4504	26.3672	61.5007	26.3672	58.7114	26.3672	62.5692	26.3672	60.6046	26.3672	63.4334	26.3672	62.1005	26.3672	64.0944	26.3672	63.2323	26.3672	64.5478	26.3672	64.0377	26.3672	64.7843	26.3672	64.5485	26.3672	64.7903
27.832	59.4799	27.832	58.9591	27.832	59.8128	27.832	58.2646	27.832	59.9457	27.832	57.4273	27.832	59.8625	27.832	56.5246	27.832	59.5409	27.832	55.7315	27.832	58.953	27.832	55.346	27.832	58.0747	27.832	55.6465	27.832	56.9241	27.832	56.6175	27.832	55.6863	27.832	57.9671	27.832	54.9554	27.832	59.405	27.832	55.5202	27.832	60.7659	27.832	57.2209	27.832	61.978	27.832	59.2132	27.832	63.0132	27.832	61.0101	27.832	63.8601	27.832	62.4768	27.832	64.5108	27.832	63.6043	27.832	64.9563	27.832	64.4144	27.832	65.1852	27.832	64.933	27.832	65.1832
29.2969	60.9552	29.2969	60.4281	29.2969	61.2767	29.2969	59.7061	29.2969	61.3836	29.2969	58.8159	29.2969	61.2627	29.2969	57.8346	29.2969	60.8944	29.2969	56.952	29.2969	60.2548	29.2969	56.5125	29.2969	59.3286	29.2969	56.8457	29.2969	58.159	29.2969	57.916	29.2969	56.9947	29.2969	59.3686	29.2969	56.5024	29.2969	60.8829	29.2969	57.3393	29.2969	62.2942	29.2969	59.1358	29.2969	63.539	29.2969	61.1007	29.2969	64.5966	29.2969	62.8409	29.2969	65.4602	29.2969	64.2552	29.2969	66.1251	29.2969	65.3409	29.2969	66.5842	29.2969	66.1187	29.2969	66.8277	29.2969	66.6121	29.2969	66.8422
30.7617	61.7761	30.7617	61.3087	30.7617	62.0733	30.7617	60.6944	30.7617	62.1854	30.7617	59.9797	30.7617	62.0985	30.7617	59.2611	30.7617	61.7985	30.7617	58.7153	30.7617	61.2757	30.7617	58.5799	30.7617	60.5415	30.7617	59.0162	30.7617	59.6764	30.7617	59.9609	30.7617	58.9271	30.7617	61.1899	30.7617	58.7574	30.7617	62.4906	30.7617	59.5167	30.7617	63.7331	30.7617	60.9747	30.7617	64.8527	30.7617	62.6304	30.7617	65.8192	30.7617	64.1635	30.7617	66.6169	30.7617	65.4502	30.7617	67.2346	30.7617	66.4597	30.7617	67.6612	30.7617	67.1941	30.7617	67.8847	30.7617	67.6662	30.7617	67.8913
32.2266	62.5844	32.2266	62.1402	32.2266	62.8718	32.2266	61.5671	32.2266	62.9849	32.2266	60.9182	32.2266	62.9099	32.2266	60.2945	32.2266	62.6354	32.2266	59.8638	32.2266	62.1581	32.2266	59.8286	32.2266	61.5019	32.2266	60.3053	32.2266	60.7634	32.2266	61.2233	32.2266	60.1877	32.2266	62.3897	32.2266	60.1688	32.2266	63.6228	32.2266	60.9491	32.2266	64.8065	32.2266	62.3142	32.2266	65.8795	32.2266	63.8531	32.2266	66.8107	32.2266	65.2901	32.2266	67.5827	32.2266	66.5071	32.2266	68.1831	32.2266	67.4677	32.2266	68.6	32.2266	68.1688	32.2266	68.8207	32.2266	68.6193	32.2266	68.8319
33.6914	63.6326	33.6914	63.2356	33.6914	63.8975	33.6914	62.7407	33.6914	64.0095	33.6914	62.2072	33.6914	63.9547	33.6914	61.735	33.6914	63.7257	33.6914	61.4675	33.6914	63.3278	33.6914	61.5523	33.6914	62.7978	33.6914	62.0546	33.6914	62.2413	33.6914	62.9079	33.6914	61.8767	33.6914	63.9658	33.6914	61.9971	33.6914	65.0871	33.6914	62.749	33.6914	66.1746	33.6914	63.9653	33.6914	67.1709	33.6914	65.3399	33.6914	68.0433	33.6914	66.646	33.6914	68.7716	33.6914	67.77	33.6914	69.3408	33.6914	68.6681	33.6914	69.7373	33.6914	69.3291	33.6914	69.9476	33.6914	69.7561	33.6914	69.9582
35.1562	64.9004	35.1562	64.5497	35.1562	65.1375	35.1562	64.1197	35.1562	65.2397	35.1562	63.6666	35.1562	65.1937	35.1562	63.2781	35.1562	64.9946	35.1562	63.0721	35.1562	64.6515	35.1562	63.1645	35.1562	64.2045	35.1562	63.6091	35.1562	63.7532	35.1562	64.3615	35.1562	63.4835	35.1562	65.3094	35.1562	63.627	35.1562	66.3341	35.1562	64.2987	35.1562	67.3453	35.1562	65.3782	35.1562	68.2844	35.1562	66.6213	35.1562	69.1151	35.1562	67.8265	35.1562	69.8138	35.1562	68.8801	35.1562	70.3626	35.1562	69.7309	35.1562	70.7465	35.1562	70.3614	35.1562	70.9512	35.1562	70.7701	35.1562	70.9632
36.6211	66.2192	36.6211	65.8999	36.6211	66.4342	36.6211	65.5076	36.6211	66.5258	36.6211	65.0934	36.6211	66.4836	36.6211	64.7352	36.6211	66.3058	36.6211	64.5369	36.6211	66.0062	36.6211	64.6024	36.6211	65.6275	36.6211	64.9872	36.6211	65.2637	36.6211	65.6633	36.6211	65.0746	36.6211	66.5377	36.6211	65.2449	36.6211	67.5025	36.6211	65.8627	36.6211	68.4693	36.6211	66.8352	36.6211	69.3775	36.6211	67.9658	36.6211	70.1878	36.6211	69.0783	36.6211	70.8739	36.6211	70.0634	36.6211	71.4165	36.6211	70.866	36.6211	71.7991	36.6211	71.4632	36.6211	72.0074	36.6211	71.8494	36.6211	72.028
38.0859	66.273	38.0859	65.9564	38.0859	66.5081	38.0859	65.6008	38.0859	66.636	38.0859	65.2715	38.0859	66.6439	38.0859	65.0574	38.0859	66.5327	38.0859	65.0557	38.0859	66.3223	38.0859	65.3361	38.0859	66.065	38.0859	65.903	38.0859	65.8606	38.0859	66.6937	38.0859	65.8559	38.0859	67.6142	38.0859	66.191	38.0859	68.5759	38.0859	66.903	38.0859	69.5129	38.0859	67.89	38.0859	70.3807	38.0859	68.9862	38.0859	71.1495	38.0859	70.0487	38.0859	71.798	38.0859	70.9871	38.0859	72.3093	38.0859	71.7533	38.0859	72.6683	38.0859	72.326	38.0859	72.861	38.0859	72.6991	38.0859	72.8749
39.5508	67.614	39.5508	67.3892	39.5508	67.7906	39.5508	67.1525	39.5508	67.8955	39.5508	66.9541	39.5508	67.9168	39.5508	66.855	39.5508	67.8556	39.5508	66.9165	39.5508	67.7306	39.5508	67.1804	39.5508	67.5857	39.5508	67.6518	39.5508	67.4974	39.5508	68.2965	39.5508	67.5683	39.5508	69.0563	39.5508	67.8916	39.5508	69.8685	39.5508	68.4958	39.5508	70.6789	39.5508	69.3201	39.5508	71.4453	39.5508	70.2503	39.5508	72.136	39.5508	71.1731	39.5508	72.7264	39.5508	72.0054	39.5508	73.1965	39.5508	72.6962	39.5508	73.529	39.5508	73.2186	39.5508	73.7086	39.5508	73.5611	39.5508	73.7226
41.0156	69.0579	41.0156	68.858	41.0156	69.2105	41.0156	68.6411	41.0156	69.2962	41.0156	68.449	41.0156	69.3053	41.0156	68.3331	41.0156	69.2394	41.0156	68.3473	41.0156	69.1151	41.0156	68.5338	41.0156	68.9712	41.0156	68.9078	41.0156	68.8739	41.0156	69.4505	41.0156	68.9125	41.0156	70.1172	41.0156	69.1719	41.0156	70.8524	41.0156	69.6868	41.0156	71.6032	41.0156	70.4149	41.0156	72.3258	41.0156	71.2593	41.0156	72.9854	41.0156	72.1144	41.0156	73.5546	41.0156	72.8971	41.0156	74.0112	41.0156	73.5531	41.0156	74.3365	41.0156	74.0518	41.0156	74.5144	41.0156	74.379	41.0156	74.5317
42.4805	70.0801	42.4805	69.9108	42.4805	70.2172	42.4805	69.7369	42.4805	70.3036	42.4805	69.595	42.4805	70.3299	42.4805	69.5275	42.4805	70.2976	42.4805	69.5763	42.4805	70.2222	42.4805	69.7727	42.4805	70.1374	42.4805	70.1265	42.4805	70.0988	42.4805	70.6229	42.4805	70.1782	42.4805	71.2269	42.4805	70.4418	42.4805	71.8944	42.4805	70.9171	42.4805	72.5808	42.4805	71.573	42.4805	73.2471	42.4805	72.3331	42.4805	73.8608	42.4805	73.1089	42.4805	74.3948	42.4805	73.8254	42.4805	74.8267	42.4805	74.43	42.4805	75.1372	42.4805	74.8913	42.4805	75.31	42.4805	75.1933	42.4805	75.3317
43.9453	71.306	43.9453	71.1489	43.9453	71.4271	43.9453	70.9794	43.9453	71.4971	43.9453	70.8282	43.9453	71.5085	43.9453	70.7327	43.9453	71.4634	43.9453	70.7321	43.9453	71.3766	43.9453	70.8596	43.9453	71.2791	43.9453	71.1329	43.9453	71.2216	43.9453	71.5475	43.9453	71.2694	43.9453	72.0781	43.9453	71.4852	43.9453	72.6859	43.9453	71.8988	43.9453	73.3276	43.9453	72.488	43.9453	73.9627	43.9453	73.1858	43.9453	74.5557	43.9453	73.9095	43.9453	75.0773	43.9453	74.5854	43.9453	75.5028	43.9453	75.1598	43.9453	75.8116	43.9453	75.5992	43.9453	75.9865	43.9453	75.886	43.9453	76.0142
45.4102	72.192	45.4102	72.0452	45.4102	72.3099	45.4102	71.8922	45.4102	72.3844	45.4102	71.7629	45.4102	72.409	45.4102	71.6933	45.4102	72.387	45.4102	71.7211	45.4102	72.3339	45.4102	71.877	45.4102	72.2802	45.4102	72.1765	45.4102	72.2733	45.4102	72.6135	45.4102	72.3711	45.4102	73.1617	45.4102	72.6256	45.4102	73.7823	45.4102	73.0588	45.4102	74.4326	45.4102	73.6475	45.4102	75.0724	45.4102	74.3314	45.4102	75.6672	45.4102	75.0361	45.4102	76.188	45.4102	75.6949	45.4102	76.6105	45.4102	76.2574	45.4102	76.9148	45.4102	76.6908	45.4102	77.0846	45.4102	76.9766	45.4102	77.1076
46.875	72.9489	46.875	72.8119	46.875	73.0703	46.875	72.6819	46.875	73.1604	46.875	72.5877	46.875	73.2117	46.875	72.561	46.875	73.2259	46.875	72.6321	46.875	73.2162	46.875	72.8232	46.875	73.2094	46.875	73.1418	46.875	73.2461	46.875	73.5781	46.875	73.3745	46.875	74.1074	46.875	73.6373	46.875	74.6957	46.875	74.0522	46.875	75.3067	46.875	74.6003	46.875	75.906	46.875	75.2316	46.875	76.4629	46.875	75.8826	46.875	76.9509	46.875	76.4934	46.875	77.3474	46.875	77.0173	46.875	77.6332	46.875	77.4227	46.875	77.7927	46.875	77.6909	46.875	77.8142
48.3398	73.8116	48.3398	73.7068	48.3398	73.907	48.3398	73.6105	48.3398	73.9807	48.3398	73.5448	48.3398	74.0268	48.3398	73.5345	48.3398	74.0473	48.3398	73.6037	48.3398	74.0536	48.3398	73.7711	48.3398	74.0683	48.3398	74.045	48.3398	74.1251	48.3398	74.4209	48.3398	74.2635	48.3398	74.8817	48.3398	74.518	48.3398	75.4013	48.3398	74.9028	48.3398	75.9491	48.3398	75.4026	48.3398	76.4943	48.3398	75.9758	48.3398	77.008	48.3398	76.5673	48.3398	77.4642	48.3398	77.1234	48.3398	77.8403	48.3398	77.6003	48.3398	78.1166	48.3398	77.9673	48.3398	78.277	48.3398	78.2062	48.3398	78.3093
51.2695	75.6627	51.2695	75.5626	51.2695	75.7533	51.2695	75.4669	51.2695	75.8249	51.2695	75.3936	51.2695	75.8735	51.2695	75.3629	51.2695	75.9011	51.2695	75.3951	51.2695	75.9171	51.2695	75.5074	51.2695	75.9396	51.2695	75.7098	51.2695	75.9942	51.2695	76.0025	51.2695	76.1112	51.2695	76.3754	51.2695	76.3178	51.2695	76.8095	51.2695	76.6275	51.2695	77.2801	51.2695	77.0327	51.2695	77.7602	51.2695	77.5041	51.2695	78.2227	51.2695	77.9988	51.2695	78.6422	51.2695	78.4705	51.2695	78.9952	51.2695	78.8786	51.2695	79.2615	51.2695	79.1926	51.2695	79.424	51.2695	79.3928	51.2695	79.47
52.7344	76.5893	52.7344	76.5053	52.7344	76.661	52.7344	76.4214	52.7344	76.7123	52.7344	76.3534	52.7344	76.7402	52.7344	76.3199	52.7344	76.7473	52.7344	76.3398	52.7344	76.7434	52.7344	76.4296	52.7344	76.7458	52.7344	76.6003	52.7344	76.779	52.7344	76.8546	52.7344	76.8715	52.7344	77.1853	52.7344	77.0489	52.7344	77.5767	52.7344	77.3248	52.7344	78.0065	52.7344	77.6935	52.7344	78.4492	52.7344	78.1291	52.7344	78.8783	52.7344	78.592	52.7344	79.2682	52.7344	79.0387	52.7344	79.5955	52.7344	79.4299	52.7344	79.8399	52.7344	79.7352	52.7344	79.9848	52.7344	79.9347	52.7344	80.0183
54.1992	77.3107	54.1992	77.2296	54.1992	77.3763	54.1992	77.1447	54.1992	77.4199	54.1992	77.0723	54.1992	77.4402	54.1992	77.0323	54.1992	77.4423	54.1992	77.0459	54.1992	77.4385	54.1992	77.1324	54.1992	77.4481	54.1992	77.3055	54.1992	77.4968	54.1992	77.5692	54.1992	77.6129	54.1992	77.9162	54.1992	77.8197	54.1992	78.3293	54.1992	78.1271	54.1992	78.7838	54.1992	78.5253	54.1992	79.2517	54.1992	78.9856	54.1992	79.7047	54.1992	79.4673	54.1992	80.1158	54.1992	79.927	54.1992	80.4611	54.1992	80.3263	54.1992	80.7198	54.1992	80.6357	54.1992	80.8754	54.1992	80.8355	54.1992	80.9159
55.6641	77.549	55.6641	77.4556	55.6641	77.6425	55.6641	77.3746	55.6641	77.7293	55.6641	77.3231	55.6641	77.8081	55.6641	77.3205	55.6641	77.8836	55.6641	77.3866	55.6641	77.9666	55.6641	77.537	55.6641	78.073	55.6641	77.7796	55.6641	78.222	55.6641	78.1121	55.6641	78.433	55.6641	78.5218	55.6641	78.7194	55.6641	78.9879	55.6641	79.0833	55.6641	79.485	55.6641	79.5122	55.6641	79.9864	55.6641	79.9798	55.6641	80.466	55.6641	80.4518	55.6641	80.8995	55.6641	80.8916	55.6641	81.265	55.6641	81.2663	55.6641	81.5435	55.6641	81.5499	55.6641	81.7195	55.6641	81.7248	55.6641	81.7817
58.5938	78.5824	58.5938	78.5228	58.5938	78.6619	58.5938	78.4921	58.5938	78.7549	58.5938	78.5007	58.5938	78.858	58.5938	78.559	58.5938	78.9716	58.5938	78.6757	58.5938	79.0999	58.5938	78.8563	58.5938	79.2506	58.5938	79.1018	58.5938	79.4338	58.5938	79.4079	58.5938	79.6598	58.5938	79.7652	58.5938	79.9359	58.5938	80.16	58.5938	80.2626	58.5938	80.5756	58.5938	80.6315	58.5938	80.9936	58.5938	81.0249	58.5938	81.3946	58.5938	81.4183	58.5938	81.7596	58.5938	81.7841	58.5938	82.0699	58.5938	82.0958	58.5938	82.3087	58.5938	82.3314	58.5938	82.462	58.5938	82.4753	58.5938	82.5192
60.0586	79.2635	60.0586	79.2167	60.0586	79.3317	60.0586	79.1978	60.0586	79.4162	60.0586	79.2141	60.0586	79.5142	60.0586	79.273	60.0586	79.6254	60.0586	79.3805	60.0586	79.7522	60.0586	79.5407	60.0586	79.8998	60.0586	79.7543	60.0586	80.0753	60.0586	80.0187	60.0586	80.2862	60.0586	80.3271	60.0586	80.5376	60.0586	80.6696	60.0586	80.8301	60.0586	81.033	60.0586	81.1569	60.0586	81.4021	60.0586	81.5037	60.0586	81.7602	60.0586	81.8498	60.0586	82.0898	60.0586	82.1713	60.0586	82.3737	60.0586	82.4444	60.0586	82.5957	60.0586	82.6491	60.0586	82.7419	60.0586	82.7709	60.0586	82.8021
62.9883	80.5446	62.9883	80.5008	62.9883	80.6081	62.9883	80.4815	62.9883	80.6878	62.9883	80.4921	62.9883	80.7814	62.9883	80.5382	62.9883	80.8885	62.9883	80.6247	62.9883	81.0104	62.9883	80.755	62.9883	81.1502	62.9883	80.9308	62.9883	81.3122	62.9883	81.1506	62.9883	81.501	62.9883	81.41	62.9883	81.7199	62.9883	81.7014	62.9883	81.9692	62.9883	82.0146	62.9883	82.2441	62.9883	82.3364	62.9883	82.5338	62.9883	82.6523	62.9883	82.8224	62.9883	82.9463	62.9883	83.0905	62.9883	83.2025	62.9883	83.3182	62.9883	83.4056	62.9883	83.4876	62.9883	83.5426	62.9883	83.5854	62.9883	83.6041
64.4531	81.0993	64.4531	81.0567	64.4531	81.1622	64.4531	81.0386	64.4531	81.2423	64.4531	81.0492	64.4531	81.3375	64.4531	81.093	64.4531	81.4471	64.4531	81.1741	64.4531	81.5716	64.4531	81.2953	64.4531	81.7128	64.4531	81.4579	64.4531	81.8738	64.4531	81.6606	64.4531	82.0577	64.4531	81.9	64.4531	82.2669	64.4531	82.1697	64.4531	82.5009	64.4531	82.4607	64.4531	82.7555	64.4531	82.7614	64.4531	83.0215	64.4531	83.0584	64.4531	83.2849	64.4531	83.3369	64.4531	83.5285	64.4531	83.5818	64.4531	83.734	64.4531	83.7783	64.4531	83.8849	64.4531	83.9137	64.4531	83.9689	64.4531	83.9788
67.3828	82.0124	67.3828	81.9763	67.3828	82.0705	67.3828	81.9646	67.3828	82.1483	67.3828	81.9799	67.3828	82.2442	67.3828	82.0249	67.3828	82.3571	67.3828	82.1019	67.3828	82.4865	67.3828	82.2124	67.3828	82.6327	67.3828	82.3571	67.3828	82.7962	67.3828	82.5351	67.3828	82.9775	67.3828	82.744	67.3828	83.1767	67.3828	82.9789	67.3828	83.392	67.3828	83.2332	67.3828	83.619	67.3828	83.4978	67.3828	83.8501	67.3828	83.7617	67.3828	84.0743	67.3828	84.0121	67.3828	84.2779	67.3828	84.2356	67.3828	84.4461	67.3828	84.4189	67.3828	84.5655	67.3828	84.5502	67.3828	84.6256	67.3828	84.6207
