"SPL Horizontal"
"On-Axis"		"10°"		"-10°"		"20°"		"-20°"		"30°"		"-30°"		"40°"		"-40°"		"50°"		"-50°"		"60°"		"-60°"		"70°"		"-70°"		"80°"		"-80°"		"90°"		"-90°"		"100°"		"-100°"		"110°"		"-110°"		"120°"		"-120°"		"130°"		"-130°"		"140°"		"-140°"		"150°"		"-150°"		"160°"		"-160°"		"170°"		"-170°"		"180°"
"Frequency / Hz"	"Sound Pressure Level / dB (re 20 µPa/V)  [2.83  V @ 1. m]"	"Frequency / Hz"	"Sound Pressure Level / dB (re 20 µPa/V)  [2.83  V @ 1. m]"	"Frequency / Hz"	"Sound Pressure Level / dB (re 20 µPa/V)  [2.83  V @ 1. m]"	"Frequency / Hz"	"Sound Pressure Level / dB (re 20 µPa/V)  [2.83  V @ 1. m]"	"Frequency / Hz"	"Sound Pressure Level / dB (re 20 µPa/V)  [2.83  V @ 1. m]"	"Frequency / Hz"	"Sound Pressure Level / dB (re 20 µPa/V)  [2.83  V @ 1. m]"	"Frequency / Hz"	"Sound Pressure Level / dB (re 20 µPa/V)  [2.83  V @ 1. m]"	"Frequency / Hz"	"Sound Pressure Level / dB (re 20 µPa/V)  [2.83  V @ 1. m]"	"Frequency / Hz"	"Sound Pressure Level / dB (re 20 µPa/V)  [2.83  V @ 1. m]"	"Frequency / Hz"	"Sound Pressure Level / dB (re 20 µPa/V)  [2.83  V @ 1. m]"	"Frequency / Hz"	"Sound Pressure Level / dB (re 20 µPa/V)  [2.83  V @ 1. m]"	"Frequency / Hz"	"Sound Pressure Level / dB (re 20 µPa/V)  [2.83  V @ 1. m]"	"Frequency / Hz"	"Sound Pressure Level / dB (re 20 µPa/V)  [2.83  V @ 1. m]"	"Frequency / Hz"	"Sound Pressure Level / dB (re 20 µPa/V)  [2.83  V @ 1. m]"	"Frequency / Hz"	"Sound Pressure Level / dB (re 20 µPa/V)  [2.83  V @ 1. m]"	"Frequency / Hz"	"Sound Pressure Level / dB (re 20 µPa/V)  [2.83  V @ 1. m]"	"Frequency / Hz"	"Sound Pressure Level / dB (re 20 µPa/V)  [2.83  V @ 1. m]"	"Frequency / Hz"	"Sound Pressure Level / dB (re 20 µPa/V)  [2.83  V @ 1. m]"	"Frequency / Hz"	"Sound Pressure Level / dB (re 20 µPa/V)  [2.83  V @ 1. m]"	"Frequency / Hz"	"Sound Pressure Level / dB (re 20 µPa/V)  [2.83  V @ 1. m]"	"Frequency / Hz"	"Sound Pressure Level / dB (re 20 µPa/V)  [2.83  V @ 1. m]"	"Frequency / Hz"	"Sound Pressure Level / dB (re 20 µPa/V)  [2.83  V @ 1. m]"	"Frequency / Hz"	"Sound Pressure Level / dB (re 20 µPa/V)  [2.83  V @ 1. m]"	"Frequency / Hz"	"Sound Pressure Level / dB (re 20 µPa/V)  [2.83  V @ 1. m]"	"Frequency / Hz"	"Sound Pressure Level / dB (re 20 µPa/V)  [2.83  V @ 1. m]"	"Frequency / Hz"	"Sound Pressure Level / dB (re 20 µPa/V)  [2.83  V @ 1. m]"	"Frequency / Hz"	"Sound Pressure Level / dB (re 20 µPa/V)  [2.83  V @ 1. m]"	"Frequency / Hz"	"Sound Pressure Level / dB (re 20 µPa/V)  [2.83  V @ 1. m]"	"Frequency / Hz"	"Sound Pressure Level / dB (re 20 µPa/V)  [2.83  V @ 1. m]"	"Frequency / Hz"	"Sound Pressure Level / dB (re 20 µPa/V)  [2.83  V @ 1. m]"	"Frequency / Hz"	"Sound Pressure Level / dB (re 20 µPa/V)  [2.83  V @ 1. m]"	"Frequency / Hz"	"Sound Pressure Level / dB (re 20 µPa/V)  [2.83  V @ 1. m]"	"Frequency / Hz"	"Sound Pressure Level / dB (re 20 µPa/V)  [2.83  V @ 1. m]"	"Frequency / Hz"	"Sound Pressure Level / dB (re 20 µPa/V)  [2.83  V @ 1. m]"	"Frequency / Hz"	"Sound Pressure Level / dB (re 20 µPa/V)  [2.83  V @ 1. m]"	"Frequency / Hz"	"Sound Pressure Level / dB (re 20 µPa/V)  [2.83  V @ 1. m]"
20.5078	75.5667	20.5078	75.5679	20.5078	75.5659	20.5078	75.5696	20.5078	75.5657	20.5078	75.5716	20.5078	75.566	20.5078	75.5737	20.5078	75.5667	20.5078	75.5757	20.5078	75.5676	20.5078	75.5775	20.5078	75.5686	20.5078	75.5789	20.5078	75.5695	20.5078	75.5798	20.5078	75.5701	20.5078	75.5801	20.5078	75.5704	20.5078	75.5798	20.5078	75.5701	20.5078	75.5789	20.5078	75.5695	20.5078	75.5775	20.5078	75.5686	20.5078	75.5757	20.5078	75.5676	20.5078	75.5737	20.5078	75.5667	20.5078	75.5716	20.5078	75.566	20.5078	75.5696	20.5078	75.5657	20.5078	75.5679	20.5078	75.5659	20.5078	75.5667
21.9727	77.0813	21.9727	77.0811	21.9727	77.082	21.9727	77.0815	21.9727	77.0833	21.9727	77.0823	21.9727	77.085	21.9727	77.0834	21.9727	77.0869	21.9727	77.0847	21.9727	77.089	21.9727	77.0859	21.9727	77.0909	21.9727	77.0868	21.9727	77.0924	21.9727	77.0875	21.9727	77.0934	21.9727	77.0877	21.9727	77.0938	21.9727	77.0875	21.9727	77.0934	21.9727	77.0868	21.9727	77.0924	21.9727	77.0859	21.9727	77.0909	21.9727	77.0847	21.9727	77.089	21.9727	77.0834	21.9727	77.0869	21.9727	77.0823	21.9727	77.085	21.9727	77.0815	21.9727	77.0833	21.9727	77.0811	21.9727	77.082	21.9727	77.0813
23.4375	78.1504	23.4375	78.1502	23.4375	78.151	23.4375	78.1505	23.4375	78.1521	23.4375	78.1512	23.4375	78.1536	23.4375	78.1522	23.4375	78.1553	23.4375	78.1533	23.4375	78.1571	23.4375	78.1544	23.4375	78.1587	23.4375	78.1553	23.4375	78.16	23.4375	78.1559	23.4375	78.1608	23.4375	78.1561	23.4375	78.1611	23.4375	78.1559	23.4375	78.1608	23.4375	78.1553	23.4375	78.16	23.4375	78.1544	23.4375	78.1587	23.4375	78.1533	23.4375	78.1571	23.4375	78.1522	23.4375	78.1553	23.4375	78.1512	23.4375	78.1536	23.4375	78.1505	23.4375	78.1521	23.4375	78.1502	23.4375	78.151	23.4375	78.1504
24.9023	79.2214	24.9023	79.2224	24.9023	79.221	24.9023	79.2238	24.9023	79.221	24.9023	79.2256	24.9023	79.2215	24.9023	79.2276	24.9023	79.2224	24.9023	79.2296	24.9023	79.2234	24.9023	79.2314	24.9023	79.2244	24.9023	79.2329	24.9023	79.2252	24.9023	79.2338	24.9023	79.2258	24.9023	79.2341	24.9023	79.226	24.9023	79.2338	24.9023	79.2258	24.9023	79.2329	24.9023	79.2252	24.9023	79.2314	24.9023	79.2244	24.9023	79.2296	24.9023	79.2234	24.9023	79.2276	24.9023	79.2224	24.9023	79.2256	24.9023	79.2215	24.9023	79.2238	24.9023	79.221	24.9023	79.2224	24.9023	79.221	24.9023	79.2214
26.3672	80.2193	26.3672	80.2207	26.3672	80.2183	26.3672	80.2227	26.3672	80.2178	26.3672	80.2249	26.3672	80.2177	26.3672	80.2273	26.3672	80.218	26.3672	80.2296	26.3672	80.2186	26.3672	80.2317	26.3672	80.2192	26.3672	80.2333	26.3672	80.2197	26.3672	80.2344	26.3672	80.2201	26.3672	80.2347	26.3672	80.2203	26.3672	80.2344	26.3672	80.2201	26.3672	80.2333	26.3672	80.2197	26.3672	80.2317	26.3672	80.2192	26.3672	80.2296	26.3672	80.2186	26.3672	80.2273	26.3672	80.218	26.3672	80.2249	26.3672	80.2177	26.3672	80.2227	26.3672	80.2178	26.3672	80.2207	26.3672	80.2183	26.3672	80.2193
27.832	81.1125	27.832	81.1148	27.832	81.1107	27.832	81.1176	27.832	81.1096	27.832	81.1207	27.832	81.109	27.832	81.124	27.832	81.1088	27.832	81.1272	27.832	81.109	27.832	81.1299	27.832	81.1093	27.832	81.1321	27.832	81.1096	27.832	81.1335	27.832	81.1099	27.832	81.134	27.832	81.11	27.832	81.1335	27.832	81.1099	27.832	81.1321	27.832	81.1096	27.832	81.1299	27.832	81.1093	27.832	81.1272	27.832	81.109	27.832	81.124	27.832	81.1088	27.832	81.1207	27.832	81.109	27.832	81.1176	27.832	81.1096	27.832	81.1148	27.832	81.1107	27.832	81.1125
29.2969	81.8565	29.2969	81.8574	29.2969	81.8558	29.2969	81.8586	29.2969	81.8554	29.2969	81.8599	29.2969	81.8553	29.2969	81.8613	29.2969	81.8554	29.2969	81.8625	29.2969	81.8557	29.2969	81.8636	29.2969	81.8561	29.2969	81.8644	29.2969	81.8565	29.2969	81.8649	29.2969	81.8568	29.2969	81.8651	29.2969	81.8568	29.2969	81.8649	29.2969	81.8568	29.2969	81.8644	29.2969	81.8565	29.2969	81.8636	29.2969	81.8561	29.2969	81.8625	29.2969	81.8557	29.2969	81.8613	29.2969	81.8554	29.2969	81.8599	29.2969	81.8553	29.2969	81.8586	29.2969	81.8554	29.2969	81.8574	29.2969	81.8558	29.2969	81.8565
30.7617	82.6882	30.7617	82.6879	30.7617	82.689	30.7617	82.688	30.7617	82.69	30.7617	82.6884	30.7617	82.6914	30.7617	82.6891	30.7617	82.6929	30.7617	82.6898	30.7617	82.6944	30.7617	82.6906	30.7617	82.6958	30.7617	82.6913	30.7617	82.697	30.7617	82.6917	30.7617	82.6977	30.7617	82.6919	30.7617	82.6979	30.7617	82.6917	30.7617	82.6977	30.7617	82.6913	30.7617	82.697	30.7617	82.6906	30.7617	82.6958	30.7617	82.6898	30.7617	82.6944	30.7617	82.6891	30.7617	82.6929	30.7617	82.6884	30.7617	82.6914	30.7617	82.688	30.7617	82.69	30.7617	82.6879	30.7617	82.689	30.7617	82.6882
32.2266	83.4173	32.2266	83.4188	32.2266	83.4162	32.2266	83.4205	32.2266	83.4155	32.2266	83.4225	32.2266	83.4152	32.2266	83.4245	32.2266	83.4151	32.2266	83.4265	32.2266	83.4153	32.2266	83.4282	32.2266	83.4156	32.2266	83.4295	32.2266	83.4158	32.2266	83.4304	32.2266	83.416	32.2266	83.4307	32.2266	83.4161	32.2266	83.4304	32.2266	83.416	32.2266	83.4295	32.2266	83.4158	32.2266	83.4282	32.2266	83.4156	32.2266	83.4265	32.2266	83.4153	32.2266	83.4245	32.2266	83.4151	32.2266	83.4225	32.2266	83.4152	32.2266	83.4205	32.2266	83.4155	32.2266	83.4188	32.2266	83.4162	32.2266	83.4173
33.6914	84.0107	33.6914	84.0106	33.6914	84.011	33.6914	84.011	33.6914	84.0118	33.6914	84.0116	33.6914	84.0127	33.6914	84.0124	33.6914	84.0139	33.6914	84.0133	33.6914	84.0151	33.6914	84.0141	33.6914	84.0162	33.6914	84.0148	33.6914	84.0171	33.6914	84.0153	33.6914	84.0177	33.6914	84.0154	33.6914	84.0179	33.6914	84.0153	33.6914	84.0177	33.6914	84.0148	33.6914	84.0171	33.6914	84.0141	33.6914	84.0162	33.6914	84.0133	33.6914	84.0151	33.6914	84.0124	33.6914	84.0139	33.6914	84.0116	33.6914	84.0127	33.6914	84.011	33.6914	84.0118	33.6914	84.0106	33.6914	84.011	33.6914	84.0107
35.1562	84.6341	35.1562	84.6334	35.1562	84.6351	35.1562	84.633	35.1562	84.6364	35.1562	84.6328	35.1562	84.6378	35.1562	84.6329	35.1562	84.6393	35.1562	84.6332	35.1562	84.6407	35.1562	84.6335	35.1562	84.642	35.1562	84.6338	35.1562	84.643	35.1562	84.634	35.1562	84.6436	35.1562	84.6341	35.1562	84.6438	35.1562	84.634	35.1562	84.6436	35.1562	84.6338	35.1562	84.643	35.1562	84.6335	35.1562	84.642	35.1562	84.6332	35.1562	84.6407	35.1562	84.6329	35.1562	84.6393	35.1562	84.6328	35.1562	84.6378	35.1562	84.633	35.1562	84.6364	35.1562	84.6334	35.1562	84.6351	35.1562	84.6341
36.6211	85.1882	36.6211	85.1876	36.6211	85.1891	36.6211	85.1872	36.6211	85.1901	36.6211	85.1869	36.6211	85.1912	36.6211	85.1869	36.6211	85.1923	36.6211	85.187	36.6211	85.1935	36.6211	85.1871	36.6211	85.1945	36.6211	85.1873	36.6211	85.1952	36.6211	85.1874	36.6211	85.1957	36.6211	85.1874	36.6211	85.1959	36.6211	85.1874	36.6211	85.1957	36.6211	85.1873	36.6211	85.1952	36.6211	85.1871	36.6211	85.1945	36.6211	85.187	36.6211	85.1935	36.6211	85.1869	36.6211	85.1923	36.6211	85.1869	36.6211	85.1912	36.6211	85.1872	36.6211	85.1901	36.6211	85.1876	36.6211	85.1891	36.6211	85.1882
38.0859	85.6345	38.0859	85.634	38.0859	85.635	38.0859	85.6336	38.0859	85.6356	38.0859	85.6333	38.0859	85.6362	38.0859	85.6331	38.0859	85.6368	38.0859	85.633	38.0859	85.6374	38.0859	85.6329	38.0859	85.638	38.0859	85.6328	38.0859	85.6384	38.0859	85.6328	38.0859	85.6386	38.0859	85.6328	38.0859	85.6387	38.0859	85.6328	38.0859	85.6386	38.0859	85.6328	38.0859	85.6384	38.0859	85.6329	38.0859	85.638	38.0859	85.633	38.0859	85.6374	38.0859	85.6331	38.0859	85.6368	38.0859	85.6333	38.0859	85.6362	38.0859	85.6336	38.0859	85.6356	38.0859	85.634	38.0859	85.635	38.0859	85.6345
39.5508	85.8527	39.5508	85.8531	39.5508	85.8525	39.5508	85.8537	39.5508	85.8525	39.5508	85.8545	39.5508	85.8527	39.5508	85.8552	39.5508	85.853	39.5508	85.856	39.5508	85.8535	39.5508	85.8567	39.5508	85.8539	39.5508	85.8573	39.5508	85.8543	39.5508	85.8577	39.5508	85.8545	39.5508	85.8578	39.5508	85.8546	39.5508	85.8577	39.5508	85.8545	39.5508	85.8573	39.5508	85.8543	39.5508	85.8567	39.5508	85.8539	39.5508	85.856	39.5508	85.8535	39.5508	85.8552	39.5508	85.853	39.5508	85.8545	39.5508	85.8527	39.5508	85.8537	39.5508	85.8525	39.5508	85.8531	39.5508	85.8525	39.5508	85.8527
41.0156	86.0679	41.0156	86.0693	41.0156	86.0666	41.0156	86.0709	41.0156	86.0655	41.0156	86.0725	41.0156	86.0646	41.0156	86.074	41.0156	86.0639	41.0156	86.0754	41.0156	86.0634	41.0156	86.0765	41.0156	86.0631	41.0156	86.0774	41.0156	86.0629	41.0156	86.0779	41.0156	86.0627	41.0156	86.0781	41.0156	86.0627	41.0156	86.0779	41.0156	86.0627	41.0156	86.0774	41.0156	86.0629	41.0156	86.0765	41.0156	86.0631	41.0156	86.0754	41.0156	86.0634	41.0156	86.074	41.0156	86.0639	41.0156	86.0725	41.0156	86.0646	41.0156	86.0709	41.0156	86.0655	41.0156	86.0693	41.0156	86.0666	41.0156	86.0679
42.4805	86.3959	42.4805	86.3958	42.4805	86.396	42.4805	86.3958	42.4805	86.3963	42.4805	86.3959	42.4805	86.3966	42.4805	86.3961	42.4805	86.3969	42.4805	86.3962	42.4805	86.3973	42.4805	86.3964	42.4805	86.3976	42.4805	86.3966	42.4805	86.3978	42.4805	86.3967	42.4805	86.398	42.4805	86.3967	42.4805	86.3981	42.4805	86.3967	42.4805	86.398	42.4805	86.3966	42.4805	86.3978	42.4805	86.3964	42.4805	86.3976	42.4805	86.3962	42.4805	86.3973	42.4805	86.3961	42.4805	86.3969	42.4805	86.3959	42.4805	86.3966	42.4805	86.3958	42.4805	86.3963	42.4805	86.3958	42.4805	86.396	42.4805	86.3959
43.9453	86.6685	43.9453	86.6663	43.9453	86.6706	43.9453	86.6641	43.9453	86.6726	43.9453	86.662	43.9453	86.6744	43.9453	86.66	43.9453	86.6759	43.9453	86.6583	43.9453	86.6771	43.9453	86.6569	43.9453	86.6781	43.9453	86.6559	43.9453	86.6788	43.9453	86.6552	43.9453	86.6792	43.9453	86.655	43.9453	86.6794	43.9453	86.6552	43.9453	86.6792	43.9453	86.6559	43.9453	86.6788	43.9453	86.6569	43.9453	86.6781	43.9453	86.6583	43.9453	86.6771	43.9453	86.66	43.9453	86.6759	43.9453	86.662	43.9453	86.6744	43.9453	86.6641	43.9453	86.6726	43.9453	86.6663	43.9453	86.6706	43.9453	86.6685
45.4102	86.7808	45.4102	86.7771	45.4102	86.7843	45.4102	86.7734	45.4102	86.7875	45.4102	86.7697	45.4102	86.7905	45.4102	86.7663	45.4102	86.793	45.4102	86.7632	45.4102	86.7951	45.4102	86.7607	45.4102	86.7968	45.4102	86.7588	45.4102	86.7979	45.4102	86.7576	45.4102	86.7987	45.4102	86.7572	45.4102	86.7989	45.4102	86.7576	45.4102	86.7987	45.4102	86.7588	45.4102	86.7979	45.4102	86.7607	45.4102	86.7968	45.4102	86.7632	45.4102	86.7951	45.4102	86.7663	45.4102	86.793	45.4102	86.7697	45.4102	86.7905	45.4102	86.7734	45.4102	86.7875	45.4102	86.7771	45.4102	86.7843	45.4102	86.7808
46.875	86.8511	46.875	86.845	46.875	86.8563	46.875	86.8382	46.875	86.8605	46.875	86.831	46.875	86.8638	46.875	86.8238	46.875	86.8661	46.875	86.817	46.875	86.8677	46.875	86.8111	46.875	86.8686	46.875	86.8066	46.875	86.8691	46.875	86.8036	46.875	86.8693	46.875	86.8026	46.875	86.8694	46.875	86.8036	46.875	86.8693	46.875	86.8066	46.875	86.8691	46.875	86.8111	46.875	86.8686	46.875	86.817	46.875	86.8677	46.875	86.8238	46.875	86.8661	46.875	86.831	46.875	86.8638	46.875	86.8382	46.875	86.8605	46.875	86.845	46.875	86.8563	46.875	86.8511
48.3398	86.6024	48.3398	86.6008	48.3398	86.603	48.3398	86.5984	48.3398	86.6028	48.3398	86.5953	48.3398	86.6018	48.3398	86.5917	48.3398	86.6003	48.3398	86.5881	48.3398	86.5985	48.3398	86.5846	48.3398	86.5967	48.3398	86.5819	48.3398	86.5951	48.3398	86.5801	48.3398	86.5941	48.3398	86.5795	48.3398	86.5937	48.3398	86.5801	48.3398	86.5941	48.3398	86.5819	48.3398	86.5951	48.3398	86.5846	48.3398	86.5967	48.3398	86.5881	48.3398	86.5985	48.3398	86.5917	48.3398	86.6003	48.3398	86.5953	48.3398	86.6018	48.3398	86.5984	48.3398	86.6028	48.3398	86.6008	48.3398	86.603	48.3398	86.6024
51.2695	86.9775	51.2695	86.9782	51.2695	86.9768	51.2695	86.979	51.2695	86.9761	51.2695	86.9797	51.2695	86.9754	51.2695	86.9804	51.2695	86.9748	51.2695	86.9811	51.2695	86.9743	51.2695	86.9816	51.2695	86.9739	51.2695	86.982	51.2695	86.9735	51.2695	86.9822	51.2695	86.9733	51.2695	86.9823	51.2695	86.9733	51.2695	86.9822	51.2695	86.9733	51.2695	86.982	51.2695	86.9735	51.2695	86.9816	51.2695	86.9739	51.2695	86.9811	51.2695	86.9743	51.2695	86.9804	51.2695	86.9748	51.2695	86.9797	51.2695	86.9754	51.2695	86.979	51.2695	86.9761	51.2695	86.9782	51.2695	86.9768	51.2695	86.9775
52.7344	87.0507	52.7344	87.0519	52.7344	87.0495	52.7344	87.053	52.7344	87.0483	52.7344	87.0539	52.7344	87.0471	52.7344	87.0548	52.7344	87.046	52.7344	87.0554	52.7344	87.0451	52.7344	87.056	52.7344	87.0443	52.7344	87.0563	52.7344	87.0438	52.7344	87.0565	52.7344	87.0434	52.7344	87.0566	52.7344	87.0433	52.7344	87.0565	52.7344	87.0434	52.7344	87.0563	52.7344	87.0438	52.7344	87.056	52.7344	87.0443	52.7344	87.0554	52.7344	87.0451	52.7344	87.0548	52.7344	87.046	52.7344	87.0539	52.7344	87.0471	52.7344	87.053	52.7344	87.0483	52.7344	87.0519	52.7344	87.0495	52.7344	87.0507
54.1992	87.1206	54.1992	87.1225	54.1992	87.1186	54.1992	87.1242	54.1992	87.1165	54.1992	87.1256	54.1992	87.1144	54.1992	87.1269	54.1992	87.1124	54.1992	87.1278	54.1992	87.1106	54.1992	87.1286	54.1992	87.1091	54.1992	87.1291	54.1992	87.1079	54.1992	87.1294	54.1992	87.1072	54.1992	87.1295	54.1992	87.107	54.1992	87.1294	54.1992	87.1072	54.1992	87.1291	54.1992	87.1079	54.1992	87.1286	54.1992	87.1091	54.1992	87.1278	54.1992	87.1106	54.1992	87.1269	54.1992	87.1124	54.1992	87.1256	54.1992	87.1144	54.1992	87.1242	54.1992	87.1165	54.1992	87.1225	54.1992	87.1186	54.1992	87.1206
55.6641	87.3051	55.6641	87.3092	55.6641	87.3009	55.6641	87.3128	55.6641	87.2966	55.6641	87.3161	55.6641	87.2924	55.6641	87.3189	55.6641	87.2885	55.6641	87.3212	55.6641	87.285	55.6641	87.323	55.6641	87.282	55.6641	87.3242	55.6641	87.2798	55.6641	87.325	55.6641	87.2785	55.6641	87.3252	55.6641	87.278	55.6641	87.325	55.6641	87.2785	55.6641	87.3242	55.6641	87.2798	55.6641	87.323	55.6641	87.282	55.6641	87.3212	55.6641	87.285	55.6641	87.3189	55.6641	87.2885	55.6641	87.3161	55.6641	87.2924	55.6641	87.3128	55.6641	87.2966	55.6641	87.3092	55.6641	87.3009	55.6641	87.3051
58.5938	87.1429	58.5938	87.1426	58.5938	87.1429	58.5938	87.1422	58.5938	87.1427	58.5938	87.1416	58.5938	87.1423	58.5938	87.141	58.5938	87.1418	58.5938	87.1403	58.5938	87.1412	58.5938	87.1396	58.5938	87.1407	58.5938	87.1391	58.5938	87.1403	58.5938	87.1388	58.5938	87.14	58.5938	87.1387	58.5938	87.1399	58.5938	87.1388	58.5938	87.14	58.5938	87.1391	58.5938	87.1403	58.5938	87.1396	58.5938	87.1407	58.5938	87.1403	58.5938	87.1412	58.5938	87.141	58.5938	87.1418	58.5938	87.1416	58.5938	87.1423	58.5938	87.1422	58.5938	87.1427	58.5938	87.1426	58.5938	87.1429	58.5938	87.1429
60.0586	87.1326	60.0586	87.1282	60.0586	87.1368	60.0586	87.1236	60.0586	87.1407	60.0586	87.1192	60.0586	87.1442	60.0586	87.1151	60.0586	87.1472	60.0586	87.1114	60.0586	87.1497	60.0586	87.1084	60.0586	87.1516	60.0586	87.1061	60.0586	87.1529	60.0586	87.1047	60.0586	87.1537	60.0586	87.1042	60.0586	87.154	60.0586	87.1047	60.0586	87.1537	60.0586	87.1061	60.0586	87.1529	60.0586	87.1084	60.0586	87.1516	60.0586	87.1114	60.0586	87.1497	60.0586	87.1151	60.0586	87.1472	60.0586	87.1192	60.0586	87.1442	60.0586	87.1236	60.0586	87.1407	60.0586	87.1282	60.0586	87.1368	60.0586	87.1326
62.9883	86.8154	62.9883	86.8105	62.9883	86.82	62.9883	86.8054	62.9883	86.8241	62.9883	86.8003	62.9883	86.8276	62.9883	86.7953	62.9883	86.8306	62.9883	86.7909	62.9883	86.833	62.9883	86.7871	62.9883	86.8349	62.9883	86.7842	62.9883	86.8362	62.9883	86.7824	62.9883	86.8369	62.9883	86.7818	62.9883	86.8372	62.9883	86.7824	62.9883	86.8369	62.9883	86.7842	62.9883	86.8362	62.9883	86.7871	62.9883	86.8349	62.9883	86.7909	62.9883	86.833	62.9883	86.7953	62.9883	86.8306	62.9883	86.8003	62.9883	86.8276	62.9883	86.8054	62.9883	86.8241	62.9883	86.8105	62.9883	86.82	62.9883	86.8154
64.4531	86.6823	64.4531	86.6819	64.4531	86.6825	64.4531	86.6811	64.4531	86.6823	64.4531	86.6801	64.4531	86.6817	64.4531	86.6789	64.4531	86.681	64.4531	86.6778	64.4531	86.6801	64.4531	86.6768	64.4531	86.6793	64.4531	86.6759	64.4531	86.6786	64.4531	86.6754	64.4531	86.6781	64.4531	86.6753	64.4531	86.6779	64.4531	86.6754	64.4531	86.6781	64.4531	86.6759	64.4531	86.6786	64.4531	86.6768	64.4531	86.6793	64.4531	86.6778	64.4531	86.6801	64.4531	86.6789	64.4531	86.681	64.4531	86.6801	64.4531	86.6817	64.4531	86.6811	64.4531	86.6823	64.4531	86.6819	64.4531	86.6825	64.4531	86.6823
67.3828	86.8622	67.3828	86.8671	67.3828	86.8571	67.3828	86.8717	67.3828	86.8521	67.3828	86.8759	67.3828	86.8472	67.3828	86.8797	67.3828	86.8427	67.3828	86.8828	67.3828	86.8386	67.3828	86.8854	67.3828	86.8353	67.3828	86.8872	67.3828	86.8328	67.3828	86.8883	67.3828	86.8313	67.3828	86.8887	67.3828	86.8307	67.3828	86.8883	67.3828	86.8313	67.3828	86.8872	67.3828	86.8328	67.3828	86.8854	67.3828	86.8353	67.3828	86.8828	67.3828	86.8386	67.3828	86.8797	67.3828	86.8427	67.3828	86.8759	67.3828	86.8472	67.3828	86.8717	67.3828	86.8521	67.3828	86.8671	67.3828	86.8571	67.3828	86.8622
