"SPL Vertical"
"On-Axis"		"10°"		"-10°"		"20°"		"-20°"		"30°"		"-30°"		"40°"		"-40°"		"50°"		"-50°"		"60°"		"-60°"		"70°"		"-70°"		"80°"		"-80°"		"90°"		"-90°"		"100°"		"-100°"		"110°"		"-110°"		"120°"		"-120°"		"130°"		"-130°"		"140°"		"-140°"		"150°"		"-150°"		"160°"		"-160°"		"170°"		"-170°"		"180°"
"Frequency / Hz"	"Sound Pressure Level / dB (re 20 µPa/V)  [2.83  V @ 1. m]"	"Frequency / Hz"	"Sound Pressure Level / dB (re 20 µPa/V)  [2.83  V @ 1. m]"	"Frequency / Hz"	"Sound Pressure Level / dB (re 20 µPa/V)  [2.83  V @ 1. m]"	"Frequency / Hz"	"Sound Pressure Level / dB (re 20 µPa/V)  [2.83  V @ 1. m]"	"Frequency / Hz"	"Sound Pressure Level / dB (re 20 µPa/V)  [2.83  V @ 1. m]"	"Frequency / Hz"	"Sound Pressure Level / dB (re 20 µPa/V)  [2.83  V @ 1. m]"	"Frequency / Hz"	"Sound Pressure Level / dB (re 20 µPa/V)  [2.83  V @ 1. m]"	"Frequency / Hz"	"Sound Pressure Level / dB (re 20 µPa/V)  [2.83  V @ 1. m]"	"Frequency / Hz"	"Sound Pressure Level / dB (re 20 µPa/V)  [2.83  V @ 1. m]"	"Frequency / Hz"	"Sound Pressure Level / dB (re 20 µPa/V)  [2.83  V @ 1. m]"	"Frequency / Hz"	"Sound Pressure Level / dB (re 20 µPa/V)  [2.83  V @ 1. m]"	"Frequency / Hz"	"Sound Pressure Level / dB (re 20 µPa/V)  [2.83  V @ 1. m]"	"Frequency / Hz"	"Sound Pressure Level / dB (re 20 µPa/V)  [2.83  V @ 1. m]"	"Frequency / Hz"	"Sound Pressure Level / dB (re 20 µPa/V)  [2.83  V @ 1. m]"	"Frequency / Hz"	"Sound Pressure Level / dB (re 20 µPa/V)  [2.83  V @ 1. m]"	"Frequency / Hz"	"Sound Pressure Level / dB (re 20 µPa/V)  [2.83  V @ 1. m]"	"Frequency / Hz"	"Sound Pressure Level / dB (re 20 µPa/V)  [2.83  V @ 1. m]"	"Frequency / Hz"	"Sound Pressure Level / dB (re 20 µPa/V)  [2.83  V @ 1. m]"	"Frequency / Hz"	"Sound Pressure Level / dB (re 20 µPa/V)  [2.83  V @ 1. m]"	"Frequency / Hz"	"Sound Pressure Level / dB (re 20 µPa/V)  [2.83  V @ 1. m]"	"Frequency / Hz"	"Sound Pressure Level / dB (re 20 µPa/V)  [2.83  V @ 1. m]"	"Frequency / Hz"	"Sound Pressure Level / dB (re 20 µPa/V)  [2.83  V @ 1. m]"	"Frequency / Hz"	"Sound Pressure Level / dB (re 20 µPa/V)  [2.83  V @ 1. m]"	"Frequency / Hz"	"Sound Pressure Level / dB (re 20 µPa/V)  [2.83  V @ 1. m]"	"Frequency / Hz"	"Sound Pressure Level / dB (re 20 µPa/V)  [2.83  V @ 1. m]"	"Frequency / Hz"	"Sound Pressure Level / dB (re 20 µPa/V)  [2.83  V @ 1. m]"	"Frequency / Hz"	"Sound Pressure Level / dB (re 20 µPa/V)  [2.83  V @ 1. m]"	"Frequency / Hz"	"Sound Pressure Level / dB (re 20 µPa/V)  [2.83  V @ 1. m]"	"Frequency / Hz"	"Sound Pressure Level / dB (re 20 µPa/V)  [2.83  V @ 1. m]"	"Frequency / Hz"	"Sound Pressure Level / dB (re 20 µPa/V)  [2.83  V @ 1. m]"	"Frequency / Hz"	"Sound Pressure Level / dB (re 20 µPa/V)  [2.83  V @ 1. m]"	"Frequency / Hz"	"Sound Pressure Level / dB (re 20 µPa/V)  [2.83  V @ 1. m]"	"Frequency / Hz"	"Sound Pressure Level / dB (re 20 µPa/V)  [2.83  V @ 1. m]"	"Frequency / Hz"	"Sound Pressure Level / dB (re 20 µPa/V)  [2.83  V @ 1. m]"	"Frequency / Hz"	"Sound Pressure Level / dB (re 20 µPa/V)  [2.83  V @ 1. m]"	"Frequency / Hz"	"Sound Pressure Level / dB (re 20 µPa/V)  [2.83  V @ 1. m]"
20.5078	75.5667	20.5078	75.4979	20.5078	75.6368	20.5078	75.4323	20.5078	75.7061	20.5078	75.3717	20.5078	75.7725	20.5078	75.3177	20.5078	75.8337	20.5078	75.2716	20.5078	75.8875	20.5078	75.2345	20.5078	75.9319	20.5078	75.2073	20.5078	75.9649	20.5078	75.1908	20.5078	75.9854	20.5078	75.1852	20.5078	75.9923	20.5078	75.1908	20.5078	75.9854	20.5078	75.2073	20.5078	75.9649	20.5078	75.2345	20.5078	75.9319	20.5078	75.2716	20.5078	75.8875	20.5078	75.3177	20.5078	75.8337	20.5078	75.3717	20.5078	75.7725	20.5078	75.4323	20.5078	75.7061	20.5078	75.4979	20.5078	75.6368	20.5078	75.5667
21.9727	77.0813	21.9727	77.0125	21.9727	77.1513	21.9727	76.947	21.9727	77.2205	21.9727	76.8864	21.9727	77.2868	21.9727	76.8323	21.9727	77.3478	21.9727	76.7861	21.9727	77.4015	21.9727	76.7489	21.9727	77.4456	21.9727	76.7217	21.9727	77.4786	21.9727	76.7051	21.9727	77.4989	21.9727	76.6995	21.9727	77.5058	21.9727	76.7051	21.9727	77.4989	21.9727	76.7217	21.9727	77.4786	21.9727	76.7489	21.9727	77.4456	21.9727	76.7861	21.9727	77.4015	21.9727	76.8323	21.9727	77.3478	21.9727	76.8864	21.9727	77.2868	21.9727	76.947	21.9727	77.2205	21.9727	77.0125	21.9727	77.1513	21.9727	77.0813
23.4375	78.1504	23.4375	78.0823	23.4375	78.2198	23.4375	78.0176	23.4375	78.2885	23.4375	77.9578	23.4375	78.3543	23.4375	77.9046	23.4375	78.415	23.4375	77.8591	23.4375	78.4684	23.4375	77.8226	23.4375	78.5124	23.4375	77.7959	23.4375	78.5452	23.4375	77.7796	23.4375	78.5655	23.4375	77.7741	23.4375	78.5723	23.4375	77.7796	23.4375	78.5655	23.4375	77.7959	23.4375	78.5452	23.4375	77.8226	23.4375	78.5124	23.4375	77.8591	23.4375	78.4684	23.4375	77.9046	23.4375	78.415	23.4375	77.9578	23.4375	78.3543	23.4375	78.0176	23.4375	78.2885	23.4375	78.0823	23.4375	78.2198	23.4375	78.1504
24.9023	79.2214	24.9023	79.1548	24.9023	79.2894	24.9023	79.0914	24.9023	79.3566	24.9023	79.0328	24.9023	79.421	24.9023	78.9807	24.9023	79.4803	24.9023	78.9362	24.9023	79.5324	24.9023	78.9005	24.9023	79.5754	24.9023	78.8743	24.9023	79.6074	24.9023	78.8584	24.9023	79.6272	24.9023	78.853	24.9023	79.6339	24.9023	78.8584	24.9023	79.6272	24.9023	78.8743	24.9023	79.6074	24.9023	78.9005	24.9023	79.5754	24.9023	78.9362	24.9023	79.5324	24.9023	78.9807	24.9023	79.4803	24.9023	79.0328	24.9023	79.421	24.9023	79.0914	24.9023	79.3566	24.9023	79.1548	24.9023	79.2894	24.9023	79.2214
26.3672	80.2193	26.3672	80.1532	26.3672	80.2866	26.3672	80.0903	26.3672	80.3532	26.3672	80.0323	26.3672	80.4169	26.3672	79.9805	26.3672	80.4756	26.3672	79.9363	26.3672	80.5272	26.3672	79.9008	26.3672	80.5697	26.3672	79.8749	26.3672	80.6014	26.3672	79.859	26.3672	80.621	26.3672	79.8537	26.3672	80.6276	26.3672	79.859	26.3672	80.621	26.3672	79.8749	26.3672	80.6014	26.3672	79.9008	26.3672	80.5697	26.3672	79.9363	26.3672	80.5272	26.3672	79.9805	26.3672	80.4756	26.3672	80.0323	26.3672	80.4169	26.3672	80.0903	26.3672	80.3532	26.3672	80.1532	26.3672	80.2866	26.3672	80.2193
27.832	81.1125	27.832	81.0461	27.832	81.1801	27.832	80.9829	27.832	81.247	27.832	80.9246	27.832	81.3109	27.832	80.8726	27.832	81.3699	27.832	80.8282	27.832	81.4217	27.832	80.7925	27.832	81.4644	27.832	80.7664	27.832	81.4962	27.832	80.7504	27.832	81.5158	27.832	80.7451	27.832	81.5225	27.832	80.7504	27.832	81.5158	27.832	80.7664	27.832	81.4962	27.832	80.7925	27.832	81.4644	27.832	80.8282	27.832	81.4217	27.832	80.8726	27.832	81.3699	27.832	80.9246	27.832	81.3109	27.832	80.9829	27.832	81.247	27.832	81.0461	27.832	81.1801	27.832	81.1125
29.2969	81.8565	29.2969	81.7889	29.2969	81.9252	29.2969	81.7243	29.2969	81.993	29.2969	81.6645	29.2969	82.0578	29.2969	81.6112	29.2969	82.1173	29.2969	81.5655	29.2969	82.1695	29.2969	81.5288	29.2969	82.2125	29.2969	81.5018	29.2969	82.2444	29.2969	81.4854	29.2969	82.2642	29.2969	81.4799	29.2969	82.2709	29.2969	81.4854	29.2969	82.2642	29.2969	81.5018	29.2969	82.2444	29.2969	81.5288	29.2969	82.2125	29.2969	81.5655	29.2969	82.1695	29.2969	81.6112	29.2969	82.1173	29.2969	81.6645	29.2969	82.0578	29.2969	81.7243	29.2969	81.993	29.2969	81.7889	29.2969	81.9252	29.2969	81.8565
30.7617	82.6882	30.7617	82.6223	30.7617	82.7554	30.7617	82.5593	30.7617	82.8217	30.7617	82.5012	30.7617	82.8851	30.7617	82.4493	30.7617	82.9435	30.7617	82.4049	30.7617	82.9947	30.7617	82.3693	30.7617	83.0368	30.7617	82.3432	30.7617	83.0682	30.7617	82.3273	30.7617	83.0876	30.7617	82.3219	30.7617	83.0942	30.7617	82.3273	30.7617	83.0876	30.7617	82.3432	30.7617	83.0682	30.7617	82.3693	30.7617	83.0368	30.7617	82.4049	30.7617	82.9947	30.7617	82.4493	30.7617	82.9435	30.7617	82.5012	30.7617	82.8851	30.7617	82.5593	30.7617	82.8217	30.7617	82.6223	30.7617	82.7554	30.7617	82.6882
32.2266	83.4173	32.2266	83.3521	32.2266	83.4837	32.2266	83.2899	32.2266	83.5493	32.2266	83.2325	32.2266	83.6119	32.2266	83.1812	32.2266	83.6696	32.2266	83.1374	32.2266	83.7201	32.2266	83.1023	32.2266	83.7618	32.2266	83.0765	32.2266	83.7928	32.2266	83.0608	32.2266	83.8119	32.2266	83.0555	32.2266	83.8184	32.2266	83.0608	32.2266	83.8119	32.2266	83.0765	32.2266	83.7928	32.2266	83.1023	32.2266	83.7618	32.2266	83.1374	32.2266	83.7201	32.2266	83.1812	32.2266	83.6696	32.2266	83.2325	32.2266	83.6119	32.2266	83.2899	32.2266	83.5493	32.2266	83.3521	32.2266	83.4837	32.2266	83.4173
33.6914	84.0107	33.6914	83.9438	33.6914	84.0787	33.6914	83.88	33.6914	84.1459	33.6914	83.8209	33.6914	84.21	33.6914	83.7683	33.6914	84.2689	33.6914	83.7233	33.6914	84.3206	33.6914	83.6872	33.6914	84.3631	33.6914	83.6607	33.6914	84.3947	33.6914	83.6446	33.6914	84.4143	33.6914	83.6392	33.6914	84.4209	33.6914	83.6446	33.6914	84.4143	33.6914	83.6607	33.6914	84.3947	33.6914	83.6872	33.6914	84.3631	33.6914	83.7233	33.6914	84.3206	33.6914	83.7683	33.6914	84.2689	33.6914	83.8209	33.6914	84.21	33.6914	83.88	33.6914	84.1459	33.6914	83.9438	33.6914	84.0787	33.6914	84.0107
35.1562	84.6341	35.1562	84.5673	35.1562	84.7021	35.1562	84.5035	35.1562	84.7692	35.1562	84.4444	35.1562	84.8333	35.1562	84.3918	35.1562	84.8921	35.1562	84.3468	35.1562	84.9437	35.1562	84.3106	35.1562	84.9862	35.1562	84.2842	35.1562	85.0178	35.1562	84.268	35.1562	85.0373	35.1562	84.2626	35.1562	85.0439	35.1562	84.268	35.1562	85.0373	35.1562	84.2842	35.1562	85.0178	35.1562	84.3106	35.1562	84.9862	35.1562	84.3468	35.1562	84.9437	35.1562	84.3918	35.1562	84.8921	35.1562	84.4444	35.1562	84.8333	35.1562	84.5035	35.1562	84.7692	35.1562	84.5673	35.1562	84.7021	35.1562	84.6341
36.6211	85.1882	36.6211	85.1204	36.6211	85.2571	36.6211	85.0557	36.6211	85.325	36.6211	84.9957	36.6211	85.3897	36.6211	84.9421	36.6211	85.4491	36.6211	84.8964	36.6211	85.5012	36.6211	84.8596	36.6211	85.544	36.6211	84.8326	36.6211	85.5758	36.6211	84.8161	36.6211	85.5955	36.6211	84.8106	36.6211	85.6021	36.6211	84.8161	36.6211	85.5955	36.6211	84.8326	36.6211	85.5758	36.6211	84.8596	36.6211	85.544	36.6211	84.8964	36.6211	85.5012	36.6211	84.9421	36.6211	85.4491	36.6211	84.9957	36.6211	85.3897	36.6211	85.0557	36.6211	85.325	36.6211	85.1204	36.6211	85.2571	36.6211	85.1882
38.0859	85.6345	38.0859	85.5647	38.0859	85.7051	38.0859	85.4979	38.0859	85.7746	38.0859	85.4358	38.0859	85.8407	38.0859	85.3802	38.0859	85.9012	38.0859	85.3326	38.0859	85.9541	38.0859	85.2943	38.0859	85.9975	38.0859	85.2661	38.0859	86.0298	38.0859	85.2489	38.0859	86.0497	38.0859	85.2431	38.0859	86.0564	38.0859	85.2489	38.0859	86.0497	38.0859	85.2661	38.0859	86.0298	38.0859	85.2943	38.0859	85.9975	38.0859	85.3326	38.0859	85.9541	38.0859	85.3802	38.0859	85.9012	38.0859	85.4358	38.0859	85.8407	38.0859	85.4979	38.0859	85.7746	38.0859	85.5647	38.0859	85.7051	38.0859	85.6345
39.5508	85.8527	39.5508	85.7841	39.5508	85.9223	39.5508	85.7185	39.5508	85.9908	39.5508	85.6576	39.5508	86.056	39.5508	85.6032	39.5508	86.1158	39.5508	85.5566	39.5508	86.1682	39.5508	85.5191	39.5508	86.2111	39.5508	85.4916	39.5508	86.2431	39.5508	85.4748	39.5508	86.2628	39.5508	85.4692	39.5508	86.2694	39.5508	85.4748	39.5508	86.2628	39.5508	85.4916	39.5508	86.2431	39.5508	85.5191	39.5508	86.2111	39.5508	85.5566	39.5508	86.1682	39.5508	85.6032	39.5508	86.1158	39.5508	85.6576	39.5508	86.056	39.5508	85.7185	39.5508	85.9908	39.5508	85.7841	39.5508	85.9223	39.5508	85.8527
41.0156	86.0679	41.0156	86.0026	41.0156	86.1341	41.0156	85.9402	41.0156	86.1993	41.0156	85.8824	41.0156	86.2614	41.0156	85.8307	41.0156	86.3184	41.0156	85.7865	41.0156	86.3683	41.0156	85.751	41.0156	86.4092	41.0156	85.7249	41.0156	86.4396	41.0156	85.7091	41.0156	86.4584	41.0156	85.7037	41.0156	86.4647	41.0156	85.7091	41.0156	86.4584	41.0156	85.7249	41.0156	86.4396	41.0156	85.751	41.0156	86.4092	41.0156	85.7865	41.0156	86.3683	41.0156	85.8307	41.0156	86.3184	41.0156	85.8824	41.0156	86.2614	41.0156	85.9402	41.0156	86.1993	41.0156	86.0026	41.0156	86.1341	41.0156	86.0679
42.4805	86.3959	42.4805	86.3307	42.4805	86.4621	42.4805	86.2683	42.4805	86.5272	42.4805	86.2105	42.4805	86.5892	42.4805	86.1588	42.4805	86.6461	42.4805	86.1147	42.4805	86.6958	42.4805	86.0792	42.4805	86.7366	42.4805	86.0532	42.4805	86.767	42.4805	86.0373	42.4805	86.7857	42.4805	86.032	42.4805	86.792	42.4805	86.0373	42.4805	86.7857	42.4805	86.0532	42.4805	86.767	42.4805	86.0792	42.4805	86.7366	42.4805	86.1147	42.4805	86.6958	42.4805	86.1588	42.4805	86.6461	42.4805	86.2105	42.4805	86.5892	42.4805	86.2683	42.4805	86.5272	42.4805	86.3307	42.4805	86.4621	42.4805	86.3959
43.9453	86.6685	43.9453	86.6028	43.9453	86.7352	43.9453	86.5398	43.9453	86.8007	43.9453	86.4814	43.9453	86.8631	43.9453	86.4292	43.9453	86.9202	43.9453	86.3845	43.9453	86.9702	43.9453	86.3486	43.9453	87.0111	43.9453	86.3222	43.9453	87.0416	43.9453	86.3061	43.9453	87.0603	43.9453	86.3007	43.9453	87.0667	43.9453	86.3061	43.9453	87.0603	43.9453	86.3222	43.9453	87.0416	43.9453	86.3486	43.9453	87.0111	43.9453	86.3845	43.9453	86.9702	43.9453	86.4292	43.9453	86.9202	43.9453	86.4814	43.9453	86.8631	43.9453	86.5398	43.9453	86.8007	43.9453	86.6028	43.9453	86.7352	43.9453	86.6685
45.4102	86.7808	45.4102	86.7197	45.4102	86.8428	45.4102	86.6614	45.4102	86.904	45.4102	86.6074	45.4102	86.9622	45.4102	86.5593	45.4102	87.0157	45.4102	86.5182	45.4102	87.0626	45.4102	86.4852	45.4102	87.101	45.4102	86.4611	45.4102	87.1297	45.4102	86.4463	45.4102	87.1473	45.4102	86.4414	45.4102	87.1533	45.4102	86.4463	45.4102	87.1473	45.4102	86.4611	45.4102	87.1297	45.4102	86.4852	45.4102	87.101	45.4102	86.5182	45.4102	87.0626	45.4102	86.5593	45.4102	87.0157	45.4102	86.6074	45.4102	86.9622	45.4102	86.6614	45.4102	86.904	45.4102	86.7197	45.4102	86.8428	45.4102	86.7808
46.875	86.8511	46.875	86.8006	46.875	86.9031	46.875	86.7531	46.875	86.955	46.875	86.7098	46.875	87.0051	46.875	86.6718	46.875	87.0515	46.875	86.6398	46.875	87.0925	46.875	86.6144	46.875	87.1263	46.875	86.5961	46.875	87.1517	46.875	86.585	46.875	87.1673	46.875	86.5812	46.875	87.1726	46.875	86.585	46.875	87.1673	46.875	86.5961	46.875	87.1517	46.875	86.6144	46.875	87.1263	46.875	86.6398	46.875	87.0925	46.875	86.6718	46.875	87.0515	46.875	86.7098	46.875	87.0051	46.875	86.7531	46.875	86.955	46.875	86.8006	46.875	86.9031	46.875	86.8511
48.3398	86.6024	48.3398	86.5416	48.3398	86.665	48.3398	86.4844	48.3398	86.7275	48.3398	86.4324	48.3398	86.7876	48.3398	86.3867	48.3398	86.8434	48.3398	86.3483	48.3398	86.8925	48.3398	86.3179	48.3398	86.9331	48.3398	86.296	48.3398	86.9634	48.3398	86.2827	48.3398	86.9821	48.3398	86.2783	48.3398	86.9884	48.3398	86.2827	48.3398	86.9821	48.3398	86.296	48.3398	86.9634	48.3398	86.3179	48.3398	86.9331	48.3398	86.3483	48.3398	86.8925	48.3398	86.3867	48.3398	86.8434	48.3398	86.4324	48.3398	86.7876	48.3398	86.4844	48.3398	86.7275	48.3398	86.5416	48.3398	86.665	48.3398	86.6024
51.2695	86.9775	51.2695	86.9061	51.2695	87.0502	51.2695	86.8381	51.2695	87.1219	51.2695	86.7753	51.2695	87.1902	51.2695	86.7196	51.2695	87.253	51.2695	86.6722	51.2695	87.3078	51.2695	86.6342	51.2695	87.3528	51.2695	86.6066	51.2695	87.3863	51.2695	86.5898	51.2695	87.4069	51.2695	86.5842	51.2695	87.4139	51.2695	86.5898	51.2695	87.4069	51.2695	86.6066	51.2695	87.3863	51.2695	86.6342	51.2695	87.3528	51.2695	86.6722	51.2695	87.3078	51.2695	86.7196	51.2695	87.253	51.2695	86.7753	51.2695	87.1902	51.2695	86.8381	51.2695	87.1219	51.2695	86.9061	51.2695	87.0502	51.2695	86.9775
52.7344	87.0507	52.7344	86.9776	52.7344	87.1247	52.7344	86.9078	52.7344	87.1975	52.7344	86.843	52.7344	87.2666	52.7344	86.7853	52.7344	87.3298	52.7344	86.736	52.7344	87.3849	52.7344	86.6964	52.7344	87.43	52.7344	86.6675	52.7344	87.4635	52.7344	86.6499	52.7344	87.4841	52.7344	86.644	52.7344	87.4911	52.7344	86.6499	52.7344	87.4841	52.7344	86.6675	52.7344	87.4635	52.7344	86.6964	52.7344	87.43	52.7344	86.736	52.7344	87.3849	52.7344	86.7853	52.7344	87.3298	52.7344	86.843	52.7344	87.2666	52.7344	86.9078	52.7344	87.1975	52.7344	86.9776	52.7344	87.1247	52.7344	87.0507
54.1992	87.1206	54.1992	87.0473	54.1992	87.1948	54.1992	86.9771	54.1992	87.2677	54.1992	86.912	54.1992	87.3368	54.1992	86.8538	54.1992	87.4	54.1992	86.8041	54.1992	87.4551	54.1992	86.7642	54.1992	87.5002	54.1992	86.735	54.1992	87.5336	54.1992	86.7172	54.1992	87.5542	54.1992	86.7112	54.1992	87.5611	54.1992	86.7172	54.1992	87.5542	54.1992	86.735	54.1992	87.5336	54.1992	86.7642	54.1992	87.5002	54.1992	86.8041	54.1992	87.4551	54.1992	86.8538	54.1992	87.4	54.1992	86.912	54.1992	87.3368	54.1992	86.9771	54.1992	87.2677	54.1992	87.0473	54.1992	87.1948	54.1992	87.1206
55.6641	87.3051	55.6641	87.235	55.6641	87.3764	55.6641	87.1682	55.6641	87.4465	55.6641	87.1064	55.6641	87.5134	55.6641	87.0514	55.6641	87.5746	55.6641	87.0046	55.6641	87.6282	55.6641	86.9671	55.6641	87.6721	55.6641	86.9398	55.6641	87.7048	55.6641	86.9231	55.6641	87.7249	55.6641	86.9175	55.6641	87.7317	55.6641	86.9231	55.6641	87.7249	55.6641	86.9398	55.6641	87.7048	55.6641	86.9671	55.6641	87.6721	55.6641	87.0046	55.6641	87.6282	55.6641	87.0514	55.6641	87.5746	55.6641	87.1064	55.6641	87.5134	55.6641	87.1682	55.6641	87.4465	55.6641	87.235	55.6641	87.3764	55.6641	87.3051
58.5938	87.1429	58.5938	87.072	58.5938	87.2146	58.5938	87.0043	58.5938	87.2851	58.5938	86.9416	58.5938	87.352	58.5938	86.8857	58.5938	87.4131	58.5938	86.838	58.5938	87.4664	58.5938	86.7997	58.5938	87.5099	58.5938	86.7718	58.5938	87.5422	58.5938	86.7548	58.5938	87.5621	58.5938	86.7491	58.5938	87.5688	58.5938	86.7548	58.5938	87.5621	58.5938	86.7718	58.5938	87.5422	58.5938	86.7997	58.5938	87.5099	58.5938	86.838	58.5938	87.4664	58.5938	86.8857	58.5938	87.4131	58.5938	86.9416	58.5938	87.352	58.5938	87.0043	58.5938	87.2851	58.5938	87.072	58.5938	87.2146	58.5938	87.1429
60.0586	87.1326	60.0586	87.0641	60.0586	87.2018	60.0586	86.9983	60.0586	87.2695	60.0586	86.9372	60.0586	87.3335	60.0586	86.8826	60.0586	87.3917	60.0586	86.836	60.0586	87.4423	60.0586	86.7985	60.0586	87.4835	60.0586	86.7711	60.0586	87.5139	60.0586	86.7544	60.0586	87.5326	60.0586	86.7488	60.0586	87.5389	60.0586	86.7544	60.0586	87.5326	60.0586	86.7711	60.0586	87.5139	60.0586	86.7985	60.0586	87.4835	60.0586	86.836	60.0586	87.4423	60.0586	86.8826	60.0586	87.3917	60.0586	86.9372	60.0586	87.3335	60.0586	86.9983	60.0586	87.2695	60.0586	87.0641	60.0586	87.2018	60.0586	87.1326
62.9883	86.8154	62.9883	86.7446	62.9883	86.886	62.9883	86.6756	62.9883	86.9541	62.9883	86.6108	62.9883	87.0176	62.9883	86.5522	62.9883	87.0748	62.9883	86.5016	62.9883	87.1239	62.9883	86.4606	62.9883	87.1636	62.9883	86.4304	62.9883	87.1927	62.9883	86.4119	62.9883	87.2106	62.9883	86.4056	62.9883	87.2165	62.9883	86.4119	62.9883	87.2106	62.9883	86.4304	62.9883	87.1927	62.9883	86.4606	62.9883	87.1636	62.9883	86.5016	62.9883	87.1239	62.9883	86.5522	62.9883	87.0748	62.9883	86.6108	62.9883	87.0176	62.9883	86.6756	62.9883	86.9541	62.9883	86.7446	62.9883	86.886	62.9883	86.8154
64.4531	86.6823	64.4531	86.6119	64.4531	86.7528	64.4531	86.5436	64.4531	86.821	64.4531	86.4796	64.4531	86.885	64.4531	86.4218	64.4531	86.9428	64.4531	86.372	64.4531	86.9927	64.4531	86.3318	64.4531	87.0332	64.4531	86.3022	64.4531	87.0631	64.4531	86.2841	64.4531	87.0814	64.4531	86.278	64.4531	87.0876	64.4531	86.2841	64.4531	87.0814	64.4531	86.3022	64.4531	87.0631	64.4531	86.3318	64.4531	87.0332	64.4531	86.372	64.4531	86.9927	64.4531	86.4218	64.4531	86.9428	64.4531	86.4796	64.4531	86.885	64.4531	86.5436	64.4531	86.821	64.4531	86.6119	64.4531	86.7528	64.4531	86.6823
67.3828	86.8622	67.3828	86.7908	67.3828	86.9343	67.3828	86.7224	67.3828	87.0049	67.3828	86.6589	67.3828	87.0717	67.3828	86.6022	67.3828	87.1325	67.3828	86.5538	67.3828	87.1853	67.3828	86.515	67.3828	87.2284	67.3828	86.4867	67.3828	87.2603	67.3828	86.4695	67.3828	87.2799	67.3828	86.4637	67.3828	87.2865	67.3828	86.4695	67.3828	87.2799	67.3828	86.4867	67.3828	87.2603	67.3828	86.515	67.3828	87.2284	67.3828	86.5538	67.3828	87.1853	67.3828	86.6022	67.3828	87.1325	67.3828	86.6589	67.3828	87.0717	67.3828	86.7224	67.3828	87.0049	67.3828	86.7908	67.3828	86.9343	67.3828	86.8622
