"SPL Vertical"
"On-Axis"		"10°"		"-10°"		"20°"		"-20°"		"30°"		"-30°"		"40°"		"-40°"		"50°"		"-50°"		"60°"		"-60°"		"70°"		"-70°"		"80°"		"-80°"		"90°"		"-90°"		"100°"		"-100°"		"110°"		"-110°"		"120°"		"-120°"		"130°"		"-130°"		"140°"		"-140°"		"150°"		"-150°"		"160°"		"-160°"		"170°"		"-170°"		"180°"
"Frequency / Hz"	"Sound Pressure Level / dB (re 20 µPa/V)  [2.83V at 1m]"	"Frequency / Hz"	"Sound Pressure Level / dB (re 20 µPa/V)  [2.83V at 1m]"	"Frequency / Hz"	"Sound Pressure Level / dB (re 20 µPa/V)  [2.83V at 1m]"	"Frequency / Hz"	"Sound Pressure Level / dB (re 20 µPa/V)  [2.83V at 1m]"	"Frequency / Hz"	"Sound Pressure Level / dB (re 20 µPa/V)  [2.83V at 1m]"	"Frequency / Hz"	"Sound Pressure Level / dB (re 20 µPa/V)  [2.83V at 1m]"	"Frequency / Hz"	"Sound Pressure Level / dB (re 20 µPa/V)  [2.83V at 1m]"	"Frequency / Hz"	"Sound Pressure Level / dB (re 20 µPa/V)  [2.83V at 1m]"	"Frequency / Hz"	"Sound Pressure Level / dB (re 20 µPa/V)  [2.83V at 1m]"	"Frequency / Hz"	"Sound Pressure Level / dB (re 20 µPa/V)  [2.83V at 1m]"	"Frequency / Hz"	"Sound Pressure Level / dB (re 20 µPa/V)  [2.83V at 1m]"	"Frequency / Hz"	"Sound Pressure Level / dB (re 20 µPa/V)  [2.83V at 1m]"	"Frequency / Hz"	"Sound Pressure Level / dB (re 20 µPa/V)  [2.83V at 1m]"	"Frequency / Hz"	"Sound Pressure Level / dB (re 20 µPa/V)  [2.83V at 1m]"	"Frequency / Hz"	"Sound Pressure Level / dB (re 20 µPa/V)  [2.83V at 1m]"	"Frequency / Hz"	"Sound Pressure Level / dB (re 20 µPa/V)  [2.83V at 1m]"	"Frequency / Hz"	"Sound Pressure Level / dB (re 20 µPa/V)  [2.83V at 1m]"	"Frequency / Hz"	"Sound Pressure Level / dB (re 20 µPa/V)  [2.83V at 1m]"	"Frequency / Hz"	"Sound Pressure Level / dB (re 20 µPa/V)  [2.83V at 1m]"	"Frequency / Hz"	"Sound Pressure Level / dB (re 20 µPa/V)  [2.83V at 1m]"	"Frequency / Hz"	"Sound Pressure Level / dB (re 20 µPa/V)  [2.83V at 1m]"	"Frequency / Hz"	"Sound Pressure Level / dB (re 20 µPa/V)  [2.83V at 1m]"	"Frequency / Hz"	"Sound Pressure Level / dB (re 20 µPa/V)  [2.83V at 1m]"	"Frequency / Hz"	"Sound Pressure Level / dB (re 20 µPa/V)  [2.83V at 1m]"	"Frequency / Hz"	"Sound Pressure Level / dB (re 20 µPa/V)  [2.83V at 1m]"	"Frequency / Hz"	"Sound Pressure Level / dB (re 20 µPa/V)  [2.83V at 1m]"	"Frequency / Hz"	"Sound Pressure Level / dB (re 20 µPa/V)  [2.83V at 1m]"	"Frequency / Hz"	"Sound Pressure Level / dB (re 20 µPa/V)  [2.83V at 1m]"	"Frequency / Hz"	"Sound Pressure Level / dB (re 20 µPa/V)  [2.83V at 1m]"	"Frequency / Hz"	"Sound Pressure Level / dB (re 20 µPa/V)  [2.83V at 1m]"	"Frequency / Hz"	"Sound Pressure Level / dB (re 20 µPa/V)  [2.83V at 1m]"	"Frequency / Hz"	"Sound Pressure Level / dB (re 20 µPa/V)  [2.83V at 1m]"	"Frequency / Hz"	"Sound Pressure Level / dB (re 20 µPa/V)  [2.83V at 1m]"	"Frequency / Hz"	"Sound Pressure Level / dB (re 20 µPa/V)  [2.83V at 1m]"	"Frequency / Hz"	"Sound Pressure Level / dB (re 20 µPa/V)  [2.83V at 1m]"	"Frequency / Hz"	"Sound Pressure Level / dB (re 20 µPa/V)  [2.83V at 1m]"
20.5078	58.4678	20.5078	58.4996	20.5078	58.3627	20.5078	58.4598	20.5078	58.2313	20.5078	58.3678	20.5078	58.2431	20.5078	58.2508	20.5078	58.7747	20.5078	58.142	20.5078	60.2494	20.5078	58.0806	20.5078	62.6298	20.5078	58.1118	20.5078	65.4135	20.5078	58.2819	20.5078	68.1271	20.5078	58.6303	20.5078	70.4816	20.5078	59.1792	20.5078	72.299	20.5078	59.9276	20.5078	73.4699	20.5078	60.8533	20.5078	73.9613	20.5078	61.9222	20.5078	73.8275	20.5078	63.0988	20.5078	73.1929	20.5078	64.3522	20.5078	72.2092	20.5078	65.6588	20.5078	71.0137	20.5078	66.9996	20.5078	69.708	20.5078	68.3572
21.9727	61.7709	21.9727	61.7072	21.9727	61.7497	21.9727	61.5654	21.9727	61.6681	21.9727	61.3641	21.9727	61.632	21.9727	61.1282	21.9727	61.9081	21.9727	60.8893	21.9727	62.9003	21.9727	60.6873	21.9727	64.7896	21.9727	60.5728	21.9727	67.2549	21.9727	60.6031	21.9727	69.8054	21.9727	60.8333	21.9727	72.09	21.9727	61.3001	21.9727	73.897	21.9727	62.0088	21.9727	75.1041	21.9727	62.9327	21.9727	75.6702	21.9727	64.026	21.9727	75.6389	21.9727	65.2394	21.9727	75.1188	21.9727	66.5308	21.9727	74.2442	21.9727	67.8672	21.9727	73.1379	21.9727	69.2232	21.9727	71.8935	21.9727	70.5748
23.4375	64.565	23.4375	64.4455	23.4375	64.67	23.4375	64.3041	23.4375	64.7941	23.4375	64.1472	23.4375	65.0205	23.4375	63.989	23.4375	65.5067	23.4375	63.8503	23.4375	66.4608	23.4375	63.7575	23.4375	68.0043	23.4375	63.7421	23.4375	70.0215	23.4375	63.8384	23.4375	72.2121	23.4375	64.0784	23.4375	74.2596	23.4375	64.4856	23.4375	75.9179	23.4375	65.0688	23.4375	77.0281	23.4375	65.8209	23.4375	77.5264	23.4375	66.7213	23.4375	77.447	23.4375	67.7427	23.4375	76.8984	23.4375	68.8569	23.4375	76.0195	23.4375	70.0379	23.4375	74.9371	23.4375	71.2624	23.4375	73.7456	23.4375	72.5074
24.9023	67.2949	24.9023	67.1147	24.9023	67.5006	24.9023	66.9464	24.9023	67.7665	24.9023	66.7893	24.9023	68.1589	24.9023	66.6513	24.9023	68.781	24.9023	66.5461	24.9023	69.7493	24.9023	66.4925	24.9023	71.1261	24.9023	66.5127	24.9023	72.8465	24.9023	66.6308	24.9023	74.7199	24.9023	66.8693	24.9023	76.5033	24.9023	67.2456	24.9023	77.9705	24.9023	67.7681	24.9023	78.956	24.9023	68.435	24.9023	79.383	24.9023	69.2351	24.9023	79.274	24.9023	70.1504	24.9023	78.7286	24.9023	71.1602	24.9023	77.8777	24.9023	72.2432	24.9023	76.8419	24.9023	73.3783	24.9023	75.7105	24.9023	74.5431
26.3672	72.3409	26.3672	72.113	26.3672	72.608	26.3672	71.9153	26.3672	72.9333	26.3672	71.7455	26.3672	73.3503	26.3672	71.606	26.3672	73.9098	26.3672	71.5028	26.3672	74.675	26.3672	71.4446	26.3672	75.7002	26.3672	71.4422	26.3672	76.9889	26.3672	71.508	26.3672	78.4559	26.3672	71.6551	26.3672	79.9268	26.3672	71.896	26.3672	81.1832	26.3672	72.2414	26.3672	82.0319	26.3672	72.6986	26.3672	82.3672	26.3672	73.2704	26.3672	82.1972	26.3672	73.955	26.3672	81.6198	26.3672	74.746	26.3672	80.7685	26.3672	75.6328	26.3672	79.765	26.3672	76.6012	26.3672	78.6997	26.3672	77.6321
27.832	74.6357	27.832	74.3728	27.832	74.9485	27.832	74.1505	27.832	75.3277	27.832	73.9651	27.832	75.7999	27.832	73.8171	27.832	76.4017	27.832	73.71	27.832	77.1761	27.832	73.6498	27.832	78.1574	27.832	73.6447	27.832	79.3442	27.832	73.7042	27.832	80.67	27.832	73.839	27.832	81.992	27.832	74.0597	27.832	83.1185	27.832	74.3759	27.832	83.869	27.832	74.7953	27.832	84.1398	27.832	75.3222	27.832	83.935	27.832	75.9572	27.832	83.3464	27.832	76.6969	27.832	82.5011	27.832	77.5336	27.832	81.5159	27.832	78.4554	27.832	80.4779	27.832	79.4451
29.2969	77.1425	29.2969	76.8571	29.2969	77.4783	29.2969	76.6157	29.2969	77.8759	29.2969	76.4154	29.2969	78.3525	29.2969	76.2561	29.2969	78.932	29.2969	76.14	29.2969	79.6425	29.2969	76.0711	29.2969	80.508	29.2969	76.0548	29.2969	81.5309	29.2969	76.0978	29.2969	82.6664	29.2969	76.2077	29.2969	83.8044	29.2969	76.3924	29.2969	84.7803	29.2969	76.6598	29.2969	85.4262	29.2969	77.0168	29.2969	85.6374	29.2969	77.4688	29.2969	85.4108	29.2969	78.019	29.2969	84.83	29.2969	78.6674	29.2969	84.0152	29.2969	79.4109	29.2969	83.0786	29.2969	80.2417	29.2969	82.1039	29.2969	81.1466
30.7617	78.8929	30.7617	78.5955	30.7617	79.2408	30.7617	78.3435	30.7617	79.6471	30.7617	78.1346	30.7617	80.124	30.7617	77.9685	30.7617	80.6878	30.7617	77.8464	30.7617	81.3574	30.7617	77.7709	30.7617	82.1494	30.7617	77.746	30.7617	83.0651	30.7617	77.7764	30.7617	84.0704	30.7617	77.8677	30.7617	85.0756	30.7617	78.0263	30.7617	85.9376	30.7617	78.2587	30.7617	86.5009	30.7617	78.5712	30.7617	86.6626	30.7617	78.9695	30.7617	86.4155	30.7617	79.4581	30.7617	85.8375	30.7617	80.0395	30.7617	85.044	30.7617	80.7135	30.7617	84.1432	30.7617	81.4757	30.7617	83.2162	30.7617	82.3162
32.2266	80.2088	32.2266	79.9053	32.2266	80.5629	32.2266	79.6488	32.2266	80.9739	32.2266	79.437	32.2266	81.4502	32.2266	79.2693	32.2266	82.0029	32.2266	79.1462	32.2266	82.6445	32.2266	79.0694	32.2266	83.3856	32.2266	79.0415	32.2266	84.2254	32.2266	79.0661	32.2266	85.1355	32.2266	79.1474	32.2266	86.0406	32.2266	79.2905	32.2266	86.8148	32.2266	79.5009	32.2266	87.3141	32.2266	79.7844	32.2266	87.4393	32.2266	80.1465	32.2266	87.1805	32.2266	80.5922	32.2266	86.611	32.2266	81.1253	32.2266	85.8414	32.2266	81.7471	32.2266	84.9762	32.2266	82.4556	32.2266	84.0933	32.2266	83.2431
33.6914	81.0669	33.6914	80.7516	33.6914	81.4339	33.6914	80.4851	33.6914	81.8569	33.6914	80.2658	33.6914	82.3413	33.6914	80.0927	33.6914	82.8938	33.6914	79.966	33.6914	83.5217	33.6914	79.8867	33.6914	84.2295	33.6914	79.8564	33.6914	85.0133	33.6914	79.8776	33.6914	85.8469	33.6914	79.9535	33.6914	86.6648	33.6914	80.0879	33.6914	87.3561	33.6914	80.2854	33.6914	87.7903	33.6914	80.5507	33.6914	87.8743	33.6914	80.8889	33.6914	87.5984	33.6914	81.3049	33.6914	87.0323	33.6914	81.8028	33.6914	86.2819	33.6914	82.3849	33.6914	85.4473	33.6914	83.0507	33.6914	84.6024	33.6914	83.7945
35.1562	81.7235	35.1562	81.4007	35.1562	82.0974	35.1562	81.1269	35.1562	82.5247	35.1562	80.901	35.1562	83.0083	35.1562	80.722	35.1562	83.5516	35.1562	80.59	35.1562	84.1572	35.1562	80.5052	35.1562	84.8256	35.1562	80.4687	35.1562	85.5499	35.1562	80.482	35.1562	86.3056	35.1562	80.5475	35.1562	87.0359	35.1562	80.6678	35.1562	87.6433	35.1562	80.8467	35.1562	88.0099	35.1562	81.0881	35.1562	88.0497	35.1562	81.3967	35.1562	87.7537	35.1562	81.7773	35.1562	87.1885	35.1562	82.2343	35.1562	86.456	35.1562	82.7713	35.1562	85.6523	35.1562	83.3894	35.1562	84.8474	35.1562	84.0851
36.6211	81.9897	36.6211	81.6541	36.6211	82.3765	36.6211	81.3689	36.6211	82.8158	36.6211	81.1331	36.6211	83.3081	36.6211	80.9459	36.6211	83.8537	36.6211	80.8071	36.6211	84.4515	36.6211	80.7167	36.6211	85.0981	36.6211	80.6749	36.6211	85.7838	36.6211	80.6829	36.6211	86.4851	36.6211	80.7422	36.6211	87.1516	36.6211	80.855	36.6211	87.6965	36.6211	81.0242	36.6211	88.0128	36.6211	81.2534	36.6211	88.0201	36.6211	81.5468	36.6211	87.7096	36.6211	81.9091	36.6211	87.1447	36.6211	82.3449	36.6211	86.4235	36.6211	82.8581	36.6211	85.6384	36.6211	83.4506	36.6211	84.8567	36.6211	84.12
38.0859	82.2649	38.0859	81.9227	38.0859	82.658	38.0859	81.6311	38.0859	83.1014	38.0859	81.3899	38.0859	83.5942	38.0859	81.1986	38.0859	84.1345	38.0859	81.0569	38.0859	84.7185	38.0859	80.9646	38.0859	85.3402	38.0859	80.9218	38.0859	85.9886	38.0859	80.929	38.0859	86.6411	38.0859	80.987	38.0859	87.2525	38.0859	81.0973	38.0859	87.7447	38.0859	81.2622	38.0859	88.02	38.0859	81.4843	38.0859	88.0035	38.0859	81.7672	38.0859	87.6872	38.0859	82.1148	38.0859	87.1321	38.0859	82.5314	38.0859	86.4323	38.0859	83.0208	38.0859	85.6759	38.0859	83.5851	38.0859	84.9267	38.0859	84.2232
39.5508	82.5552	39.5508	82.2071	39.5508	82.9533	39.5508	81.9099	39.5508	83.4001	39.5508	81.6635	39.5508	83.8929	39.5508	81.4677	39.5508	84.4277	39.5508	81.3221	39.5508	84.9983	39.5508	81.2264	39.5508	85.596	39.5508	81.1801	39.5508	86.2073	39.5508	81.1832	39.5508	86.8096	39.5508	81.2361	39.5508	87.3612	39.5508	81.3396	39.5508	87.7931	39.5508	81.4951	39.5508	88.0176	39.5508	81.7048	39.5508	87.9677	39.5508	81.9716	39.5508	87.6374	39.5508	82.2991	39.5508	87.0858	39.5508	82.6913	39.5508	86.4034	39.5508	83.1522	39.5508	85.674	39.5508	83.6845	39.5508	84.9572	39.5508	84.2883
41.0156	82.8388	41.0156	82.4852	41.0156	83.2415	41.0156	82.1821	41.0156	83.6907	41.0156	81.9302	41.0156	84.1824	41.0156	81.7294	41.0156	84.7107	41.0156	81.5794	41.0156	85.2674	41.0156	81.4797	41.0156	85.8412	41.0156	81.4297	41.0156	86.4172	41.0156	81.429	41.0156	86.9727	41.0156	81.4773	41.0156	87.4699	41.0156	81.5751	41.0156	87.8477	41.0156	81.7232	41.0156	88.028	41.0156	81.923	41.0156	87.9502	41.0156	82.1769	41.0156	87.6102	41.0156	82.488	41.0156	87.065	41.0156	82.86	41.0156	86.4012	41.0156	83.2968	41.0156	85.6983	41.0156	83.8016	41.0156	85.0122	41.0156	84.3749
42.4805	83.1018	42.4805	82.7447	42.4805	83.5064	42.4805	82.4373	42.4805	83.955	42.4805	82.1805	42.4805	84.4426	42.4805	81.9746	42.4805	84.9619	42.4805	81.8195	42.4805	85.5029	42.4805	81.7146	42.4805	86.0531	42.4805	81.6592	42.4805	86.5959	42.4805	81.6525	42.4805	87.1088	42.4805	81.694	42.4805	87.5572	42.4805	81.7837	42.4805	87.886	42.4805	81.9219	42.4805	88.025	42.4805	82.1096	42.4805	87.9198	42.4805	82.3488	42.4805	87.5683	42.4805	82.6423	42.4805	87.0262	42.4805	82.9934	42.4805	86.3769	42.4805	83.4063	42.4805	85.6965	42.4805	83.8843	42.4805	85.0376	42.4805	84.4292
43.9453	83.3325	43.9453	82.9723	43.9453	83.7388	43.9453	82.6606	43.9453	84.1869	43.9453	82.399	43.9453	84.6708	43.9453	82.188	43.9453	85.1822	43.9453	82.0275	43.9453	85.7099	43.9453	81.9169	43.9453	86.2396	43.9453	81.8554	43.9453	86.7539	43.9453	81.8421	43.9453	87.2304	43.9453	81.8763	43.9453	87.6365	43.9453	81.9575	43.9453	87.9226	43.9453	82.0859	43.9453	88.0256	43.9453	82.2623	43.9453	87.8962	43.9453	82.4881	43.9453	87.5339	43.9453	82.7661	43.9453	86.9935	43.9453	83.0994	43.9453	86.3555	43.9453	83.4923	43.9453	85.6929	43.9453	83.9485	43.9453	85.0555	43.9453	84.4703
45.4102	83.3047	45.4102	82.9361	45.4102	83.7192	45.4102	82.6167	45.4102	84.1748	45.4102	82.3485	45.4102	84.6648	45.4102	82.1324	45.4102	85.1804	45.4102	81.9684	45.4102	85.7098	45.4102	81.856	45.4102	86.2387	45.4102	81.7942	45.4102	86.7492	45.4102	81.7816	45.4102	87.2187	45.4102	81.8172	45.4102	87.6153	45.4102	81.8998	45.4102	87.8893	45.4102	82.0289	45.4102	87.9756	45.4102	82.2047	45.4102	87.8242	45.4102	82.4282	45.4102	87.439	45.4102	82.7016	45.4102	86.8813	45.4102	83.028	45.4102	86.2352	45.4102	83.4116	45.4102	85.5731	45.4102	83.8569	45.4102	84.9424	45.4102	84.3673
46.875	83.6062	46.875	83.2338	46.875	84.0238	46.875	82.9103	46.875	84.4809	46.875	82.6383	46.875	84.9699	46.875	82.4189	46.875	85.4809	46.875	82.2523	46.875	86.0012	46.875	82.138	46.875	86.5148	46.875	82.075	46.875	87.0026	46.875	82.0619	46.875	87.4418	46.875	82.0971	46.875	87.8019	46.875	82.1793	46.875	88.0386	46.875	82.3076	46.875	88.0945	46.875	82.4816	46.875	87.9264	46.875	82.7019	46.875	87.5407	46.875	82.9698	46.875	86.9963	46.875	83.2881	46.875	86.3726	46.875	83.6602	46.875	85.7369	46.875	84.0901	46.875	85.1324	46.875	84.5809
48.3398	83.8422	48.3398	83.4695	48.3398	84.2592	48.3398	83.1457	48.3398	84.7146	48.3398	82.8734	48.3398	85.2	48.3398	82.6542	48.3398	85.7045	48.3398	82.4883	48.3398	86.2143	48.3398	82.3753	48.3398	86.7125	48.3398	82.3138	48.3398	87.179	48.3398	82.3023	48.3398	87.5904	48.3398	82.339	48.3398	87.9178	48.3398	82.4222	48.3398	88.1209	48.3398	82.5503	48.3398	88.1491	48.3398	82.7226	48.3398	87.9655	48.3398	82.9388	48.3398	87.5792	48.3398	83.1998	48.3398	87.0479	48.3398	83.5075	48.3398	86.4474	48.3398	83.8648	48.3398	85.8404	48.3398	84.2753	48.3398	85.2657	48.3398	84.742
51.2695	84.4687	51.2695	84.0916	51.2695	84.8877	51.2695	83.7618	51.2695	85.3414	51.2695	83.4827	51.2695	85.82	51.2695	83.2564	51.2695	86.3111	51.2695	83.0834	51.2695	86.7989	51.2695	82.9634	51.2695	87.2643	51.2695	82.895	51.2695	87.685	51.2695	82.8761	51.2695	88.0366	51.2695	82.9045	51.2695	88.2922	51.2695	82.9778	51.2695	88.419	51.2695	83.0936	51.2695	88.3795	51.2695	83.2503	51.2695	88.149	51.2695	83.4468	51.2695	87.7428	51.2695	83.6831	51.2695	87.2175	51.2695	83.9605	51.2695	86.6431	51.2695	84.2817	51.2695	86.0754	51.2695	84.6505	51.2695	85.547	51.2695	85.0713
52.7344	84.719	52.7344	84.3372	52.7344	85.1423	52.7344	84.0023	52.7344	85.5991	52.7344	83.7184	52.7344	86.0791	52.7344	83.4877	52.7344	86.5693	52.7344	83.3109	52.7344	87.0532	52.7344	83.1878	52.7344	87.5107	52.7344	83.1169	52.7344	87.9185	52.7344	83.0963	52.7344	88.2514	52.7344	83.1233	52.7344	88.4826	52.7344	83.1954	52.7344	88.5822	52.7344	83.3101	52.7344	88.5177	52.7344	83.4652	52.7344	88.2704	52.7344	83.6594	52.7344	87.8585	52.7344	83.8923	52.7344	87.3377	52.7344	84.1647	52.7344	86.7749	52.7344	84.479	52.7344	86.2222	52.7344	84.8385	52.7344	85.7093	52.7344	85.2476
54.1992	85.0107	54.1992	84.6265	54.1992	85.4349	54.1992	84.2887	54.1992	85.891	54.1992	84.0013	54.1992	86.368	54.1992	83.767	54.1992	86.8523	54.1992	83.5868	54.1992	87.3266	54.1992	83.4605	54.1992	87.7703	54.1992	83.3867	54.1992	88.1596	54.1992	83.3633	54.1992	88.4691	54.1992	83.3877	54.1992	88.6731	54.1992	83.457	54.1992	88.7443	54.1992	83.5684	54.1992	88.6553	54.1992	83.7195	54.1992	88.3925	54.1992	83.9086	54.1992	87.9767	54.1992	84.1349	54.1992	87.4628	54.1992	84.3988	54.1992	86.9143	54.1992	84.7023	54.1992	86.3798	54.1992	85.0486	54.1992	85.8857	54.1992	85.4419
55.6641	85.3105	55.6641	84.9237	55.6641	85.736	55.6641	84.5823	55.6641	86.1914	55.6641	84.2909	55.6641	86.6654	55.6641	84.0524	55.6641	87.1437	55.6641	83.8681	55.6641	87.6084	55.6641	83.7379	55.6641	88.0383	55.6641	83.6605	55.6641	88.409	55.6641	83.6337	55.6641	88.6946	55.6641	83.6548	55.6641	88.8699	55.6641	83.7206	55.6641	88.9105	55.6641	83.8282	55.6641	88.794	55.6641	83.9747	55.6641	88.5125	55.6641	84.1579	55.6641	88.09	55.6641	84.3767	55.6641	87.5809	55.6641	84.6312	55.6641	87.0459	55.6641	84.9227	55.6641	86.5296	55.6641	85.2545	55.6641	86.0554	55.6641	85.6307
58.5938	85.8818	58.5938	85.4904	58.5938	86.3093	58.5938	85.1427	58.5938	86.7634	58.5938	84.8439	58.5938	87.2319	58.5938	84.5976	58.5938	87.6996	58.5938	84.4055	58.5938	88.1478	58.5938	84.2678	58.5938	88.5541	58.5938	84.1834	58.5938	88.8929	58.5938	84.1501	58.5938	89.1377	58.5938	84.1648	58.5938	89.2638	58.5938	84.224	58.5938	89.2509	58.5938	84.3242	58.5938	89.0851	58.5938	84.4619	58.5938	88.7688	58.5938	84.6342	58.5938	88.3324	58.5938	84.8393	58.5938	87.8299	58.5938	85.0765	58.5938	87.3169	58.5938	85.3468	58.5938	86.8315	58.5938	85.6529	58.5938	86.3911	58.5938	85.9993
60.0586	86.2006	60.0586	85.8048	60.0586	86.6311	60.0586	85.4514	60.0586	87.0863	60.0586	85.1463	60.0586	87.5535	60.0586	84.8932	60.0586	88.0171	60.0586	84.6942	60.0586	88.4579	60.0586	84.5498	60.0586	88.8531	60.0586	84.459	60.0586	89.1764	60.0586	84.4197	60.0586	89.4007	60.0586	84.4287	60.0586	89.5015	60.0586	84.4824	60.0586	89.4602	60.0586	84.5772	60.0586	89.2674	60.0586	84.7092	60.0586	88.9309	60.0586	84.8754	60.0586	88.4842	60.0586	85.0736	60.0586	87.9814	60.0586	85.3028	60.0586	87.4753	60.0586	85.5639	60.0586	87.0009	60.0586	85.8595	60.0586	86.5732	60.0586	86.1941
62.9883	86.7308	62.9883	86.33	62.9883	87.162	62.9883	85.9679	62.9883	87.6129	62.9883	85.6511	62.9883	88.0705	62.9883	85.3839	62.9883	88.5185	62.9883	85.1694	62.9883	88.9371	62.9883	85.0085	62.9883	89.3024	62.9883	84.9009	62.9883	89.5869	62.9883	84.8449	62.9883	89.7623	62.9883	84.8376	62.9883	89.8043	62.9883	84.8754	62.9883	89.6988	62.9883	84.9543	62.9883	89.4462	62.9883	85.0704	62.9883	89.0661	62.9883	85.2199	62.9883	88.5994	62.9883	85.4001	62.9883	88.0995	62.9883	85.6094	62.9883	87.6129	62.9883	85.8478	62.9883	87.1671	62.9883	86.1176	62.9883	86.7711	62.9883	86.4233
64.4531	86.9429	64.4531	86.5485	64.4531	87.3658	64.4531	86.1909	64.4531	87.8067	64.4531	85.8765	64.4531	88.2525	64.4531	85.6097	64.4531	88.6866	64.4531	85.3933	64.4531	89.089	64.4531	85.2284	64.4531	89.4353	64.4531	85.1148	64.4531	89.6974	64.4531	85.0507	64.4531	89.8468	64.4531	85.0336	64.4531	89.8595	64.4531	85.0599	64.4531	89.7235	64.4531	85.126	64.4531	89.4431	64.4531	85.2278	64.4531	89.0429	64.4531	85.3617	64.4531	88.5676	64.4531	85.5251	64.4531	88.071	64.4531	85.7162	64.4531	87.5972	64.4531	85.9353	64.4531	87.1698	64.4531	86.1847	64.4531	86.795	64.4531	86.469
67.3828	87.5135	67.3828	87.119	67.3828	87.9384	67.3828	86.7637	67.3828	88.3827	67.3828	86.454	67.3828	88.8323	67.3828	86.1946	67.3828	89.2702	67.3828	85.9877	67.3828	89.6756	67.3828	85.8342	67.3828	90.0236	67.3828	85.733	67.3828	90.286	67.3828	85.6818	67.3828	90.434	67.3828	85.6772	67.3828	90.4439	67.3828	85.7151	67.3828	90.3038	67.3828	85.791	67.3828	90.0193	67.3828	85.9004	67.3828	89.6175	67.3828	86.0393	67.3828	89.1457	67.3828	86.2046	67.3828	88.6589	67.3828	86.3944	67.3828	88.2	67.3828	86.6086	67.3828	87.7902	67.3828	86.8495	67.3828	87.4327	67.3828	87.1218
