"SPL Vertical"
"On-Axis"		"10°"		"-10°"		"20°"		"-20°"		"30°"		"-30°"		"40°"		"-40°"		"50°"		"-50°"		"60°"		"-60°"		"70°"		"-70°"		"80°"		"-80°"		"90°"		"-90°"		"100°"		"-100°"		"110°"		"-110°"		"120°"		"-120°"		"130°"		"-130°"		"140°"		"-140°"		"150°"		"-150°"		"160°"		"-160°"		"170°"		"-170°"		"180°"
"Frequency / Hz"	"Sound Pressure Level / dB (re 20 µPa/V)  [2.83  V @ 1. m]"	"Frequency / Hz"	"Sound Pressure Level / dB (re 20 µPa/V)  [2.83  V @ 1. m]"	"Frequency / Hz"	"Sound Pressure Level / dB (re 20 µPa/V)  [2.83  V @ 1. m]"	"Frequency / Hz"	"Sound Pressure Level / dB (re 20 µPa/V)  [2.83  V @ 1. m]"	"Frequency / Hz"	"Sound Pressure Level / dB (re 20 µPa/V)  [2.83  V @ 1. m]"	"Frequency / Hz"	"Sound Pressure Level / dB (re 20 µPa/V)  [2.83  V @ 1. m]"	"Frequency / Hz"	"Sound Pressure Level / dB (re 20 µPa/V)  [2.83  V @ 1. m]"	"Frequency / Hz"	"Sound Pressure Level / dB (re 20 µPa/V)  [2.83  V @ 1. m]"	"Frequency / Hz"	"Sound Pressure Level / dB (re 20 µPa/V)  [2.83  V @ 1. m]"	"Frequency / Hz"	"Sound Pressure Level / dB (re 20 µPa/V)  [2.83  V @ 1. m]"	"Frequency / Hz"	"Sound Pressure Level / dB (re 20 µPa/V)  [2.83  V @ 1. m]"	"Frequency / Hz"	"Sound Pressure Level / dB (re 20 µPa/V)  [2.83  V @ 1. m]"	"Frequency / Hz"	"Sound Pressure Level / dB (re 20 µPa/V)  [2.83  V @ 1. m]"	"Frequency / Hz"	"Sound Pressure Level / dB (re 20 µPa/V)  [2.83  V @ 1. m]"	"Frequency / Hz"	"Sound Pressure Level / dB (re 20 µPa/V)  [2.83  V @ 1. m]"	"Frequency / Hz"	"Sound Pressure Level / dB (re 20 µPa/V)  [2.83  V @ 1. m]"	"Frequency / Hz"	"Sound Pressure Level / dB (re 20 µPa/V)  [2.83  V @ 1. m]"	"Frequency / Hz"	"Sound Pressure Level / dB (re 20 µPa/V)  [2.83  V @ 1. m]"	"Frequency / Hz"	"Sound Pressure Level / dB (re 20 µPa/V)  [2.83  V @ 1. m]"	"Frequency / Hz"	"Sound Pressure Level / dB (re 20 µPa/V)  [2.83  V @ 1. m]"	"Frequency / Hz"	"Sound Pressure Level / dB (re 20 µPa/V)  [2.83  V @ 1. m]"	"Frequency / Hz"	"Sound Pressure Level / dB (re 20 µPa/V)  [2.83  V @ 1. m]"	"Frequency / Hz"	"Sound Pressure Level / dB (re 20 µPa/V)  [2.83  V @ 1. m]"	"Frequency / Hz"	"Sound Pressure Level / dB (re 20 µPa/V)  [2.83  V @ 1. m]"	"Frequency / Hz"	"Sound Pressure Level / dB (re 20 µPa/V)  [2.83  V @ 1. m]"	"Frequency / Hz"	"Sound Pressure Level / dB (re 20 µPa/V)  [2.83  V @ 1. m]"	"Frequency / Hz"	"Sound Pressure Level / dB (re 20 µPa/V)  [2.83  V @ 1. m]"	"Frequency / Hz"	"Sound Pressure Level / dB (re 20 µPa/V)  [2.83  V @ 1. m]"	"Frequency / Hz"	"Sound Pressure Level / dB (re 20 µPa/V)  [2.83  V @ 1. m]"	"Frequency / Hz"	"Sound Pressure Level / dB (re 20 µPa/V)  [2.83  V @ 1. m]"	"Frequency / Hz"	"Sound Pressure Level / dB (re 20 µPa/V)  [2.83  V @ 1. m]"	"Frequency / Hz"	"Sound Pressure Level / dB (re 20 µPa/V)  [2.83  V @ 1. m]"	"Frequency / Hz"	"Sound Pressure Level / dB (re 20 µPa/V)  [2.83  V @ 1. m]"	"Frequency / Hz"	"Sound Pressure Level / dB (re 20 µPa/V)  [2.83  V @ 1. m]"	"Frequency / Hz"	"Sound Pressure Level / dB (re 20 µPa/V)  [2.83  V @ 1. m]"	"Frequency / Hz"	"Sound Pressure Level / dB (re 20 µPa/V)  [2.83  V @ 1. m]"
20.5078	57.5007	20.5078	57.5004	20.5078	57.4891	20.5078	57.4881	20.5078	57.4662	20.5078	57.4643	20.5078	57.4326	20.5078	57.4296	20.5078	57.3896	20.5078	57.3851	20.5078	57.3384	20.5078	57.3322	20.5078	57.2804	20.5078	57.2726	20.5078	57.2175	20.5078	57.2081	20.5078	57.1513	20.5078	57.1406	20.5078	57.0837	20.5078	57.0721	20.5078	57.0166	20.5078	57.0046	20.5078	56.952	20.5078	56.9401	20.5078	56.8919	20.5078	56.8806	20.5078	56.8381	20.5078	56.8279	20.5078	56.7923	20.5078	56.7838	20.5078	56.7562	20.5078	56.7497	20.5078	56.7308	20.5078	56.7267	20.5078	56.7172	20.5078	56.7158
21.9727	58.9578	21.9727	58.9582	21.9727	58.9506	21.9727	58.9516	21.9727	58.9365	21.9727	58.9381	21.9727	58.916	21.9727	58.9181	21.9727	58.8893	21.9727	58.8919	21.9727	58.8572	21.9727	58.8603	21.9727	58.8204	21.9727	58.8239	21.9727	58.7799	21.9727	58.784	21.9727	58.7369	21.9727	58.7416	21.9727	58.6926	21.9727	58.6981	21.9727	58.6484	21.9727	58.6547	21.9727	58.6059	21.9727	58.6129	21.9727	58.5665	21.9727	58.5739	21.9727	58.5315	21.9727	58.5388	21.9727	58.5022	21.9727	58.5089	21.9727	58.4798	21.9727	58.4852	21.9727	58.4648	21.9727	58.4683	21.9727	58.4579	21.9727	58.4591
23.4375	60.2863	23.4375	60.2807	23.4375	60.283	23.4375	60.2665	23.4375	60.2709	23.4375	60.244	23.4375	60.2501	23.4375	60.2139	23.4375	60.2212	23.4375	60.177	23.4375	60.1849	23.4375	60.1343	23.4375	60.1423	23.4375	60.0871	23.4375	60.0946	23.4375	60.0365	23.4375	60.0432	23.4375	59.9842	23.4375	59.9897	23.4375	59.9316	23.4375	59.9359	23.4375	59.8803	23.4375	59.8835	23.4375	59.8319	23.4375	59.8341	23.4375	59.788	23.4375	59.7894	23.4375	59.75	23.4375	59.7508	23.4375	59.7191	23.4375	59.7194	23.4375	59.6963	23.4375	59.6964	23.4375	59.6822	23.4375	59.6823	23.4375	59.6775
24.9023	62.0802	24.9023	62.081	24.9023	62.0706	24.9023	62.0729	24.9023	62.0525	24.9023	62.0562	24.9023	62.0264	24.9023	62.0313	24.9023	61.993	24.9023	61.9988	24.9023	61.9531	24.9023	61.9597	24.9023	61.9079	24.9023	61.9152	24.9023	61.8586	24.9023	61.8666	24.9023	61.8067	24.9023	61.8153	24.9023	61.7538	24.9023	61.7629	24.9023	61.7015	24.9023	61.711	24.9023	61.6515	24.9023	61.6613	24.9023	61.6054	24.9023	61.6151	24.9023	61.5648	24.9023	61.5739	24.9023	61.531	24.9023	61.5389	24.9023	61.5051	24.9023	61.5113	24.9023	61.4879	24.9023	61.4918	24.9023	61.4799	24.9023	61.4813
26.3672	63.2913	26.3672	63.2885	26.3672	63.2846	26.3672	63.2763	26.3672	63.2686	26.3672	63.2547	26.3672	63.2438	26.3672	63.2243	26.3672	63.2105	26.3672	63.1856	26.3672	63.1696	26.3672	63.1395	26.3672	63.122	26.3672	63.0872	26.3672	63.0689	26.3672	63.0301	26.3672	63.0117	26.3672	62.9698	26.3672	62.952	26.3672	62.9082	26.3672	62.8914	26.3672	62.8473	26.3672	62.832	26.3672	62.789	26.3672	62.7756	26.3672	62.7354	26.3672	62.7242	26.3672	62.6884	26.3672	62.6794	26.3672	62.6497	26.3672	62.6429	26.3672	62.6207	26.3672	62.6161	26.3672	62.6023	26.3672	62.6001	26.3672	62.5954
27.832	64.931	27.832	64.928	27.832	64.9236	27.832	64.9144	27.832	64.9059	27.832	64.8907	27.832	64.8784	27.832	64.8576	27.832	64.842	27.832	64.816	27.832	64.7976	27.832	64.7672	27.832	64.7467	27.832	64.7126	27.832	64.6906	27.832	64.6538	27.832	64.631	27.832	64.5927	27.832	64.5697	27.832	64.531	27.832	64.5085	27.832	64.4706	27.832	64.4492	27.832	64.4135	27.832	64.3938	27.832	64.3613	27.832	64.3438	27.832	64.3157	27.832	64.3011	27.832	64.2782	27.832	64.2668	27.832	64.2498	27.832	64.242	27.832	64.2317	27.832	64.2277	27.832	64.2242
29.2969	66.1244	29.2969	66.1235	29.2969	66.1149	29.2969	66.1122	29.2969	66.0953	29.2969	66.0907	29.2969	66.0661	29.2969	66.0596	29.2969	66.0281	29.2969	66.0197	29.2969	65.9822	29.2969	65.972	29.2969	65.9297	29.2969	65.9178	29.2969	65.872	29.2969	65.8587	29.2969	65.8107	29.2969	65.7965	29.2969	65.7476	29.2969	65.7329	29.2969	65.6846	29.2969	65.67	29.2969	65.6237	29.2969	65.6097	29.2969	65.5668	29.2969	65.554	29.2969	65.5159	29.2969	65.5046	29.2969	65.4725	29.2969	65.4633	29.2969	65.4382	29.2969	65.4314	29.2969	65.4142	29.2969	65.41	29.2969	65.4013	29.2969	65.3999
30.7617	67.3028	30.7617	67.3006	30.7617	67.294	30.7617	67.2874	30.7617	67.2744	30.7617	67.2636	30.7617	67.2448	30.7617	67.2301	30.7617	67.2061	30.7617	67.188	30.7617	67.1595	30.7617	67.1387	30.7617	67.1066	30.7617	67.0836	30.7617	67.0488	30.7617	67.0246	30.7617	66.9881	30.7617	66.9634	30.7617	66.9261	30.7617	66.9018	30.7617	66.8648	30.7617	66.8417	30.7617	66.8059	30.7617	66.7848	30.7617	66.7513	30.7617	66.7327	30.7617	66.7025	30.7617	66.687	30.7617	66.6612	30.7617	66.6489	30.7617	66.6286	30.7617	66.6197	30.7617	66.6056	30.7617	66.6003	30.7617	66.5931	30.7617	66.5913
32.2266	68.2767	32.2266	68.2768	32.2266	68.2658	32.2266	68.2661	32.2266	68.2446	32.2266	68.2447	32.2266	68.2136	32.2266	68.2134	32.2266	68.1738	32.2266	68.173	32.2266	68.1263	32.2266	68.1249	32.2266	68.0726	32.2266	68.0704	32.2266	68.0141	32.2266	68.0112	32.2266	67.9525	32.2266	67.9493	32.2266	67.8896	32.2266	67.8863	32.2266	67.8274	32.2266	67.8243	32.2266	67.7677	32.2266	67.765	32.2266	67.7124	32.2266	67.7103	32.2266	67.6633	32.2266	67.6618	32.2266	67.622	32.2266	67.6209	32.2266	67.5897	32.2266	67.5891	32.2266	67.5676	32.2266	67.5673	32.2266	67.5563	32.2266	67.5562
33.6914	69.3299	33.6914	69.3284	33.6914	69.3215	33.6914	69.317	33.6914	69.3036	33.6914	69.2961	33.6914	69.2767	33.6914	69.2662	33.6914	69.2416	33.6914	69.2282	33.6914	69.1993	33.6914	69.1834	33.6914	69.1512	33.6914	69.1332	33.6914	69.0987	33.6914	69.079	33.6914	69.0433	33.6914	69.0227	33.6914	68.9867	33.6914	68.966	33.6914	68.9307	33.6914	68.9107	33.6914	68.8769	33.6914	68.8583	33.6914	68.827	33.6914	68.8105	33.6914	68.7827	33.6914	68.7686	33.6914	68.7451	33.6914	68.7339	33.6914	68.7155	33.6914	68.7074	33.6914	68.6947	33.6914	68.6898	33.6914	68.6833	33.6914	68.6817
35.1562	70.3982	35.1562	70.3954	35.1562	70.3898	35.1562	70.3815	35.1562	70.3706	35.1562	70.3567	35.1562	70.3412	35.1562	70.3218	35.1562	70.3023	35.1562	70.2778	35.1562	70.2553	35.1562	70.2259	35.1562	70.2014	35.1562	70.1678	35.1562	70.1422	35.1562	70.1052	35.1562	70.0795	35.1562	70.04	35.1562	70.015	35.1562	69.9743	35.1562	69.9508	35.1562	69.9102	35.1562	69.8886	35.1562	69.8495	35.1562	69.8305	35.1562	69.7943	35.1562	69.7781	35.1562	69.7463	35.1562	69.7332	35.1562	69.7069	35.1562	69.697	35.1562	69.6774	35.1562	69.6708	35.1562	69.6587	35.1562	69.6554	35.1562	69.6513
36.6211	71.2391	36.6211	71.2362	36.6211	71.231	36.6211	71.2222	36.6211	71.212	36.6211	71.1976	36.6211	71.1828	36.6211	71.1631	36.6211	71.1443	36.6211	71.1197	36.6211	71.0976	36.6211	71.0688	36.6211	71.0443	36.6211	71.012	36.6211	70.9858	36.6211	70.951	36.6211	70.9241	36.6211	70.8879	36.6211	70.8609	36.6211	70.8246	36.6211	70.7984	36.6211	70.7631	36.6211	70.7383	36.6211	70.7053	36.6211	70.6827	36.6211	70.6529	36.6211	70.633	36.6211	70.6075	36.6211	70.5908	36.6211	70.5703	36.6211	70.5573	36.6211	70.5423	36.6211	70.5334	36.6211	70.5243	36.6211	70.5198	36.6211	70.5167
38.0859	72.0777	38.0859	72.0756	38.0859	72.0692	38.0859	72.0629	38.0859	72.0502	38.0859	72.0399	38.0859	72.0215	38.0859	72.0074	38.0859	71.9838	38.0859	71.9662	38.0859	71.9382	38.0859	71.9176	38.0859	71.8862	38.0859	71.8631	38.0859	71.8293	38.0859	71.8045	38.0859	71.7693	38.0859	71.7434	38.0859	71.7079	38.0859	71.682	38.0859	71.6472	38.0859	71.6221	38.0859	71.589	38.0859	71.5655	38.0859	71.535	38.0859	71.5139	38.0859	71.487	38.0859	71.469	38.0859	71.4464	38.0859	71.4319	38.0859	71.4143	38.0859	71.4037	38.0859	71.3916	38.0859	71.3852	38.0859	71.3791	38.0859	71.3769
39.5508	72.9245	39.5508	72.9213	39.5508	72.9167	39.5508	72.9071	39.5508	72.8981	39.5508	72.8824	39.5508	72.8693	39.5508	72.8478	39.5508	72.8312	39.5508	72.8044	39.5508	72.7849	39.5508	72.7536	39.5508	72.7318	39.5508	72.6969	39.5508	72.6736	39.5508	72.6361	39.5508	72.6121	39.5508	72.5731	39.5508	72.5493	39.5508	72.51	39.5508	72.487	39.5508	72.4488	39.5508	72.4272	39.5508	72.3913	39.5508	72.3717	39.5508	72.3393	39.5508	72.3222	39.5508	72.2944	39.5508	72.2802	39.5508	72.2577	39.5508	72.2467	39.5508	72.2302	39.5508	72.2228	39.5508	72.2127	39.5508	72.2089	39.5508	72.2056
41.0156	73.761	41.0156	73.7577	41.0156	73.7525	41.0156	73.7425	41.0156	73.7325	41.0156	73.716	41.0156	73.7016	41.0156	73.6788	41.0156	73.6609	41.0156	73.6322	41.0156	73.6115	41.0156	73.5775	41.0156	73.5551	41.0156	73.5165	41.0156	73.4934	41.0156	73.451	41.0156	73.4284	41.0156	73.3833	41.0156	73.362	41.0156	73.3155	41.0156	73.2962	41.0156	73.2499	41.0156	73.2331	41.0156	73.1884	41.0156	73.1745	41.0156	73.1331	41.0156	73.1221	41.0156	73.0856	41.0156	73.0773	41.0156	73.0471	41.0156	73.0413	41.0156	73.0188	41.0156	73.0152	41.0156	73.0012	41.0156	72.9995	41.0156	72.9948
42.4805	74.4614	42.4805	74.4584	42.4805	74.4526	42.4805	74.4437	42.4805	74.4324	42.4805	74.4177	42.4805	74.4014	42.4805	74.3812	42.4805	74.3606	42.4805	74.3352	42.4805	74.3111	42.4805	74.2811	42.4805	74.2547	42.4805	74.2206	42.4805	74.1929	42.4805	74.1556	42.4805	74.1276	42.4805	74.0881	42.4805	74.061	42.4805	74.0201	42.4805	73.995	42.4805	73.9541	42.4805	73.9316	42.4805	73.8919	42.4805	73.8726	42.4805	73.8356	42.4805	73.8198	42.4805	73.7869	42.4805	73.7746	42.4805	73.7473	42.4805	73.7384	42.4805	73.7178	42.4805	73.7121	42.4805	73.6993	42.4805	73.6965	42.4805	73.6922
43.9453	75.1886	43.9453	75.1856	43.9453	75.1807	43.9453	75.1716	43.9453	75.162	43.9453	75.147	43.9453	75.133	43.9453	75.1125	43.9453	75.0946	43.9453	75.069	43.9453	75.0479	43.9453	75.0178	43.9453	74.9943	43.9453	74.9605	43.9453	74.9354	43.9453	74.8987	43.9453	74.873	43.9453	74.8345	43.9453	74.809	43.9453	74.7698	43.9453	74.7454	43.9453	74.7067	43.9453	74.6842	43.9453	74.6471	43.9453	74.6272	43.9453	74.5931	43.9453	74.5761	43.9453	74.5461	43.9453	74.5324	43.9453	74.5077	43.9453	74.4975	43.9453	74.479	43.9453	74.4722	43.9453	74.4608	43.9453	74.4574	43.9453	74.4535
45.4102	75.8173	45.4102	75.813	45.4102	75.8107	45.4102	75.7979	45.4102	75.7934	45.4102	75.7725	45.4102	75.7661	45.4102	75.7374	45.4102	75.7292	45.4102	75.6935	45.4102	75.684	45.4102	75.6422	45.4102	75.6318	45.4102	75.5849	45.4102	75.574	45.4102	75.5234	45.4102	75.5124	45.4102	75.4597	45.4102	75.449	45.4102	75.3958	45.4102	75.3857	45.4102	75.3336	45.4102	75.3244	45.4102	75.2751	45.4102	75.267	45.4102	75.2221	45.4102	75.2152	45.4102	75.1762	45.4102	75.1707	45.4102	75.1388	45.4102	75.1347	45.4102	75.1111	45.4102	75.1084	45.4102	75.0939	45.4102	75.0925	45.4102	75.0876
46.875	76.5235	46.875	76.5189	46.875	76.5163	46.875	76.5027	46.875	76.4977	46.875	76.4754	46.875	76.4683	46.875	76.4378	46.875	76.4291	46.875	76.3913	46.875	76.3813	46.875	76.3375	46.875	76.3267	46.875	76.278	46.875	76.267	46.875	76.215	46.875	76.2042	46.875	76.1506	46.875	76.1403	46.875	76.0867	46.875	76.0773	46.875	76.0254	46.875	76.0172	46.875	75.9686	46.875	75.9616	46.875	75.9178	46.875	75.9121	46.875	75.8744	46.875	75.87	46.875	75.8395	46.875	75.8363	46.875	75.8138	46.875	75.8118	46.875	75.798	46.875	75.797	46.875	75.7924
48.3398	76.978	48.3398	76.972	48.3398	76.9717	48.3398	76.954	48.3398	76.9536	48.3398	76.9247	48.3398	76.9243	48.3398	76.885	48.3398	76.8848	48.3398	76.8364	48.3398	76.8365	48.3398	76.7806	48.3398	76.7812	48.3398	76.7194	48.3398	76.7208	48.3398	76.6551	48.3398	76.6573	48.3398	76.5897	48.3398	76.5929	48.3398	76.5255	48.3398	76.5295	48.3398	76.4643	48.3398	76.4691	48.3398	76.4081	48.3398	76.4134	48.3398	76.3584	48.3398	76.3639	48.3398	76.3165	48.3398	76.3216	48.3398	76.2833	48.3398	76.2876	48.3398	76.2594	48.3398	76.2626	48.3398	76.2453	48.3398	76.247	48.3398	76.2412
51.2695	78.0039	51.2695	77.9989	51.2695	77.9978	51.2695	77.9827	51.2695	77.9806	51.2695	77.956	51.2695	77.9529	51.2695	77.9195	51.2695	77.9157	51.2695	77.8744	51.2695	77.8703	51.2695	77.8223	51.2695	77.8181	51.2695	77.7648	51.2695	77.761	51.2695	77.7038	51.2695	77.7009	51.2695	77.6415	51.2695	77.6397	51.2695	77.5799	51.2695	77.5794	51.2695	77.521	51.2695	77.5219	51.2695	77.4666	51.2695	77.4687	51.2695	77.4184	51.2695	77.4214	51.2695	77.3776	51.2695	77.3811	51.2695	77.3452	51.2695	77.3486	51.2695	77.322	51.2695	77.3246	51.2695	77.3083	51.2695	77.3097	51.2695	77.3042
52.7344	78.5364	52.7344	78.5325	52.7344	78.5289	52.7344	78.5176	52.7344	78.5105	52.7344	78.492	52.7344	78.4818	52.7344	78.4564	52.7344	78.4436	52.7344	78.4122	52.7344	78.3973	52.7344	78.3606	52.7344	78.3445	52.7344	78.3035	52.7344	78.287	52.7344	78.2429	52.7344	78.2267	52.7344	78.1808	52.7344	78.1658	52.7344	78.1193	52.7344	78.1061	52.7344	78.0606	52.7344	78.0495	52.7344	78.0063	52.7344	77.9976	52.7344	77.9582	52.7344	77.9518	52.7344	77.9175	52.7344	77.9132	52.7344	77.8851	52.7344	77.8824	52.7344	77.8615	52.7344	77.86	52.7344	77.8472	52.7344	77.8466	52.7344	77.8422
54.1992	79.073	54.1992	79.0696	54.1992	79.0641	54.1992	79.0541	54.1992	79.0434	54.1992	79.0269	54.1992	79.0114	54.1992	78.989	54.1992	78.9695	54.1992	78.9415	54.1992	78.9188	54.1992	78.8864	54.1992	78.8613	54.1992	78.8254	54.1992	78.799	54.1992	78.7607	54.1992	78.7339	54.1992	78.6948	54.1992	78.6683	54.1992	78.6298	54.1992	78.6045	54.1992	78.5678	54.1992	78.5444	54.1992	78.5107	54.1992	78.4897	54.1992	78.4601	54.1992	78.442	54.1992	78.417	54.1992	78.4023	54.1992	78.3825	54.1992	78.3712	54.1992	78.3569	54.1992	78.3494	54.1992	78.3407	54.1992	78.3369	54.1992	78.334
55.6641	79.5478	55.6641	79.5413	55.6641	79.5404	55.6641	79.5211	55.6641	79.5193	55.6641	79.4879	55.6641	79.4854	55.6641	79.4428	55.6641	79.4398	55.6641	79.3874	55.6641	79.3842	55.6641	79.3238	55.6641	79.3206	55.6641	79.2542	55.6641	79.2512	55.6641	79.1812	55.6641	79.1786	55.6641	79.1075	55.6641	79.1052	55.6641	79.0357	55.6641	79.0338	55.6641	78.968	55.6641	78.9664	55.6641	78.9065	55.6641	78.9052	55.6641	78.8528	55.6641	78.8517	55.6641	78.808	55.6641	78.807	55.6641	78.7727	55.6641	78.7719	55.6641	78.7474	55.6641	78.7468	55.6641	78.7321	55.6641	78.7318	55.6641	78.7269
58.5938	80.2748	58.5938	80.2696	58.5938	80.2659	58.5938	80.2506	58.5938	80.2434	58.5938	80.2182	58.5938	80.208	58.5938	80.1732	58.5938	80.1607	58.5938	80.1171	58.5938	80.103	58.5938	80.0514	58.5938	80.0368	58.5938	79.9782	58.5938	79.9642	58.5938	79.8998	58.5938	79.8875	58.5938	79.819	58.5938	79.8093	58.5938	79.7384	58.5938	79.7319	58.5938	79.6609	58.5938	79.6577	58.5938	79.5889	58.5938	79.589	58.5938	79.5249	58.5938	79.5275	58.5938	79.4708	58.5938	79.4749	58.5938	79.4279	58.5938	79.4324	58.5938	79.3971	58.5938	79.4009	58.5938	79.3791	58.5938	79.3812	58.5938	79.3738
60.0586	80.6795	60.0586	80.6738	60.0586	80.6717	60.0586	80.6547	60.0586	80.6507	60.0586	80.6227	60.0586	80.6172	60.0586	80.5788	60.0586	80.5724	60.0586	80.5244	60.0586	80.5177	60.0586	80.4612	60.0586	80.4551	60.0586	80.3913	60.0586	80.3866	60.0586	80.3171	60.0586	80.3144	60.0586	80.2411	60.0586	80.241	60.0586	80.1658	60.0586	80.1685	60.0586	80.0938	60.0586	80.0992	60.0586	80.0274	60.0586	80.035	60.0586	79.9686	60.0586	79.9776	60.0586	79.919	60.0586	79.9284	60.0586	79.8799	60.0586	79.8884	60.0586	79.8521	60.0586	79.8586	60.0586	79.8362	60.0586	79.8397	60.0586	79.832
62.9883	81.2836	62.9883	81.2775	62.9883	81.276	62.9883	81.2578	62.9883	81.2549	62.9883	81.2251	62.9883	81.221	62.9883	81.1804	62.9883	81.1756	62.9883	81.1254	62.9883	81.1203	62.9883	81.0618	62.9883	81.0569	62.9883	80.9918	62.9883	80.9877	62.9883	80.9179	62.9883	80.9149	62.9883	80.8426	62.9883	80.8412	62.9883	80.7684	62.9883	80.7688	62.9883	80.6978	62.9883	80.6999	62.9883	80.6329	62.9883	80.6365	62.9883	80.5755	62.9883	80.5802	62.9883	80.5272	62.9883	80.5322	62.9883	80.489	62.9883	80.4936	62.9883	80.4616	62.9883	80.4652	62.9883	80.4455	62.9883	80.4474	62.9883	80.4408
64.4531	81.5412	64.4531	81.536	64.4531	81.5318	64.4531	81.5165	64.4531	81.5082	64.4531	81.4832	64.4531	81.4713	64.4531	81.4374	64.4531	81.4226	64.4531	81.3807	64.4531	81.3638	64.4531	81.3152	64.4531	81.2971	64.4531	81.2433	64.4531	81.2248	64.4531	81.1676	64.4531	81.1497	64.4531	81.0907	64.4531	81.0741	64.4531	81.0152	64.4531	81.0006	64.4531	80.9436	64.4531	80.9314	64.4531	80.878	64.4531	80.8684	64.4531	80.8202	64.4531	80.8131	64.4531	80.7714	64.4531	80.7666	64.4531	80.7328	64.4531	80.7297	64.4531	80.7048	64.4531	80.7031	64.4531	80.6878	64.4531	80.6871	64.4531	80.682
67.3828	81.9841	67.3828	81.9787	67.3828	81.9758	67.3828	81.9599	67.3828	81.9543	67.3828	81.9283	67.3828	81.9206	67.3828	81.8852	67.3828	81.8761	67.3828	81.8324	67.3828	81.8227	67.3828	81.7722	67.3828	81.7627	67.3828	81.7068	67.3828	81.6984	67.3828	81.639	67.3828	81.6323	67.3828	81.5712	67.3828	81.5666	67.3828	81.5058	67.3828	81.5035	67.3828	81.4449	67.3828	81.4449	67.3828	81.3902	67.3828	81.3921	67.3828	81.3429	67.3828	81.3463	67.3828	81.3039	67.3828	81.308	67.3828	81.2737	67.3828	81.2777	67.3828	81.2525	67.3828	81.2557	67.3828	81.2403	67.3828	81.242	67.3828	81.2368
