"SPL Horizontal"
"On-Axis"		"10°"		"-10°"		"20°"		"-20°"		"30°"		"-30°"		"40°"		"-40°"		"50°"		"-50°"		"60°"		"-60°"		"70°"		"-70°"		"80°"		"-80°"		"90°"		"-90°"		"100°"		"-100°"		"110°"		"-110°"		"120°"		"-120°"		"130°"		"-130°"		"140°"		"-140°"		"150°"		"-150°"		"160°"		"-160°"		"170°"		"-170°"		"180°"
"Frequency / Hz"	"Sound Pressure Level / dB (re 20 µPa/V)  [2.83V at 1m]"	"Frequency / Hz"	"Sound Pressure Level / dB (re 20 µPa/V)  [2.83V at 1m]"	"Frequency / Hz"	"Sound Pressure Level / dB (re 20 µPa/V)  [2.83V at 1m]"	"Frequency / Hz"	"Sound Pressure Level / dB (re 20 µPa/V)  [2.83V at 1m]"	"Frequency / Hz"	"Sound Pressure Level / dB (re 20 µPa/V)  [2.83V at 1m]"	"Frequency / Hz"	"Sound Pressure Level / dB (re 20 µPa/V)  [2.83V at 1m]"	"Frequency / Hz"	"Sound Pressure Level / dB (re 20 µPa/V)  [2.83V at 1m]"	"Frequency / Hz"	"Sound Pressure Level / dB (re 20 µPa/V)  [2.83V at 1m]"	"Frequency / Hz"	"Sound Pressure Level / dB (re 20 µPa/V)  [2.83V at 1m]"	"Frequency / Hz"	"Sound Pressure Level / dB (re 20 µPa/V)  [2.83V at 1m]"	"Frequency / Hz"	"Sound Pressure Level / dB (re 20 µPa/V)  [2.83V at 1m]"	"Frequency / Hz"	"Sound Pressure Level / dB (re 20 µPa/V)  [2.83V at 1m]"	"Frequency / Hz"	"Sound Pressure Level / dB (re 20 µPa/V)  [2.83V at 1m]"	"Frequency / Hz"	"Sound Pressure Level / dB (re 20 µPa/V)  [2.83V at 1m]"	"Frequency / Hz"	"Sound Pressure Level / dB (re 20 µPa/V)  [2.83V at 1m]"	"Frequency / Hz"	"Sound Pressure Level / dB (re 20 µPa/V)  [2.83V at 1m]"	"Frequency / Hz"	"Sound Pressure Level / dB (re 20 µPa/V)  [2.83V at 1m]"	"Frequency / Hz"	"Sound Pressure Level / dB (re 20 µPa/V)  [2.83V at 1m]"	"Frequency / Hz"	"Sound Pressure Level / dB (re 20 µPa/V)  [2.83V at 1m]"	"Frequency / Hz"	"Sound Pressure Level / dB (re 20 µPa/V)  [2.83V at 1m]"	"Frequency / Hz"	"Sound Pressure Level / dB (re 20 µPa/V)  [2.83V at 1m]"	"Frequency / Hz"	"Sound Pressure Level / dB (re 20 µPa/V)  [2.83V at 1m]"	"Frequency / Hz"	"Sound Pressure Level / dB (re 20 µPa/V)  [2.83V at 1m]"	"Frequency / Hz"	"Sound Pressure Level / dB (re 20 µPa/V)  [2.83V at 1m]"	"Frequency / Hz"	"Sound Pressure Level / dB (re 20 µPa/V)  [2.83V at 1m]"	"Frequency / Hz"	"Sound Pressure Level / dB (re 20 µPa/V)  [2.83V at 1m]"	"Frequency / Hz"	"Sound Pressure Level / dB (re 20 µPa/V)  [2.83V at 1m]"	"Frequency / Hz"	"Sound Pressure Level / dB (re 20 µPa/V)  [2.83V at 1m]"	"Frequency / Hz"	"Sound Pressure Level / dB (re 20 µPa/V)  [2.83V at 1m]"	"Frequency / Hz"	"Sound Pressure Level / dB (re 20 µPa/V)  [2.83V at 1m]"	"Frequency / Hz"	"Sound Pressure Level / dB (re 20 µPa/V)  [2.83V at 1m]"	"Frequency / Hz"	"Sound Pressure Level / dB (re 20 µPa/V)  [2.83V at 1m]"	"Frequency / Hz"	"Sound Pressure Level / dB (re 20 µPa/V)  [2.83V at 1m]"	"Frequency / Hz"	"Sound Pressure Level / dB (re 20 µPa/V)  [2.83V at 1m]"	"Frequency / Hz"	"Sound Pressure Level / dB (re 20 µPa/V)  [2.83V at 1m]"	"Frequency / Hz"	"Sound Pressure Level / dB (re 20 µPa/V)  [2.83V at 1m]"
20.5078	53.5584	20.5078	53.4524	20.5078	53.5046	20.5078	53.1826	20.5078	53.288	20.5078	52.7375	20.5078	52.8985	20.5078	52.0966	20.5078	52.3172	20.5078	51.2272	20.5078	51.5135	20.5078	50.0778	20.5078	50.4393	20.5078	48.5658	20.5078	49.0171	20.5078	46.5507	20.5078	47.1131	20.5078	43.7712	20.5078	44.4683	20.5078	39.6954	20.5078	40.4655	20.5078	33.8525	20.5078	32.8526	20.5078	34.6955	20.5078	26.5645	20.5078	39.8604	20.5078	37.6034	20.5078	43.1292	20.5078	42.0284	20.5078	45.1725	20.5078	44.5425	20.5078	46.428	20.5078	46.0685	20.5078	47.0941	20.5078	46.9285	20.5078	47.2555
21.9727	53.6801	21.9727	53.5631	21.9727	53.6021	21.9727	53.245	21.9727	53.3243	21.9727	52.7076	21.9727	52.8303	21.9727	51.917	21.9727	52.0886	21.9727	50.8149	21.9727	51.0455	21.9727	49.3007	21.9727	49.6092	21.9727	47.1857	21.9727	47.6114	21.9727	44.0588	21.9727	44.7007	21.9727	38.6958	21.9727	39.9325	21.9727	20.3693	21.9727	29.2585	21.9727	36.3503	21.9727	35.3841	21.9727	42.8546	21.9727	42.339	21.9727	46.3131	21.9727	45.9953	21.9727	48.524	21.9727	48.3149	21.9727	50.0011	21.9727	49.8634	21.9727	50.9567	21.9727	50.8722	21.9727	51.4915	21.9727	51.4512	21.9727	51.6521
23.4375	55.3107	23.4375	55.1959	23.4375	55.1898	23.4375	54.8378	23.4375	54.8244	23.4375	54.2103	23.4375	54.187	23.4375	53.2619	23.4375	53.2238	23.4375	51.899	23.4375	51.837	23.4375	49.9451	23.4375	49.84	23.4375	47.029	23.4375	46.8297	23.4375	42.2162	23.4375	41.7055	23.4375	34.9146	23.4375	32.9868	23.4375	41.374	23.4375	41.3363	23.4375	46.9725	23.4375	47.0586	23.4375	50.3872	23.4375	50.468	23.4375	52.7123	23.4375	52.778	23.4375	54.3661	23.4375	54.417	23.4375	55.5392	23.4375	55.5764	23.4375	56.3292	23.4375	56.3535	23.4375	56.7884	23.4375	56.8004	23.4375	56.9427
24.9023	56.2836	24.9023	56.1573	24.9023	56.1741	24.9023	55.7887	24.9023	55.8209	24.9023	55.1559	24.9023	55.2004	24.9023	54.2186	24.9023	54.2685	24.9023	52.914	24.9023	52.954	24.9023	51.1609	24.9023	51.1527	24.9023	48.9344	24.9023	48.7711	24.9023	46.7236	24.9023	46.1552	24.9023	46.4548	24.9023	45.5252	24.9023	48.7164	24.9023	48.0362	24.9023	51.4183	24.9023	51.0147	24.9023	53.6802	24.9023	53.4334	24.9023	55.4461	24.9023	55.2881	24.9023	56.7896	24.9023	56.6863	24.9023	57.777	24.9023	57.7103	24.9023	58.4531	24.9023	58.4131	24.9023	58.8456	24.9023	58.8267	24.9023	58.9688
26.3672	57.4411	26.3672	57.3177	26.3672	57.3335	26.3672	56.9573	26.3672	56.9886	26.3672	56.3404	26.3672	56.3864	26.3672	55.4334	26.3672	55.4917	26.3672	54.1895	26.3672	54.2535	26.3672	52.5684	26.3672	52.6193	26.3672	50.6458	26.3672	50.6288	26.3672	49.0233	26.3672	48.8226	26.3672	49.1147	26.3672	48.7246	26.3672	51.0418	26.3672	50.6756	26.3672	53.3769	26.3672	53.1086	26.3672	55.4186	26.3672	55.2284	26.3672	57.0574	26.3672	56.9218	26.3672	58.3245	26.3672	58.2281	26.3672	59.2644	26.3672	59.198	26.3672	59.9113	26.3672	59.8695	26.3672	60.2874	26.3672	60.2672	26.3672	60.4049
27.832	58.9151	27.832	58.8038	27.832	58.8046	27.832	58.4649	27.832	58.4664	27.832	57.8808	27.832	57.8824	27.832	57.0208	27.832	57.0213	27.832	55.8427	27.832	55.8391	27.832	54.3079	27.832	54.2939	27.832	52.4673	27.832	52.4286	27.832	50.784	27.832	50.6983	27.832	50.5091	27.832	50.3883	27.832	52.1202	27.832	52.0207	27.832	54.3673	27.832	54.3023	27.832	56.4136	27.832	56.3725	27.832	58.0779	27.832	58.0515	27.832	59.3712	27.832	59.3543	27.832	60.3336	27.832	60.3229	27.832	60.9984	27.832	60.9921	27.832	61.3884	27.832	61.3855	27.832	61.5161
29.2969	58.9692	29.2969	58.83	29.2969	58.8731	29.2969	58.4507	29.2969	58.5371	29.2969	57.8174	29.2969	57.9469	29.2969	56.9124	29.2969	57.0821	29.2969	55.7319	29.2969	55.9299	29.2969	54.3494	29.2969	54.5383	29.2969	53.0909	29.2969	53.1773	29.2969	52.7006	29.2969	52.5704	29.2969	53.685	29.2969	53.3903	29.2969	55.4889	29.2969	55.1842	29.2969	57.3804	29.2969	57.1332	29.2969	59.0494	29.2969	58.8648	29.2969	60.427	29.2969	60.2942	29.2969	61.518	29.2969	61.4251	29.2969	62.3415	29.2969	62.2795	29.2969	62.9153	29.2969	62.8774	29.2969	63.2516	29.2969	63.2337	29.2969	63.3573
30.7617	59.8067	30.7617	59.691	30.7617	59.7297	30.7617	59.386	30.7617	59.4586	30.7617	58.9008	30.7617	58.996	30.7617	58.2622	30.7617	58.3585	30.7617	57.541	30.7617	57.6008	30.7617	56.8941	30.7617	56.8623	30.7617	56.5851	30.7617	56.4117	30.7617	56.8687	30.7617	56.5644	30.7617	57.7558	30.7617	57.4023	30.7617	58.9994	30.7617	58.6756	30.7617	60.3262	30.7617	60.0653	30.7617	61.568	30.7617	61.3714	30.7617	62.6474	30.7617	62.5052	30.7617	63.5353	30.7617	63.4361	30.7617	64.2235	30.7617	64.1575	30.7617	64.7113	30.7617	64.6711	30.7617	64.9997	30.7617	64.9808	30.7617	65.0897
32.2266	61.5627	32.2266	61.4756	32.2266	61.4732	32.2266	61.2121	32.2266	61.2063	32.2266	60.7729	32.2266	60.7615	32.2266	60.1652	32.2266	60.1444	32.2266	59.4166	32.2266	59.3804	32.2266	58.604	32.2266	58.5445	32.2266	57.8977	32.2266	57.8083	32.2266	57.5711	32.2266	57.4553	32.2266	57.8586	32.2266	57.7355	32.2266	58.725	32.2266	58.6168	32.2266	59.901	32.2266	59.8172	32.2266	61.1221	32.2266	61.0611	32.2266	62.2339	32.2266	62.191	32.2266	63.168	32.2266	63.1385	32.2266	63.8992	32.2266	63.8798	32.2266	64.4207	32.2266	64.4089	32.2266	64.7319	32.2266	64.7263	32.2266	64.8337
33.6914	62.0921	33.6914	62.0215	33.6914	62.0086	33.6914	61.8006	33.6914	61.7734	33.6914	61.4426	33.6914	61.3984	33.6914	60.9782	33.6914	60.9131	33.6914	60.4716	33.6914	60.3821	33.6914	60.0398	33.6914	59.9259	33.6914	59.8514	33.6914	59.7214	33.6914	60.0616	33.6914	59.9333	33.6914	60.701	33.6914	60.5925	33.6914	61.6466	33.6914	61.566	33.6914	62.7182	33.6914	62.6637	33.6914	63.7718	33.6914	63.7373	33.6914	64.7208	33.6914	64.7003	33.6914	65.5213	33.6914	65.5098	33.6914	66.1529	33.6914	66.147	33.6914	66.6069	33.6914	66.6041	33.6914	66.8799	33.6914	66.8789	33.6914	66.9708
35.1562	64.5417	35.1562	64.477	35.1562	64.472	35.1562	64.2797	35.1562	64.2711	35.1562	63.9578	35.1562	63.9492	35.1562	63.531	35.1562	63.529	35.1562	63.0407	35.1562	63.0561	35.1562	62.5638	35.1562	62.6125	35.1562	62.2216	35.1562	62.3206	35.1562	62.157	35.1562	62.3151	35.1562	62.4623	35.1562	62.6696	35.1562	63.1097	35.1562	63.3407	35.1562	63.9705	35.1562	64.1988	35.1562	64.8975	35.1562	65.1047	35.1562	65.7797	35.1562	65.9564	35.1562	66.5502	35.1562	66.6923	35.1562	67.173	35.1562	67.2795	35.1562	67.6304	35.1562	67.7012	35.1562	67.9142	35.1562	67.9495	35.1562	68.0209
36.6211	62.4422	36.6211	62.3676	36.6211	62.4805	36.6211	62.2729	36.6211	62.4895	36.6211	62.1987	36.6211	62.4979	36.6211	62.2085	36.6211	62.5546	36.6211	62.3764	36.6211	62.7206	36.6211	62.7601	36.6211	63.0516	36.6211	63.3716	36.6211	63.5745	36.6211	64.1687	36.6211	64.2733	36.6211	65.0763	36.6211	65.0956	36.6211	66.0163	36.6211	65.9744	36.6211	66.9255	36.6211	66.8475	36.6211	67.7602	36.6211	67.6667	36.6211	68.4921	36.6211	68.3981	36.6211	69.1036	36.6211	69.0196	36.6211	69.5842	36.6211	69.5167	36.6211	69.9274	36.6211	69.8805	36.6211	70.1297	36.6211	70.1057	36.6211	70.1892
38.0859	67.895	38.0859	67.8676	38.0859	67.856	38.0859	67.7783	38.0859	67.7525	38.0859	67.6383	38.0859	67.5936	38.0859	67.467	38.0859	67.3969	38.0859	67.294	38.0859	67.191	38.0859	67.1584	38.0859	67.0164	38.0859	67.1053	38.0859	66.9225	38.0859	67.1758	38.0859	66.9577	38.0859	67.3923	38.0859	67.1524	38.0859	67.7485	38.0859	67.5048	38.0859	68.2099	38.0859	67.9797	38.0859	68.7258	38.0859	68.5217	38.0859	69.2432	38.0859	69.0721	38.0859	69.7169	38.0859	69.5814	38.0859	70.1124	38.0859	70.0123	38.0859	70.4054	38.0859	70.3397	38.0859	70.5805	38.0859	70.548	38.0859	70.6291
39.5508	68.1408	39.5508	68.1072	39.5508	68.1123	39.5508	68.0158	39.5508	68.0252	39.5508	67.8794	39.5508	67.8916	39.5508	67.7205	39.5508	67.7333	39.5508	67.573	39.5508	67.5833	39.5508	67.4808	39.5508	67.4854	39.5508	67.4916	39.5508	67.4878	39.5508	67.6438	39.5508	67.6306	39.5508	67.9515	39.5508	67.93	39.5508	68.3966	39.5508	68.3698	39.5508	68.9352	39.5508	68.9065	39.5508	69.5122	39.5508	69.4847	39.5508	70.0753	39.5508	70.0511	39.5508	70.5822	39.5508	70.5625	39.5508	71.0021	39.5508	70.9873	39.5508	71.314	39.5508	71.3042	39.5508	71.505	39.5508	71.5001	39.5508	71.5678
41.0156	69.3511	41.0156	69.322	41.0156	69.3292	41.0156	69.2461	41.0156	69.2593	41.0156	69.1356	41.0156	69.1526	41.0156	69.0111	41.0156	69.0289	41.0156	68.9028	41.0156	68.9171	41.0156	68.848	41.0156	68.8545	41.0156	68.8859	41.0156	68.8811	41.0156	69.0468	41.0156	69.029	41.0156	69.3408	41.0156	69.3114	41.0156	69.7527	41.0156	69.7151	41.0156	70.246	41.0156	70.205	41.0156	70.774	41.0156	70.7339	41.0156	71.291	41.0156	71.255	41.0156	71.7585	41.0156	71.7286	41.0156	72.1473	41.0156	72.1245	41.0156	72.4368	41.0156	72.4215	41.0156	72.6139	41.0156	72.6063	41.0156	72.6712
42.4805	70.6071	42.4805	70.5857	42.4805	70.5897	42.4805	70.5295	42.4805	70.5365	42.4805	70.4493	42.4805	70.4573	42.4805	70.3633	42.4805	70.3694	42.4805	70.2967	42.4805	70.2977	42.4805	70.28	42.4805	70.2724	42.4805	70.3433	42.4805	70.325	42.4805	70.5093	42.4805	70.4801	42.4805	70.7853	42.4805	70.7469	42.4805	71.1588	42.4805	71.1149	42.4805	71.6011	42.4805	71.5559	42.4805	72.0741	42.4805	72.0314	42.4805	72.539	42.4805	72.5015	42.4805	72.9617	42.4805	72.931	42.4805	73.3151	42.4805	73.292	42.4805	73.5794	42.4805	73.564	42.4805	73.7415	42.4805	73.7338	42.4805	73.7938
43.9453	71.6424	43.9453	71.6271	43.9453	71.6236	43.9453	71.5808	43.9453	71.5737	43.9453	71.513	43.9453	71.502	43.9453	71.4397	43.9453	71.4247	43.9453	71.3828	43.9453	71.3639	43.9453	71.3689	43.9453	71.3468	43.9453	71.425	43.9453	71.4008	43.9453	71.5719	43.9453	71.5474	43.9453	71.8176	43.9453	71.7949	43.9453	72.1537	43.9453	72.1345	43.9453	72.5561	43.9453	72.5414	43.9453	72.9915	43.9453	72.9815	43.9453	73.4241	43.9453	73.4183	43.9453	73.8213	43.9453	73.8186	43.9453	74.1564	43.9453	74.1556	43.9453	74.4093	43.9453	74.4094	43.9453	74.5663	43.9453	74.5666	43.9453	74.6197
45.4102	72.7551	45.4102	72.7372	45.4102	72.7494	45.4102	72.6987	45.4102	72.7223	45.4102	72.648	45.4102	72.6819	45.4102	72.5993	45.4102	72.6413	45.4102	72.5711	45.4102	72.6187	45.4102	72.5853	45.4102	72.6353	45.4102	72.663	45.4102	72.7119	45.4102	72.8196	45.4102	72.8646	45.4102	73.0602	45.4102	73.099	45.4102	73.3763	45.4102	73.4083	45.4102	73.7477	45.4102	73.7729	45.4102	74.1463	45.4102	74.1655	45.4102	74.5413	45.4102	74.5556	45.4102	74.9042	45.4102	74.9146	45.4102	75.2109	45.4102	75.2182	45.4102	75.443	45.4102	75.4476	45.4102	75.5876	45.4102	75.5899	45.4102	75.6374
46.875	73.6982	46.875	73.6856	46.875	73.6927	46.875	73.6576	46.875	73.6711	46.875	73.622	46.875	73.6404	46.875	73.5908	46.875	73.612	46.875	73.5803	46.875	73.6019	46.875	73.6088	46.875	73.628	46.875	73.6939	46.875	73.7085	46.875	73.8482	46.875	73.8568	46.875	74.0757	46.875	74.0778	46.875	74.3692	46.875	74.3659	46.875	74.7114	46.875	74.7042	46.875	75.078	46.875	75.0687	46.875	75.4417	46.875	75.432	46.875	75.7766	46.875	75.7677	46.875	76.0601	46.875	76.0529	46.875	76.2746	46.875	76.2696	46.875	76.4077	46.875	76.4052	46.875	76.452
48.3398	74.7396	48.3398	74.7364	48.3398	74.731	48.3398	74.7235	48.3398	74.7123	48.3398	74.7071	48.3398	74.6892	48.3398	74.6968	48.3398	74.6712	48.3398	74.7053	48.3398	74.6711	48.3398	74.7466	48.3398	74.7034	48.3398	74.8339	48.3398	74.7825	48.3398	74.977	48.3398	74.919	48.3398	75.179	48.3398	75.1171	48.3398	75.4349	48.3398	75.3725	48.3398	75.7313	48.3398	75.6717	48.3398	76.0488	48.3398	75.995	48.3398	76.3651	48.3398	76.3191	48.3398	76.6576	48.3398	76.6204	48.3398	76.9062	48.3398	76.8783	48.3398	77.0944	48.3398	77.0759	48.3398	77.2103	48.3398	77.2011	48.3398	77.2467
51.2695	76.9049	51.2695	76.9009	51.2695	76.9044	51.2695	76.8937	51.2695	76.9012	51.2695	76.8879	51.2695	76.9003	51.2695	76.8911	51.2695	76.9096	51.2695	76.9135	51.2695	76.9395	51.2695	76.9665	51.2695	77.0015	51.2695	77.0617	51.2695	77.1065	51.2695	77.2077	51.2695	77.2627	51.2695	77.4084	51.2695	77.4727	51.2695	77.6605	51.2695	77.732	51.2695	77.9532	51.2695	78.0286	51.2695	78.2695	51.2695	78.3448	51.2695	78.5881	51.2695	78.659	51.2695	78.8871	51.2695	78.9494	51.2695	79.1455	51.2695	79.1956	51.2695	79.346	51.2695	79.3811	51.2695	79.4755	51.2695	79.4935	51.2695	79.5257
52.7344	77.6708	52.7344	77.6661	52.7344	77.6764	52.7344	77.6636	52.7344	77.684	52.7344	77.6671	52.7344	77.6974	52.7344	77.6829	52.7344	77.7227	52.7344	77.7189	52.7344	77.7675	52.7344	77.7841	52.7344	77.8407	52.7344	77.8871	52.7344	77.9504	52.7344	78.0343	52.7344	78.1027	52.7344	78.2279	52.7344	78.2995	52.7344	78.4646	52.7344	78.537	52.7344	78.735	52.7344	78.8059	52.7344	79.0245	52.7344	79.0913	52.7344	79.3149	52.7344	79.3751	52.7344	79.5869	52.7344	79.6381	52.7344	79.8218	52.7344	79.8621	52.7344	80.0039	52.7344	80.0317	52.7344	80.1211	52.7344	80.1353	52.7344	80.1658
54.1992	78.3579	54.1992	78.3532	54.1992	78.3658	54.1992	78.3528	54.1992	78.3779	54.1992	78.3598	54.1992	78.3971	54.1992	78.3792	54.1992	78.4284	54.1992	78.4176	54.1992	78.4779	54.1992	78.4823	54.1992	78.5527	54.1992	78.5804	54.1992	78.6594	54.1992	78.7172	54.1992	78.8027	54.1992	78.8948	54.1992	78.9843	54.1992	79.1106	54.1992	79.2011	54.1992	79.3568	54.1992	79.4452	54.1992	79.6209	54.1992	79.704	54.1992	79.8869	54.1992	79.9614	54.1992	80.1372	54.1992	80.2004	54.1992	80.3546	54.1992	80.4042	54.1992	80.5242	54.1992	80.5583	54.1992	80.6344	54.1992	80.6517	54.1992	80.6778
55.6641	78.9906	55.6641	78.984	55.6641	79.0015	55.6641	78.9826	55.6641	79.0172	55.6641	78.9893	55.6641	79.0402	55.6641	79.0083	55.6641	79.0742	55.6641	79.045	55.6641	79.1243	55.6641	79.1058	55.6641	79.1962	55.6641	79.1965	55.6641	79.2954	55.6641	79.3218	55.6641	79.4261	55.6641	79.4836	55.6641	79.5898	55.6641	79.6798	55.6641	79.7845	55.6641	79.9038	55.6641	80.0036	55.6641	80.1448	55.6641	80.2365	55.6641	80.3884	55.6641	80.4691	55.6641	80.6185	55.6641	80.6859	55.6641	80.8193	55.6641	80.8715	55.6641	80.9765	55.6641	81.0121	55.6641	81.0792	55.6641	81.0972	55.6641	81.1203
58.5938	80.0611	58.5938	80.0564	58.5938	80.0733	58.5938	80.06	58.5938	80.0933	58.5938	80.0737	58.5938	80.1225	58.5938	80.1003	58.5938	80.1631	58.5938	80.1433	58.5938	80.2183	58.5938	80.2067	58.5938	80.2915	58.5938	80.2944	58.5938	80.3862	58.5938	80.4092	58.5938	80.505	58.5938	80.5524	58.5938	80.6489	58.5938	80.7222	58.5938	80.8163	58.5938	80.9138	58.5938	81.0024	58.5938	81.1186	58.5938	81.1993	58.5938	81.3255	58.5938	81.3959	58.5938	81.5212	58.5938	81.5796	58.5938	81.6925	58.5938	81.7374	58.5938	81.827	58.5938	81.8575	58.5938	81.9151	58.5938	81.9305	58.5938	81.9503
60.0586	80.5162	60.0586	80.5136	60.0586	80.5279	60.0586	80.5207	60.0586	80.5488	60.0586	80.539	60.0586	80.5797	60.0586	80.5707	60.0586	80.6222	60.0586	80.6185	60.0586	80.6787	60.0586	80.6855	60.0586	80.7518	60.0586	80.7745	60.0586	80.8441	60.0586	80.8875	60.0586	80.9577	60.0586	81.0252	60.0586	81.0935	60.0586	81.1858	60.0586	81.25	60.0586	81.3648	60.0586	81.4233	60.0586	81.5547	60.0586	81.6062	60.0586	81.7455	60.0586	81.7892	60.0586	81.9253	60.0586	81.9608	60.0586	82.0821	60.0586	82.109	60.0586	82.2046	60.0586	82.2227	60.0586	82.2838	60.0586	82.2929	60.0586	82.3139
62.9883	81.4444	62.9883	81.4446	62.9883	81.4539	62.9883	81.4548	62.9883	81.4731	62.9883	81.4757	62.9883	81.5025	62.9883	81.5081	62.9883	81.5427	62.9883	81.5533	62.9883	81.5949	62.9883	81.6129	62.9883	81.6603	62.9883	81.6883	62.9883	81.7404	62.9883	81.7808	62.9883	81.8363	62.9883	81.8908	62.9883	81.9482	62.9883	82.0174	62.9883	82.0753	62.9883	82.1578	62.9883	82.2145	62.9883	82.3072	62.9883	82.3609	62.9883	82.4582	62.9883	82.5071	62.9883	82.602	62.9883	82.6441	62.9883	82.7289	62.9883	82.7623	62.9883	82.8294	62.9883	82.8526	62.9883	82.8956	62.9883	82.9076	62.9883	82.9224
64.4531	81.7021	64.4531	81.7031	64.4531	81.7112	64.4531	81.7142	64.4531	81.7302	64.4531	81.7359	64.4531	81.7594	64.4531	81.7687	64.4531	81.799	64.4531	81.8134	64.4531	81.8498	64.4531	81.871	64.4531	81.9124	64.4531	81.9424	64.4531	81.9878	64.4531	82.0286	64.4531	82.0767	64.4531	82.1299	64.4531	82.1794	64.4531	82.2455	64.4531	82.295	64.4531	82.3733	64.4531	82.4211	64.4531	82.5087	64.4531	82.5535	64.4531	82.6457	64.4531	82.6859	64.4531	82.7761	64.4531	82.8103	64.4531	82.8912	64.4531	82.9181	64.4531	82.9823	64.4531	83.0009	64.4531	83.0421	64.4531	83.0516	64.4531	83.0659
67.3828	82.2968	67.3828	82.3019	67.3828	82.3034	67.3828	82.3188	67.3828	82.3217	67.3828	82.347	67.3828	82.3514	67.3828	82.3865	67.3828	82.3923	67.3828	82.4369	67.3828	82.4441	67.3828	82.4981	67.3828	82.5066	67.3828	82.5701	67.3828	82.5798	67.3828	82.6528	67.3828	82.6634	67.3828	82.7459	67.3828	82.7573	67.3828	82.8487	67.3828	82.8605	67.3828	82.9593	67.3828	82.9712	67.3828	83.0745	67.3828	83.086	67.3828	83.1895	67.3828	83.2002	67.3828	83.298	67.3828	83.3075	67.3828	83.3932	67.3828	83.4008	67.3828	83.4678	67.3828	83.4732	67.3828	83.5159	67.3828	83.5187	67.3828	83.5333
