"SPL Horizontal"
"On-Axis"		"10°"		"-10°"		"20°"		"-20°"		"30°"		"-30°"		"40°"		"-40°"		"50°"		"-50°"		"60°"		"-60°"		"70°"		"-70°"		"80°"		"-80°"		"90°"		"-90°"		"100°"		"-100°"		"110°"		"-110°"		"120°"		"-120°"		"130°"		"-130°"		"140°"		"-140°"		"150°"		"-150°"		"160°"		"-160°"		"170°"		"-170°"		"180°"
"Frequency [Hz]"	"Sound Pessure Level [dB]  / [2.83V 1m] "	"Frequency [Hz]"	"Sound Pessure Level [dB]  / [2.83V 1m] "	"Frequency [Hz]"	"Sound Pessure Level [dB]  / [2.83V 1m] "	"Frequency [Hz]"	"Sound Pessure Level [dB]  / [2.83V 1m] "	"Frequency [Hz]"	"Sound Pessure Level [dB]  / [2.83V 1m] "	"Frequency [Hz]"	"Sound Pessure Level [dB]  / [2.83V 1m] "	"Frequency [Hz]"	"Sound Pessure Level [dB]  / [2.83V 1m] "	"Frequency [Hz]"	"Sound Pessure Level [dB]  / [2.83V 1m] "	"Frequency [Hz]"	"Sound Pessure Level [dB]  / [2.83V 1m] "	"Frequency [Hz]"	"Sound Pessure Level [dB]  / [2.83V 1m] "	"Frequency [Hz]"	"Sound Pessure Level [dB]  / [2.83V 1m] "	"Frequency [Hz]"	"Sound Pessure Level [dB]  / [2.83V 1m] "	"Frequency [Hz]"	"Sound Pessure Level [dB]  / [2.83V 1m] "	"Frequency [Hz]"	"Sound Pessure Level [dB]  / [2.83V 1m] "	"Frequency [Hz]"	"Sound Pessure Level [dB]  / [2.83V 1m] "	"Frequency [Hz]"	"Sound Pessure Level [dB]  / [2.83V 1m] "	"Frequency [Hz]"	"Sound Pessure Level [dB]  / [2.83V 1m] "	"Frequency [Hz]"	"Sound Pessure Level [dB]  / [2.83V 1m] "	"Frequency [Hz]"	"Sound Pessure Level [dB]  / [2.83V 1m] "	"Frequency [Hz]"	"Sound Pessure Level [dB]  / [2.83V 1m] "	"Frequency [Hz]"	"Sound Pessure Level [dB]  / [2.83V 1m] "	"Frequency [Hz]"	"Sound Pessure Level [dB]  / [2.83V 1m] "	"Frequency [Hz]"	"Sound Pessure Level [dB]  / [2.83V 1m] "	"Frequency [Hz]"	"Sound Pessure Level [dB]  / [2.83V 1m] "	"Frequency [Hz]"	"Sound Pessure Level [dB]  / [2.83V 1m] "	"Frequency [Hz]"	"Sound Pessure Level [dB]  / [2.83V 1m] "	"Frequency [Hz]"	"Sound Pessure Level [dB]  / [2.83V 1m] "	"Frequency [Hz]"	"Sound Pessure Level [dB]  / [2.83V 1m] "	"Frequency [Hz]"	"Sound Pessure Level [dB]  / [2.83V 1m] "	"Frequency [Hz]"	"Sound Pessure Level [dB]  / [2.83V 1m] "	"Frequency [Hz]"	"Sound Pessure Level [dB]  / [2.83V 1m] "	"Frequency [Hz]"	"Sound Pessure Level [dB]  / [2.83V 1m] "	"Frequency [Hz]"	"Sound Pessure Level [dB]  / [2.83V 1m] "	"Frequency [Hz]"	"Sound Pessure Level [dB]  / [2.83V 1m] "	"Frequency [Hz]"	"Sound Pessure Level [dB]  / [2.83V 1m] "	"Frequency [Hz]"	"Sound Pessure Level [dB]  / [2.83V 1m] "
20.5078	45.7796	20.5078	45.5256	20.5078	45.6109	20.5078	44.8271	20.5078	44.9795	20.5078	43.5876	20.5078	43.7643	20.5078	41.5825	20.5078	41.6819	20.5078	38.3092	20.5078	37.9651	20.5078	33.0959	20.5078	28.9952	20.5078	33.9222	20.5078	29.735	20.5078	40.1571	20.5078	39.6446	20.5078	44.4456	20.5078	44.4285	20.5078	47.5132	20.5078	47.6234	20.5078	49.8539	20.5078	49.9967	20.5078	51.7006	20.5078	51.8415	20.5078	53.172	20.5078	53.2965	20.5078	54.332	20.5078	54.4338	20.5078	55.2155	20.5078	55.2923	20.5078	55.8413	20.5078	55.8923	20.5078	56.2189	20.5078	56.2443	20.5078	56.3528
21.9727	48.352	21.9727	48.2402	21.9727	48.3954	21.9727	48.0857	21.9727	48.3807	21.9727	47.9574	21.9727	48.3537	21.9727	47.9724	21.9727	48.398	21.9727	48.2715	21.9727	48.6248	21.9727	48.9485	21.9727	49.1341	21.9727	49.98	21.9727	49.9573	21.9727	51.242	21.9727	51.0353	21.9727	52.5898	21.9727	52.2574	21.9727	53.9136	21.9727	53.5149	21.9727	55.1458	21.9727	54.7282	21.9727	56.2483	21.9727	55.8457	21.9727	57.1996	21.9727	56.8357	21.9727	57.9858	21.9727	57.6775	21.9727	58.5974	21.9727	58.3566	21.9727	59.0271	21.9727	58.8621	21.9727	59.2699	21.9727	59.186	21.9727	59.3228
23.4375	52.1032	23.4375	51.9582	23.4375	52.0929	23.4375	51.674	23.4375	51.9227	23.4375	51.2852	23.4375	51.6009	23.4375	50.8614	23.4375	51.1595	23.4375	50.5288	23.4375	50.6765	23.4375	50.4709	23.4375	50.3065	23.4375	50.8566	23.4375	50.2768	23.4375	51.7137	23.4375	50.7748	23.4375	52.9015	23.4375	51.7837	23.4375	54.2237	23.4375	53.0982	23.4375	55.5281	23.4375	54.4942	23.4375	56.7244	23.4375	55.8242	23.4375	57.7647	23.4375	57.0117	23.4375	58.6236	23.4375	58.0208	23.4375	59.2865	23.4375	58.8341	23.4375	59.7443	23.4375	59.4424	23.4375	59.9909	23.4375	59.8398	23.4375	60.0231
24.9023	54.3125	24.9023	54.2139	24.9023	54.3006	24.9023	54.0159	24.9023	54.1802	24.9023	53.7473	24.9023	53.9679	24.9023	53.4631	24.9023	53.7013	24.9023	53.2543	24.9023	53.4493	24.9023	53.243	24.9023	53.3183	24.9023	53.543	24.9023	53.4349	24.9023	54.193	24.9023	53.8896	24.9023	55.1272	24.9023	54.6758	24.9023	56.2186	24.9023	55.6928	24.9023	57.3436	24.9023	56.8081	24.9023	58.4123	24.9023	57.9108	24.9023	59.3674	24.9023	58.9262	24.9023	60.1735	24.9023	59.8081	24.9023	60.8084	24.9023	60.528	24.9023	61.2574	24.9023	61.0677	24.9023	61.511	24.9023	61.4154	24.9023	61.5641
26.3672	55.8796	26.3672	55.7851	26.3672	55.8821	26.3672	55.6126	26.3672	55.7933	26.3672	55.3934	26.3672	55.6289	26.3672	55.1825	26.3672	55.4252	26.3672	55.0629	26.3672	55.2467	26.3672	55.136	26.3672	55.1875	26.3672	55.4867	26.3672	55.3535	26.3672	56.1358	26.3672	55.8157	26.3672	57.0244	26.3672	56.5656	26.3672	58.0478	26.3672	57.5192	26.3672	59.1021	26.3672	58.5642	26.3672	60.1074	26.3672	59.6024	26.3672	61.01	26.3672	60.5643	26.3672	61.7746	26.3672	61.4043	26.3672	62.3782	26.3672	62.0933	26.3672	62.8052	26.3672	62.612	26.3672	63.0454	26.3672	62.9479	26.3672	63.0934
27.832	57.9817	27.832	57.9326	27.832	57.9651	27.832	57.8295	27.832	57.883	27.832	57.698	27.832	57.7487	27.832	57.5795	27.832	57.5918	27.832	57.5319	27.832	57.4615	27.832	57.6225	27.832	57.4269	27.832	57.9094	27.832	57.5649	27.832	58.4157	27.832	57.9326	27.832	59.116	27.832	58.5369	27.832	59.9471	27.832	59.3286	27.832	60.8326	27.832	60.226	27.832	61.703	27.832	61.1451	27.832	62.5036	27.832	62.0178	27.832	63.1941	27.832	62.7946	27.832	63.7459	27.832	63.4408	27.832	64.1386	27.832	63.9328	27.832	64.3585	27.832	64.255	27.832	64.398
29.2969	59.5827	29.2969	59.5311	29.2969	59.5784	29.2969	59.4352	29.2969	59.5181	29.2969	59.3193	29.2969	59.4137	29.2969	59.2222	29.2969	59.2918	29.2969	59.1965	29.2969	59.1961	29.2969	59.3023	29.2969	59.1862	29.2969	59.5896	29.2969	59.3282	29.2969	60.0779	29.2969	59.6718	29.2969	60.7444	29.2969	60.2269	29.2969	61.5324	29.2969	60.9554	29.2969	62.3727	29.2969	61.7882	29.2969	63.2005	29.2969	62.65	29.2969	63.9636	29.2969	63.476	29.2969	64.6227	29.2969	64.2167	29.2969	65.1495	29.2969	64.8368	29.2969	65.5236	29.2969	65.3116	29.2969	65.7315	29.2969	65.6246	29.2969	65.7658
30.7617	61.4965	30.7617	61.4689	30.7617	61.482	30.7617	61.407	30.7617	61.4265	30.7617	61.3287	30.7617	61.341	30.7617	61.2624	30.7617	61.247	30.7617	61.247	30.7617	61.1784	30.7617	61.3276	30.7617	61.1801	30.7617	61.5458	30.7617	61.3014	30.7617	61.9249	30.7617	61.5818	30.7617	62.4589	30.7617	62.0349	30.7617	63.1128	30.7617	62.6397	30.7617	63.8333	30.7617	63.3477	30.7617	64.5633	30.7617	64.098	30.7617	65.2517	30.7617	64.8326	30.7617	65.8567	30.7617	65.5027	30.7617	66.3465	30.7617	66.071	30.7617	66.698	30.7617	66.5097	30.7617	66.8954	30.7617	66.7999	30.7617	66.93
32.2266	62.7761	32.2266	62.7443	32.2266	62.7717	32.2266	62.6845	32.2266	62.7315	32.2266	62.6144	32.2266	62.6652	32.2266	62.5614	32.2266	62.5925	32.2266	62.5619	32.2266	62.5442	32.2266	62.6568	32.2266	62.5606	32.2266	62.8828	32.2266	62.6862	32.2266	63.2592	32.2266	62.9569	32.2266	63.779	32.2266	63.3863	32.2266	64.4096	32.2266	63.9573	32.2266	65.1019	32.2266	64.6274	32.2266	65.8031	32.2266	65.3415	32.2266	66.4649	32.2266	66.0446	32.2266	67.0472	32.2266	66.6896	32.2266	67.5189	32.2266	67.2391	32.2266	67.8571	32.2266	67.6653	32.2266	68.0461	32.2266	67.9487	32.2266	68.0773
33.6914	64.2907	33.6914	64.2718	33.6914	64.2847	33.6914	64.2355	33.6914	64.2541	33.6914	64.1972	33.6914	64.2075	33.6914	64.1802	33.6914	64.1617	33.6914	64.2143	33.6914	64.1425	33.6914	64.3318	33.6914	64.183	33.6914	64.5607	33.6914	64.3184	33.6914	64.9155	33.6914	64.5771	33.6914	65.3904	33.6914	64.9704	33.6914	65.9597	33.6914	65.4861	33.6914	66.5838	33.6914	66.0908	33.6914	67.2179	33.6914	66.7389	33.6914	67.8192	33.6914	67.3826	33.6914	68.3507	33.6914	67.9784	33.6914	68.7823	33.6914	68.4906	33.6914	69.0914	33.6914	68.8912	33.6914	69.2622	33.6914	69.1604	33.6914	69.2858
35.1562	65.7931	35.1562	65.7815	35.1562	65.7895	35.1562	65.7611	35.1562	65.7709	35.1562	65.7445	35.1562	65.7443	35.1562	65.7505	35.1562	65.7236	35.1562	65.8027	35.1562	65.7295	35.1562	65.9264	35.1562	65.788	35.1562	66.1437	35.1562	65.9265	35.1562	66.4665	35.1562	66.1675	35.1562	66.8916	35.1562	66.521	35.1562	67.3999	35.1562	66.979	35.1562	67.9595	35.1562	67.5165	35.1562	68.5325	35.1562	68.0967	35.1562	69.0802	35.1562	68.6783	35.1562	69.568	35.1562	69.2219	35.1562	69.9664	35.1562	69.693	35.1562	70.2528	35.1562	70.0641	35.1562	70.4111	35.1562	70.3149	35.1562	70.4324
36.6211	67.1721	36.6211	67.1669	36.6211	67.1659	36.6211	67.1554	36.6211	67.1487	36.6211	67.1483	36.6211	67.1264	36.6211	67.161	36.6211	67.1107	36.6211	67.2131	36.6211	67.1191	36.6211	67.3256	36.6211	67.1731	36.6211	67.5172	36.6211	67.2959	36.6211	67.7992	36.6211	67.5072	36.6211	68.1711	36.6211	67.8168	36.6211	68.6188	36.6211	68.2205	36.6211	69.1166	36.6211	68.6989	36.6211	69.6319	36.6211	69.2209	36.6211	70.1297	36.6211	69.7499	36.6211	70.577	36.6211	70.249	36.6211	70.9448	36.6211	70.6851	36.6211	71.2104	36.6211	71.0308	36.6211	71.3574	36.6211	71.2656	36.6211	71.3764
38.0859	68.2675	38.0859	68.265	38.0859	68.2637	38.0859	68.2605	38.0859	68.2539	38.0859	68.263	38.0859	68.2436	38.0859	68.2861	38.0859	68.2429	38.0859	68.3462	38.0859	68.2667	38.0859	68.4615	38.0859	68.3331	38.0859	68.648	38.0859	68.4615	38.0859	68.9157	38.0859	68.6679	38.0859	69.2646	38.0859	68.9609	38.0859	69.6828	38.0859	69.3367	38.0859	70.1479	38.0859	69.7794	38.0859	70.6303	38.0859	70.2621	38.0859	71.0978	38.0859	70.7526	38.0859	71.5189	38.0859	71.2171	38.0859	71.8662	38.0859	71.6248	38.0859	72.1173	38.0859	71.9492	38.0859	72.2564	38.0859	72.1702	38.0859	72.2745
39.5508	69.2652	39.5508	69.2576	39.5508	69.2693	39.5508	69.2509	39.5508	69.2701	39.5508	69.2532	39.5508	69.2719	39.5508	69.2765	39.5508	69.2833	39.5508	69.3357	39.5508	69.317	39.5508	69.4466	39.5508	69.3885	39.5508	69.6234	39.5508	69.5145	39.5508	69.8749	39.5508	69.7092	39.5508	70.2014	39.5508	69.9804	39.5508	70.5926	39.5508	70.3256	39.5508	71.0282	39.5508	70.7316	39.5508	71.4815	39.5508	71.1752	39.5508	71.9221	39.5508	71.6274	39.5508	72.3204	39.5508	72.0574	39.5508	72.6498	39.5508	72.4362	39.5508	72.8888	39.5508	72.7384	39.5508	73.022	39.5508	72.9444	39.5508	73.041
41.0156	70.6342	41.0156	70.6534	41.0156	70.6205	41.0156	70.6808	41.0156	70.6126	41.0156	70.7222	41.0156	70.6142	41.0156	70.7852	41.0156	70.6321	41.0156	70.8793	41.0156	70.6754	41.0156	71.014	41.0156	70.7551	41.0156	71.1972	41.0156	70.8821	41.0156	71.4333	41.0156	71.0652	41.0156	71.7213	41.0156	71.3086	41.0156	72.0539	41.0156	71.6102	41.0156	72.417	41.0156	71.9605	41.0156	72.7913	41.0156	72.343	41.0156	73.1539	41.0156	72.7363	41.0156	73.4809	41.0156	73.116	41.0156	73.7497	41.0156	73.457	41.0156	73.9406	41.0156	73.7361	41.0156	74.0391	41.0156	73.934	41.0156	74.0372
42.4805	71.5473	42.4805	71.5492	42.4805	71.5465	42.4805	71.5549	42.4805	71.5466	42.4805	71.5701	42.4805	71.5506	42.4805	71.6023	42.4805	71.5643	42.4805	71.6609	42.4805	71.596	42.4805	71.7556	42.4805	71.6561	42.4805	71.8954	42.4805	71.7554	42.4805	72.0869	42.4805	71.9039	42.4805	72.3317	42.4805	72.1081	42.4805	72.6255	42.4805	72.3688	42.4805	72.9568	42.4805	72.6794	42.4805	73.3077	42.4805	73.0257	42.4805	73.6557	42.4805	73.3868	42.4805	73.9764	42.4805	73.7379	42.4805	74.2461	42.4805	74.0533	42.4805	74.4442	42.4805	74.3089	42.4805	74.5551	42.4805	74.4854	42.4805	74.5694
43.9453	72.2968	43.9453	72.3019	43.9453	72.2942	43.9453	72.3117	43.9453	72.2943	43.9453	72.3306	43.9453	72.2997	43.9453	72.3653	43.9453	72.3157	43.9453	72.4237	43.9453	72.3496	43.9453	72.5143	43.9453	72.4103	43.9453	72.6452	43.9453	72.5074	43.9453	72.8224	43.9453	72.6497	43.9453	73.0478	43.9453	72.8428	43.9453	73.318	43.9453	73.0876	43.9453	73.6233	43.9453	73.3782	43.9453	73.9479	43.9453	73.7014	43.9453	74.2716	43.9453	74.0383	43.9453	74.5719	43.9453	74.3659	43.9453	74.8261	43.9453	74.66	43.9453	75.0144	43.9453	74.898	43.9453	75.1213	43.9453	75.0614	43.9453	75.1377
45.4102	72.9462	45.4102	72.9526	45.4102	72.9441	45.4102	72.9652	45.4102	72.9465	45.4102	72.9878	45.4102	72.9558	45.4102	73.0259	45.4102	72.9763	45.4102	73.086	45.4102	73.0143	45.4102	73.1755	45.4102	73.0771	45.4102	73.3011	45.4102	73.1728	45.4102	73.4679	45.4102	73.3088	45.4102	73.6776	45.4102	73.4898	45.4102	73.9274	45.4102	73.7165	45.4102	74.2089	45.4102	73.984	45.4102	74.5083	45.4102	74.2812	45.4102	74.8074	45.4102	74.5912	45.4102	75.0855	45.4102	74.8934	45.4102	75.3215	45.4102	75.1657	45.4102	75.4965	45.4102	75.3868	45.4102	75.5958	45.4102	75.5392	45.4102	75.6107
46.875	73.6028	46.875	73.6096	46.875	73.6016	46.875	73.6233	46.875	73.6062	46.875	73.6472	46.875	73.6188	46.875	73.6857	46.875	73.643	46.875	73.7446	46.875	73.684	46.875	73.8301	46.875	73.748	46.875	73.948	46.875	73.8417	46.875	74.103	46.875	73.9708	46.875	74.2967	46.875	74.1395	46.875	74.5269	46.875	74.3483	46.875	74.7864	46.875	74.5932	46.875	75.0629	46.875	74.8648	46.875	75.3399	46.875	75.1484	46.875	75.5982	46.875	75.4257	46.875	75.8179	46.875	75.6764	46.875	75.9813	46.875	75.8808	46.875	76.0742	46.875	76.022	46.875	76.0883
48.3398	74.1655	48.3398	74.1694	48.3398	74.1688	48.3398	74.182	48.3398	74.1795	48.3398	74.206	48.3398	74.199	48.3398	74.2453	48.3398	74.2303	48.3398	74.3048	48.3398	74.2774	48.3398	74.3895	48.3398	74.3453	48.3398	74.5044	48.3398	74.4393	48.3398	74.653	48.3398	74.5642	48.3398	74.8363	48.3398	74.7233	48.3398	75.0522	48.3398	74.9171	48.3398	75.2941	48.3398	75.1423	48.3398	75.5512	48.3398	75.3909	48.3398	75.8085	48.3398	75.6503	48.3398	76.0488	48.3398	75.9039	48.3398	76.2539	48.3398	76.1335	48.3398	76.4069	48.3398	76.3207	48.3398	76.4947	48.3398	76.4498	48.3398	76.5095
51.2695	75.1169	51.2695	75.1251	51.2695	75.1185	51.2695	75.1439	51.2695	75.13	51.2695	75.1751	51.2695	75.1526	51.2695	75.2211	51.2695	75.1882	51.2695	75.2852	51.2695	75.2397	51.2695	75.3705	51.2695	75.3101	51.2695	75.4802	51.2695	75.403	51.2695	75.6163	51.2695	75.5211	51.2695	75.7794	51.2695	75.6665	51.2695	75.9675	51.2695	75.839	51.2695	76.1758	51.2695	76.0358	51.2695	76.3956	51.2695	76.2507	51.2695	76.6152	51.2695	76.4736	51.2695	76.8203	51.2695	76.6914	51.2695	76.9956	51.2695	76.8887	51.2695	77.1266	51.2695	77.0501	51.2695	77.2017	51.2695	77.1617	51.2695	77.2138
52.7344	75.5508	52.7344	75.5596	52.7344	75.553	52.7344	75.5799	52.7344	75.5661	52.7344	75.6129	52.7344	75.5911	52.7344	75.6604	52.7344	75.6293	52.7344	75.7246	52.7344	75.6826	52.7344	75.8078	52.7344	75.7533	52.7344	75.912	52.7344	75.8437	52.7344	76.0388	52.7344	75.9558	52.7344	76.1883	52.7344	76.0908	52.7344	76.359	52.7344	76.2486	52.7344	76.5468	52.7344	76.4268	52.7344	76.7446	52.7344	76.6202	52.7344	76.9422	52.7344	76.8203	52.7344	77.1271	52.7344	77.0157	52.7344	77.2855	52.7344	77.1929	52.7344	77.4044	52.7344	77.3379	52.7344	77.4729	52.7344	77.4382	52.7344	77.4846
54.1992	75.9439	54.1992	75.9541	54.1992	75.9456	54.1992	75.9763	54.1992	75.9593	54.1992	76.0115	54.1992	75.9854	54.1992	76.0607	54.1992	76.025	54.1992	76.1252	54.1992	76.0792	54.1992	76.2065	54.1992	76.1494	54.1992	76.3061	54.1992	76.2371	54.1992	76.4249	54.1992	76.3435	54.1992	76.5628	54.1992	76.4694	54.1992	76.7186	54.1992	76.6144	54.1992	76.8887	54.1992	76.7767	54.1992	77.0673	54.1992	76.9518	54.1992	77.2454	54.1992	77.1325	54.1992	77.4122	54.1992	77.309	54.1992	77.5553	54.1992	77.4693	54.1992	77.6626	54.1992	77.6008	54.1992	77.7244	54.1992	77.6921	54.1992	77.7346
55.6641	76.3264	55.6641	76.3363	55.6641	76.3285	55.6641	76.3584	55.6641	76.3427	55.6641	76.3934	55.6641	76.3691	55.6641	76.4418	55.6641	76.4085	55.6641	76.5047	55.6641	76.4615	55.6641	76.5829	55.6641	76.529	55.6641	76.6774	55.6641	76.612	55.6641	76.7885	55.6641	76.7114	55.6641	76.9163	55.6641	76.8278	55.6641	77.0594	55.6641	76.9609	55.6641	77.2149	55.6641	77.1089	55.6641	77.3774	55.6641	77.2683	55.6641	77.5395	55.6641	77.4328	55.6641	77.6913	55.6641	77.5937	55.6641	77.8215	55.6641	77.7402	55.6641	77.9193	55.6641	77.8607	55.6641	77.9754	55.6641	77.9447	55.6641	77.9842
58.5938	76.9438	58.5938	76.9554	58.5938	76.9453	58.5938	76.98	58.5938	76.9601	58.5938	77.0174	58.5938	76.9884	58.5938	77.0675	58.5938	77.0301	58.5938	77.13	58.5938	77.0853	58.5938	77.2049	58.5938	77.1539	58.5938	77.292	58.5938	77.2357	58.5938	77.3911	58.5938	77.3302	58.5938	77.5018	58.5938	77.4369	58.5938	77.6231	58.5938	77.5549	58.5938	77.7528	58.5938	77.6822	58.5938	77.8872	58.5938	77.816	58.5938	78.0209	58.5938	77.9516	58.5938	78.1462	58.5938	78.0825	58.5938	78.2543	58.5938	78.2008	58.5938	78.3363	58.5938	78.2974	58.5938	78.3844	58.5938	78.364	58.5938	78.394
60.0586	77.269	60.0586	77.2809	60.0586	77.2701	60.0586	77.3054	60.0586	77.2843	60.0586	77.3423	60.0586	77.3114	60.0586	77.3911	60.0586	77.3512	60.0586	77.451	60.0586	77.4032	60.0586	77.5217	60.0586	77.4669	60.0586	77.6026	60.0586	77.5418	60.0586	77.6933	60.0586	77.6272	60.0586	77.7931	60.0586	77.7225	60.0586	77.9012	60.0586	77.8271	60.0586	78.0158	60.0586	77.9395	60.0586	78.1341	60.0586	78.0577	60.0586	78.2515	60.0586	78.1779	60.0586	78.3614	60.0586	78.2945	60.0586	78.4562	60.0586	78.4005	60.0586	78.5279	60.0586	78.4877	60.0586	78.5695	60.0586	78.5484	60.0586	78.5767
62.9883	77.9809	62.9883	77.987	62.9883	77.9875	62.9883	78.0056	62.9883	78.0066	62.9883	78.0361	62.9883	78.0377	62.9883	78.0778	62.9883	78.08	62.9883	78.1298	62.9883	78.1323	62.9883	78.1909	62.9883	78.1935	62.9883	78.2602	62.9883	78.2622	62.9883	78.3366	62.9883	78.3373	62.9883	78.4193	62.9883	78.4177	62.9883	78.5073	62.9883	78.5024	62.9883	78.5994	62.9883	78.5906	62.9883	78.6937	62.9883	78.6808	62.9883	78.7869	62.9883	78.7707	62.9883	78.8747	62.9883	78.8567	62.9883	78.9511	62.9883	78.934	62.9883	79.0102	62.9883	78.9967	62.9883	79.0465	62.9883	79.0389	62.9883	79.0563
64.4531	78.2234	64.4531	78.2314	64.4531	78.2292	64.4531	78.2528	64.4531	78.2485	64.4531	78.2869	64.4531	78.2807	64.4531	78.3325	64.4531	78.3247	64.4531	78.3882	64.4531	78.3792	64.4531	78.4524	64.4531	78.4426	64.4531	78.5236	64.4531	78.5131	64.4531	78.6002	64.4531	78.589	64.4531	78.681	64.4531	78.669	64.4531	78.7651	64.4531	78.7518	64.4531	78.8511	64.4531	78.8363	64.4531	78.9377	64.4531	78.9212	64.4531	79.0222	64.4531	79.0045	64.4531	79.101	64.4531	79.0831	64.4531	79.1693	64.4531	79.1531	64.4531	79.222	64.4531	79.2096	64.4531	79.2543	64.4531	79.2475	64.4531	79.263
67.3828	78.6538	67.3828	78.6624	67.3828	78.6603	67.3828	78.6855	67.3828	78.6818	67.3828	78.7216	67.3828	78.7172	67.3828	78.769	67.3828	78.7652	67.3828	78.8254	67.3828	78.8234	67.3828	78.8884	67.3828	78.8895	67.3828	78.9557	67.3828	78.961	67.3828	79.0253	67.3828	79.0352	67.3828	79.0955	67.3828	79.1101	67.3828	79.1654	67.3828	79.1837	67.3828	79.234	67.3828	79.2546	67.3828	79.3006	67.3828	79.3216	67.3828	79.3641	67.3828	79.3835	67.3828	79.4227	67.3828	79.4389	67.3828	79.4737	67.3828	79.4858	67.3828	79.5139	67.3828	79.5218	67.3828	79.5402	67.3828	79.5441	67.3828	79.5505
68.8477	78.8622	68.8477	78.8704	68.8477	78.869	68.8477	78.893	68.8477	78.8908	68.8477	78.9284	68.8477	78.9267	68.8477	78.9746	68.8477	78.9747	68.8477	79.0291	68.8477	79.0327	68.8477	79.0891	68.8477	79.0978	68.8477	79.1522	68.8477	79.1672	68.8477	79.2162	68.8477	79.2381	68.8477	79.2794	68.8477	79.308	68.8477	79.3408	68.8477	79.3747	68.8477	79.3996	68.8477	79.4369	68.8477	79.4557	68.8477	79.4935	68.8477	79.5083	68.8477	79.5438	68.8477	79.5565	68.8477	79.5871	68.8477	79.5986	68.8477	79.6224	68.8477	79.6323	68.8477	79.6484	68.8477	79.6552	68.8477	79.6633	68.8477	79.6658
