"SPL Vertical"
"On-Axis"		"10°"		"-10°"		"20°"		"-20°"		"30°"		"-30°"		"40°"		"-40°"		"50°"		"-50°"		"60°"		"-60°"		"70°"		"-70°"		"80°"		"-80°"		"90°"		"-90°"		"100°"		"-100°"		"110°"		"-110°"		"120°"		"-120°"		"130°"		"-130°"		"140°"		"-140°"		"150°"		"-150°"		"160°"		"-160°"		"170°"		"-170°"		"180°"
"Frequency [Hz]"	"Sound Pessure Level [dB]   [2.83  V @ 1. m]"	"Frequency [Hz]"	"Sound Pessure Level [dB]   [2.83  V @ 1. m]"	"Frequency [Hz]"	"Sound Pessure Level [dB]   [2.83  V @ 1. m]"	"Frequency [Hz]"	"Sound Pessure Level [dB]   [2.83  V @ 1. m]"	"Frequency [Hz]"	"Sound Pessure Level [dB]   [2.83  V @ 1. m]"	"Frequency [Hz]"	"Sound Pessure Level [dB]   [2.83  V @ 1. m]"	"Frequency [Hz]"	"Sound Pessure Level [dB]   [2.83  V @ 1. m]"	"Frequency [Hz]"	"Sound Pessure Level [dB]   [2.83  V @ 1. m]"	"Frequency [Hz]"	"Sound Pessure Level [dB]   [2.83  V @ 1. m]"	"Frequency [Hz]"	"Sound Pessure Level [dB]   [2.83  V @ 1. m]"	"Frequency [Hz]"	"Sound Pessure Level [dB]   [2.83  V @ 1. m]"	"Frequency [Hz]"	"Sound Pessure Level [dB]   [2.83  V @ 1. m]"	"Frequency [Hz]"	"Sound Pessure Level [dB]   [2.83  V @ 1. m]"	"Frequency [Hz]"	"Sound Pessure Level [dB]   [2.83  V @ 1. m]"	"Frequency [Hz]"	"Sound Pessure Level [dB]   [2.83  V @ 1. m]"	"Frequency [Hz]"	"Sound Pessure Level [dB]   [2.83  V @ 1. m]"	"Frequency [Hz]"	"Sound Pessure Level [dB]   [2.83  V @ 1. m]"	"Frequency [Hz]"	"Sound Pessure Level [dB]   [2.83  V @ 1. m]"	"Frequency [Hz]"	"Sound Pessure Level [dB]   [2.83  V @ 1. m]"	"Frequency [Hz]"	"Sound Pessure Level [dB]   [2.83  V @ 1. m]"	"Frequency [Hz]"	"Sound Pessure Level [dB]   [2.83  V @ 1. m]"	"Frequency [Hz]"	"Sound Pessure Level [dB]   [2.83  V @ 1. m]"	"Frequency [Hz]"	"Sound Pessure Level [dB]   [2.83  V @ 1. m]"	"Frequency [Hz]"	"Sound Pessure Level [dB]   [2.83  V @ 1. m]"	"Frequency [Hz]"	"Sound Pessure Level [dB]   [2.83  V @ 1. m]"	"Frequency [Hz]"	"Sound Pessure Level [dB]   [2.83  V @ 1. m]"	"Frequency [Hz]"	"Sound Pessure Level [dB]   [2.83  V @ 1. m]"	"Frequency [Hz]"	"Sound Pessure Level [dB]   [2.83  V @ 1. m]"	"Frequency [Hz]"	"Sound Pessure Level [dB]   [2.83  V @ 1. m]"	"Frequency [Hz]"	"Sound Pessure Level [dB]   [2.83  V @ 1. m]"	"Frequency [Hz]"	"Sound Pessure Level [dB]   [2.83  V @ 1. m]"	"Frequency [Hz]"	"Sound Pessure Level [dB]   [2.83  V @ 1. m]"	"Frequency [Hz]"	"Sound Pessure Level [dB]   [2.83  V @ 1. m]"	"Frequency [Hz]"	"Sound Pessure Level [dB]   [2.83  V @ 1. m]"	"Frequency [Hz]"	"Sound Pessure Level [dB]   [2.83  V @ 1. m]"	"Frequency [Hz]"	"Sound Pessure Level [dB]   [2.83  V @ 1. m]"
20.5078	59.5401	20.5078	59.533	20.5078	59.5477	20.5078	59.5263	20.5078	59.5559	20.5078	59.5199	20.5078	59.5648	20.5078	59.5138	20.5078	59.5741	20.5078	59.5082	20.5078	59.5836	20.5078	59.5034	20.5078	59.5932	20.5078	59.4999	20.5078	59.6024	20.5078	59.4983	20.5078	59.6114	20.5078	59.4994	20.5078	59.62	20.5078	59.5038	20.5078	59.6284	20.5078	59.5121	20.5078	59.6366	20.5078	59.5246	20.5078	59.6444	20.5078	59.541	20.5078	59.6514	20.5078	59.5608	20.5078	59.6566	20.5078	59.5824	20.5078	59.6591	20.5078	59.604	20.5078	59.6577	20.5078	59.6238	20.5078	59.6515	20.5078	59.6401
21.9727	63.8364	21.9727	63.8338	21.9727	63.8384	21.9727	63.8306	21.9727	63.8398	21.9727	63.8266	21.9727	63.8408	21.9727	63.8219	21.9727	63.8413	21.9727	63.8165	21.9727	63.8413	21.9727	63.8106	21.9727	63.8409	21.9727	63.8045	21.9727	63.8399	21.9727	63.7984	21.9727	63.8385	21.9727	63.7931	21.9727	63.8367	21.9727	63.7888	21.9727	63.8348	21.9727	63.7862	21.9727	63.8328	21.9727	63.7857	21.9727	63.8309	21.9727	63.7872	21.9727	63.8292	21.9727	63.7908	21.9727	63.8274	21.9727	63.796	21.9727	63.8254	21.9727	63.8021	21.9727	63.8227	21.9727	63.8084	21.9727	63.819	21.9727	63.8141
23.4375	66.5758	23.4375	66.566	23.4375	66.582	23.4375	66.5526	23.4375	66.5847	23.4375	66.5358	23.4375	66.584	23.4375	66.5159	23.4375	66.5801	23.4375	66.4932	23.4375	66.5729	23.4375	66.4684	23.4375	66.5625	23.4375	66.4424	23.4375	66.5491	23.4375	66.4162	23.4375	66.5329	23.4375	66.3907	23.4375	66.5142	23.4375	66.3671	23.4375	66.4935	23.4375	66.3466	23.4375	66.4715	23.4375	66.33	23.4375	66.4487	23.4375	66.3181	23.4375	66.4258	23.4375	66.3112	23.4375	66.4036	23.4375	66.3095	23.4375	66.3825	23.4375	66.3127	23.4375	66.3632	23.4375	66.3202	23.4375	66.346	23.4375	66.3315
24.9023	69.2396	24.9023	69.2314	24.9023	69.2419	24.9023	69.2176	24.9023	69.2379	24.9023	69.1987	24.9023	69.2276	24.9023	69.1752	24.9023	69.2112	24.9023	69.1478	24.9023	69.1889	24.9023	69.1171	24.9023	69.1615	24.9023	69.0839	24.9023	69.1296	24.9023	69.0491	24.9023	69.0942	24.9023	69.0135	24.9023	69.0566	24.9023	68.9783	24.9023	69.0181	24.9023	68.9445	24.9023	68.98	24.9023	68.9132	24.9023	68.9438	24.9023	68.8854	24.9023	68.9107	24.9023	68.8618	24.9023	68.8819	24.9023	68.8434	24.9023	68.8582	24.9023	68.8305	24.9023	68.8403	24.9023	68.8236	24.9023	68.8284	24.9023	68.8229
26.3672	71.5917	26.3672	71.5847	26.3672	71.5923	26.3672	71.5714	26.3672	71.5863	26.3672	71.5522	26.3672	71.5736	26.3672	71.5274	26.3672	71.5542	26.3672	71.4973	26.3672	71.5285	26.3672	71.4625	26.3672	71.4968	26.3672	71.4237	26.3672	71.4599	26.3672	71.3817	26.3672	71.4186	26.3672	71.3377	26.3672	71.3741	26.3672	71.2928	26.3672	71.3278	26.3672	71.2485	26.3672	71.2813	26.3672	71.2063	26.3672	71.236	26.3672	71.1678	26.3672	71.1938	26.3672	71.1344	26.3672	71.156	26.3672	71.1075	26.3672	71.1243	26.3672	71.0882	26.3672	71.0997	26.3672	71.0776	26.3672	71.0834	26.3672	71.0759
27.832	73.4944	27.832	73.4876	27.832	73.4933	27.832	73.4733	27.832	73.4843	27.832	73.4516	27.832	73.4676	27.832	73.423	27.832	73.4433	27.832	73.388	27.832	73.4119	27.832	73.3472	27.832	73.3738	27.832	73.3017	27.832	73.33	27.832	73.2524	27.832	73.2816	27.832	73.2008	27.832	73.2299	27.832	73.1483	27.832	73.1764	27.832	73.0965	27.832	73.1228	27.832	73.0471	27.832	73.0711	27.832	73.002	27.832	73.0229	27.832	72.9628	27.832	72.9802	27.832	72.9311	27.832	72.9445	27.832	72.9081	27.832	72.9173	27.832	72.8949	27.832	72.8995	27.832	72.892
29.2969	75.1747	29.2969	75.1651	29.2969	75.1761	29.2969	75.1474	29.2969	75.1689	29.2969	75.1222	29.2969	75.1533	29.2969	75.0898	29.2969	75.1294	29.2969	75.051	29.2969	75.0975	29.2969	75.0066	29.2969	75.0583	29.2969	74.9574	29.2969	75.0126	29.2969	74.9048	29.2969	74.9617	29.2969	74.85	29.2969	74.907	29.2969	74.7947	29.2969	74.8501	29.2969	74.7406	29.2969	74.7928	29.2969	74.6895	29.2969	74.7372	29.2969	74.6433	29.2969	74.685	29.2969	74.6035	29.2969	74.6384	29.2969	74.5719	29.2969	74.5989	29.2969	74.5497	29.2969	74.5681	29.2969	74.5379	29.2969	74.5473	29.2969	74.5371
30.7617	76.6463	30.7617	76.6381	30.7617	76.6451	30.7617	76.6207	30.7617	76.6346	30.7617	76.5945	30.7617	76.615	30.7617	76.56	30.7617	76.5867	30.7617	76.518	30.7617	76.5503	30.7617	76.4696	30.7617	76.5067	30.7617	76.4159	30.7617	76.4569	30.7617	76.3586	30.7617	76.4023	30.7617	76.2991	30.7617	76.3445	30.7617	76.2394	30.7617	76.285	30.7617	76.1813	30.7617	76.2257	30.7617	76.1268	30.7617	76.1686	30.7617	76.0777	30.7617	76.1155	30.7617	76.0359	30.7617	76.0682	30.7617	76.0028	30.7617	76.0284	30.7617	75.9797	30.7617	75.9975	30.7617	75.9674	30.7617	75.9765	30.7617	75.9663
32.2266	77.8658	32.2266	77.8582	32.2266	77.863	32.2266	77.8404	32.2266	77.8499	32.2266	77.8128	32.2266	77.8266	32.2266	77.776	32.2266	77.7937	32.2266	77.7309	32.2266	77.7517	32.2266	77.6785	32.2266	77.7017	32.2266	77.6202	32.2266	77.6448	32.2266	77.5575	32.2266	77.5825	32.2266	77.492	32.2266	77.5166	32.2266	77.4257	32.2266	77.4489	32.2266	77.3606	32.2266	77.3817	32.2266	77.2987	32.2266	77.3172	32.2266	77.2421	32.2266	77.2577	32.2266	77.1928	32.2266	77.2053	32.2266	77.1525	32.2266	77.1619	32.2266	77.123	32.2266	77.1292	32.2266	77.1054	32.2266	77.1085	32.2266	77.1004
33.6914	78.828	33.6914	78.8177	33.6914	78.8272	33.6914	78.7966	33.6914	78.8153	33.6914	78.7653	33.6914	78.7924	33.6914	78.7244	33.6914	78.7591	33.6914	78.675	33.6914	78.716	33.6914	78.6182	33.6914	78.6643	33.6914	78.5557	33.6914	78.6052	33.6914	78.4891	33.6914	78.5403	33.6914	78.4202	33.6914	78.4717	33.6914	78.3513	33.6914	78.4014	33.6914	78.2844	33.6914	78.3317	33.6914	78.2217	33.6914	78.2649	33.6914	78.1653	33.6914	78.2032	33.6914	78.1171	33.6914	78.1487	33.6914	78.0788	33.6914	78.1033	33.6914	78.0517	33.6914	78.0684	33.6914	78.0368	33.6914	78.0453	33.6914	78.0346
35.1562	79.7291	35.1562	79.7193	35.1562	79.7268	35.1562	79.6978	35.1562	79.7124	35.1562	79.665	35.1562	79.6863	35.1562	79.6218	35.1562	79.6488	35.1562	79.5691	35.1562	79.6008	35.1562	79.5082	35.1562	79.5435	35.1562	79.4407	35.1562	79.4784	35.1562	79.3684	35.1562	79.4071	35.1562	79.2934	35.1562	79.3317	35.1562	79.2177	35.1562	79.2546	35.1562	79.1438	35.1562	79.1781	35.1562	79.0739	35.1562	79.1048	35.1562	79.0104	35.1562	79.0372	35.1562	78.9554	35.1562	78.9776	35.1562	78.9111	35.1562	78.9281	35.1562	78.879	35.1562	78.8905	35.1562	78.8604	35.1562	78.8662	35.1562	78.856
36.6211	80.4357	36.6211	80.4269	36.6211	80.432	36.6211	80.4059	36.6211	80.4158	36.6211	80.3732	36.6211	80.3875	36.6211	80.3297	36.6211	80.3478	36.6211	80.2764	36.6211	80.2975	36.6211	80.2148	36.6211	80.238	36.6211	80.1465	36.6211	80.171	36.6211	80.0734	36.6211	80.0982	36.6211	79.9977	36.6211	80.0219	36.6211	79.9215	36.6211	79.9445	36.6211	79.8473	36.6211	79.8685	36.6211	79.7773	36.6211	79.7962	36.6211	79.7139	36.6211	79.7301	36.6211	79.6591	36.6211	79.6724	36.6211	79.6148	36.6211	79.625	36.6211	79.5826	36.6211	79.5894	36.6211	79.5635	36.6211	79.5669	36.6211	79.5582
38.0859	81.0159	38.0859	81.0052	38.0859	81.0132	38.0859	80.9816	38.0859	80.9972	38.0859	80.9456	38.0859	80.9683	38.0859	80.8982	38.0859	80.9272	38.0859	80.8408	38.0859	80.8748	38.0859	80.7748	38.0859	80.8127	38.0859	80.7022	38.0859	80.7425	38.0859	80.6251	38.0859	80.6664	38.0859	80.5456	38.0859	80.5866	38.0859	80.4662	38.0859	80.5057	38.0859	80.3894	38.0859	80.4262	38.0859	80.3176	38.0859	80.3508	38.0859	80.253	38.0859	80.2818	38.0859	80.1977	38.0859	80.2215	38.0859	80.1535	38.0859	80.1718	38.0859	80.1218	38.0859	80.1342	38.0859	80.1036	38.0859	80.1099	38.0859	80.0996
39.5508	81.5763	39.5508	81.567	39.5508	81.5719	39.5508	81.5444	39.5508	81.554	39.5508	81.509	39.5508	81.5231	39.5508	81.4616	39.5508	81.4799	39.5508	81.4036	39.5508	81.4255	39.5508	81.3365	39.5508	81.3615	39.5508	81.2623	39.5508	81.2896	39.5508	81.1831	39.5508	81.212	39.5508	81.1014	39.5508	81.1309	39.5508	81.0196	39.5508	81.0489	39.5508	80.9404	39.5508	80.9686	39.5508	80.8663	39.5508	80.8926	39.5508	80.7996	39.5508	80.8232	39.5508	80.7425	39.5508	80.7626	39.5508	80.6969	39.5508	80.7127	39.5508	80.6641	39.5508	80.6751	39.5508	80.6452	39.5508	80.6508	39.5508	80.6408
41.0156	82.0292	41.0156	82.0196	41.0156	82.0239	41.0156	81.9953	41.0156	82.004	41.0156	81.9568	41.0156	81.9697	41.0156	81.905	41.0156	81.9218	41.0156	81.8412	41.0156	81.8616	41.0156	81.767	41.0156	81.7905	41.0156	81.6844	41.0156	81.7104	41.0156	81.5957	41.0156	81.6235	41.0156	81.5035	41.0156	81.5324	41.0156	81.4105	41.0156	81.4399	41.0156	81.3198	41.0156	81.3488	41.0156	81.2344	41.0156	81.2621	41.0156	81.1569	41.0156	81.1825	41.0156	81.0903	41.0156	81.1127	41.0156	81.0368	41.0156	81.0549	41.0156	80.9982	41.0156	81.011	41.0156	80.976	41.0156	80.9826	41.0156	80.9707
42.4805	82.6774	42.4805	82.6702	42.4805	82.6712	42.4805	82.6499	42.4805	82.6519	42.4805	82.617	42.4805	82.6198	42.4805	82.5725	42.4805	82.5756	42.4805	82.5174	42.4805	82.5205	42.4805	82.4534	42.4805	82.4559	42.4805	82.3821	42.4805	82.3838	42.4805	82.3058	42.4805	82.3062	42.4805	82.2268	42.4805	82.2257	42.4805	82.1474	42.4805	82.1447	42.4805	82.0703	42.4805	82.0661	42.4805	81.9977	42.4805	81.9923	42.4805	81.9319	42.4805	81.9257	42.4805	81.875	42.4805	81.8687	42.4805	81.8284	42.4805	81.8228	42.4805	81.7938	42.4805	81.7895	42.4805	81.772	42.4805	81.7697	42.4805	81.7639
43.9453	82.9315	43.9453	82.9209	43.9453	82.9279	43.9453	82.8965	43.9453	82.9102	43.9453	82.8589	43.9453	82.879	43.9453	82.8091	43.9453	82.835	43.9453	82.7485	43.9453	82.7795	43.9453	82.679	43.9453	82.7141	43.9453	82.6027	43.9453	82.6409	43.9453	82.5219	43.9453	82.5622	43.9453	82.4394	43.9453	82.4804	43.9453	82.3576	43.9453	82.3982	43.9453	82.2794	43.9453	82.3183	43.9453	82.2071	43.9453	82.2431	43.9453	82.1429	43.9453	82.175	43.9453	82.0888	43.9453	82.1159	43.9453	82.0462	43.9453	82.0673	43.9453	82.0161	43.9453	82.0307	43.9453	81.9994	43.9453	82.0068	43.9453	81.9963
45.4102	83.1933	45.4102	83.1812	45.4102	83.1909	45.4102	83.1549	45.4102	83.174	45.4102	83.1152	45.4102	83.1433	45.4102	83.0633	45.4102	83.0996	45.4102	83.0006	45.4102	83.0442	45.4102	82.9291	45.4102	82.9789	45.4102	82.8512	45.4102	82.9059	45.4102	82.7693	45.4102	82.8275	45.4102	82.6862	45.4102	82.7463	45.4102	82.6047	45.4102	82.6649	45.4102	82.5274	45.4102	82.586	45.4102	82.4569	45.4102	82.512	45.4102	82.3952	45.4102	82.4449	45.4102	82.344	45.4102	82.3865	45.4102	82.3047	45.4102	82.3382	45.4102	82.278	45.4102	82.3012	45.4102	82.2643	45.4102	82.2761	45.4102	82.2637
46.875	83.4272	46.875	83.4166	46.875	83.4231	46.875	83.3915	46.875	83.4043	46.875	83.3526	46.875	83.3716	46.875	83.3011	46.875	83.3259	46.875	83.2386	46.875	83.2686	46.875	83.1671	46.875	83.2016	46.875	83.0889	46.875	83.1272	46.875	83.0067	46.875	83.0479	46.875	82.9233	46.875	82.9663	46.875	82.8415	46.875	82.8851	46.875	82.7642	46.875	82.807	46.875	82.6936	46.875	82.7343	46.875	82.632	46.875	82.669	46.875	82.5808	46.875	82.6128	46.875	82.5413	46.875	82.5667	46.875	82.5142	46.875	82.5319	46.875	82.4997	46.875	82.5088	46.875	82.498
48.3398	83.68	48.3398	83.6675	48.3398	83.6771	48.3398	83.6401	48.3398	83.659	48.3398	83.5984	48.3398	83.6264	48.3398	83.5437	48.3398	83.5803	48.3398	83.4779	48.3398	83.5223	48.3398	83.4031	48.3398	83.4543	48.3398	83.3219	48.3398	83.3788	48.3398	83.2371	48.3398	83.2984	48.3398	83.1517	48.3398	83.2157	48.3398	83.0687	48.3398	83.1337	48.3398	82.9908	48.3398	83.0547	48.3398	82.9206	48.3398	82.9813	48.3398	82.86	48.3398	82.9152	48.3398	82.8106	48.3398	82.8581	48.3398	82.7732	48.3398	82.811	48.3398	82.7485	48.3398	82.7748	48.3398	82.7365	48.3398	82.75	48.3398	82.7371
51.2695	84.0628	51.2695	84.0477	51.2695	84.0616	51.2695	84.0167	51.2695	84.0442	51.2695	83.9707	51.2695	84.0112	51.2695	83.9114	51.2695	83.9638	51.2695	83.8406	51.2695	83.9039	51.2695	83.7608	51.2695	83.8335	51.2695	83.6749	51.2695	83.7554	51.2695	83.5858	51.2695	83.6723	51.2695	83.4969	51.2695	83.5874	51.2695	83.4114	51.2695	83.5035	51.2695	83.3323	51.2695	83.4232	51.2695	83.2621	51.2695	83.3489	51.2695	83.203	51.2695	83.2823	51.2695	83.1562	51.2695	83.2247	51.2695	83.1223	51.2695	83.1769	51.2695	83.1014	51.2695	83.1394	51.2695	83.0932	51.2695	83.1127	51.2695	83.0972
52.7344	84.3046	52.7344	84.2916	52.7344	84.3005	52.7344	84.262	52.7344	84.2796	52.7344	84.2168	52.7344	84.2427	52.7344	84.1574	52.7344	84.1913	52.7344	84.0861	52.7344	84.1274	52.7344	84.0053	52.7344	84.0534	52.7344	83.9182	52.7344	83.9721	52.7344	83.8278	52.7344	83.8867	52.7344	83.7377	52.7344	83.8002	52.7344	83.6512	52.7344	83.7158	52.7344	83.5714	52.7344	83.6362	52.7344	83.5008	52.7344	83.5634	52.7344	83.4414	52.7344	83.4993	52.7344	83.3943	52.7344	83.4448	52.7344	83.3599	52.7344	83.4005	52.7344	83.3382	52.7344	83.3666	52.7344	83.3286	52.7344	83.3432	52.7344	83.3304
54.1992	84.473	54.1992	84.4644	54.1992	84.4636	54.1992	84.4378	54.1992	84.4365	54.1992	84.3943	54.1992	84.3929	54.1992	84.3354	54.1992	84.3343	54.1992	84.2632	54.1992	84.263	54.1992	84.1805	54.1992	84.1818	54.1992	84.0905	54.1992	84.0937	54.1992	83.9966	54.1992	84.0021	54.1992	83.9024	54.1992	83.9105	54.1992	83.8115	54.1992	83.8221	54.1992	83.7271	54.1992	83.74	54.1992	83.6519	54.1992	83.6664	54.1992	83.5878	54.1992	83.6029	54.1992	83.536	54.1992	83.5505	54.1992	83.4969	54.1992	83.5094	54.1992	83.4704	54.1992	83.4796	54.1992	83.4559	54.1992	83.4608	54.1992	83.4529
55.6641	84.623	55.6641	84.6135	55.6641	84.6145	55.6641	84.5862	55.6641	84.5883	55.6641	84.5419	55.6641	84.5456	55.6641	84.4821	55.6641	84.4877	55.6641	84.4089	55.6641	84.4169	55.6641	84.3249	55.6641	84.3357	55.6641	84.2333	55.6641	84.2471	55.6641	84.1375	55.6641	84.1543	55.6641	84.0411	55.6641	84.0607	55.6641	83.9479	55.6641	83.9696	55.6641	83.8609	55.6641	83.884	55.6641	83.7831	55.6641	83.8065	55.6641	83.7165	55.6641	83.7389	55.6641	83.6623	55.6641	83.6824	55.6641	83.6212	55.6641	83.6376	55.6641	83.5932	55.6641	83.6048	55.6641	83.5779	55.6641	83.5839	55.6641	83.5749
58.5938	84.8317	58.5938	84.816	58.5938	84.8289	58.5938	84.7823	58.5938	84.8077	58.5938	84.7317	58.5938	84.7688	58.5938	84.6659	58.5938	84.7137	58.5938	84.5873	58.5938	84.6444	58.5938	84.4987	58.5938	84.5638	58.5938	84.4032	58.5938	84.4749	58.5938	84.3046	58.5938	84.3812	58.5938	84.2066	58.5938	84.2864	58.5938	84.1128	58.5938	84.194	58.5938	84.0266	58.5938	84.107	58.5938	83.9507	58.5938	84.0278	58.5938	83.8874	58.5938	83.9583	58.5938	83.8377	58.5938	83.8993	58.5938	83.802	58.5938	83.8514	58.5938	83.78	58.5938	83.8146	58.5938	83.771	58.5938	83.7889	58.5938	83.7742
60.0586	85.0009	60.0586	84.9872	60.0586	84.9957	60.0586	84.9551	60.0586	84.9717	60.0586	84.9056	60.0586	84.9298	60.0586	84.8404	60.0586	84.8714	60.0586	84.7619	60.0586	84.7989	60.0586	84.6728	60.0586	84.7149	60.0586	84.5765	60.0586	84.6227	60.0586	84.4764	60.0586	84.5258	60.0586	84.3763	60.0586	84.4279	60.0586	84.2797	60.0586	84.3325	60.0586	84.19	60.0586	84.2426	60.0586	84.11	60.0586	84.1607	60.0586	84.0418	60.0586	84.0888	60.0586	83.9868	60.0586	84.028	60.0586	83.9457	60.0586	83.979	60.0586	83.9185	60.0586	83.942	60.0586	83.9051	60.0586	83.9172	60.0586	83.9048
62.9883	85.169	62.9883	85.1535	62.9883	85.1654	62.9883	85.1195	62.9883	85.1428	62.9883	85.0684	62.9883	85.1023	62.9883	85.0023	62.9883	85.0458	62.9883	84.9241	62.9883	84.9757	62.9883	84.837	62.9883	84.8951	62.9883	84.7449	62.9883	84.8078	62.9883	84.6514	62.9883	84.7173	62.9883	84.5605	62.9883	84.6276	62.9883	84.4755	62.9883	84.5419	62.9883	84.3994	62.9883	84.4631	62.9883	84.3341	62.9883	84.3933	62.9883	84.2809	62.9883	84.3337	62.9883	84.24	62.9883	84.2848	62.9883	84.2112	62.9883	84.2462	62.9883	84.1934	62.9883	84.2175	62.9883	84.1858	62.9883	84.1981	62.9883	84.1875
64.4531	85.2536	64.4531	85.237	64.4531	85.2502	64.4531	85.2011	64.4531	85.2271	64.4531	85.1473	64.4531	85.1855	64.4531	85.078	64.4531	85.1273	64.4531	84.9961	64.4531	85.0553	64.4531	84.9052	64.4531	84.9728	64.4531	84.8094	64.4531	84.8837	64.4531	84.7127	64.4531	84.7918	64.4531	84.6194	64.4531	84.7012	64.4531	84.533	64.4531	84.6152	64.4531	84.4566	64.4531	84.5368	64.4531	84.3923	64.4531	84.4678	64.4531	84.3411	64.4531	84.4092	64.4531	84.3031	64.4531	84.3612	64.4531	84.2776	64.4531	84.3234	64.4531	84.2632	64.4531	84.2948	64.4531	84.2586	64.4531	84.2747	64.4531	84.2626
67.3828	85.3136	67.3828	85.2972	67.3828	85.31	67.3828	85.2614	67.3828	85.2868	67.3828	85.2077	67.3828	85.2451	67.3828	85.1383	67.3828	85.187	67.3828	85.0565	67.3828	85.1156	67.3828	84.9659	67.3828	85.0342	67.3828	84.8707	67.3828	84.9469	67.3828	84.7753	67.3828	84.8578	67.3828	84.6842	67.3828	84.771	67.3828	84.6011	67.3828	84.6899	67.3828	84.5293	67.3828	84.6172	67.3828	84.4707	67.3828	84.5546	67.3828	84.426	67.3828	84.5026	67.3828	84.3949	67.3828	84.461	67.3828	84.3761	67.3828	84.4285	67.3828	84.3675	67.3828	84.4039	67.3828	84.3672	67.3828	84.3858	67.3828	84.3736
68.8477	85.3874	68.8477	85.3689	68.8477	85.3854	68.8477	85.3304	68.8477	85.3633	68.8477	85.2734	68.8477	85.3224	68.8477	85.2003	68.8477	85.2649	68.8477	85.1142	68.8477	85.1938	68.8477	85.0191	68.8477	85.1125	68.8477	84.9195	68.8477	85.0252	68.8477	84.8201	68.8477	84.936	68.8477	84.7259	68.8477	84.849	68.8477	84.641	68.8477	84.7678	68.8477	84.5687	68.8477	84.695	68.8477	84.5113	68.8477	84.6323	68.8477	84.4694	68.8477	84.58	68.8477	84.4423	68.8477	84.5377	68.8477	84.4283	68.8477	84.504	68.8477	84.4248	68.8477	84.4774	68.8477	84.4296	68.8477	84.4565	68.8477	84.4405
