"SPL Vertical"
"On-Axis"		"10°"		"-10°"		"20°"		"-20°"		"30°"		"-30°"		"40°"		"-40°"		"50°"		"-50°"		"60°"		"-60°"		"70°"		"-70°"		"80°"		"-80°"		"90°"		"-90°"		"100°"		"-100°"		"110°"		"-110°"		"120°"		"-120°"		"130°"		"-130°"		"140°"		"-140°"		"150°"		"-150°"		"160°"		"-160°"		"170°"		"-170°"		"180°"
"Frequency / Hz"	"Sound Pressure Level / dB (re 20 µPa/V)  [2.83V at 1m]"	"Frequency / Hz"	"Sound Pressure Level / dB (re 20 µPa/V)  [2.83V at 1m]"	"Frequency / Hz"	"Sound Pressure Level / dB (re 20 µPa/V)  [2.83V at 1m]"	"Frequency / Hz"	"Sound Pressure Level / dB (re 20 µPa/V)  [2.83V at 1m]"	"Frequency / Hz"	"Sound Pressure Level / dB (re 20 µPa/V)  [2.83V at 1m]"	"Frequency / Hz"	"Sound Pressure Level / dB (re 20 µPa/V)  [2.83V at 1m]"	"Frequency / Hz"	"Sound Pressure Level / dB (re 20 µPa/V)  [2.83V at 1m]"	"Frequency / Hz"	"Sound Pressure Level / dB (re 20 µPa/V)  [2.83V at 1m]"	"Frequency / Hz"	"Sound Pressure Level / dB (re 20 µPa/V)  [2.83V at 1m]"	"Frequency / Hz"	"Sound Pressure Level / dB (re 20 µPa/V)  [2.83V at 1m]"	"Frequency / Hz"	"Sound Pressure Level / dB (re 20 µPa/V)  [2.83V at 1m]"	"Frequency / Hz"	"Sound Pressure Level / dB (re 20 µPa/V)  [2.83V at 1m]"	"Frequency / Hz"	"Sound Pressure Level / dB (re 20 µPa/V)  [2.83V at 1m]"	"Frequency / Hz"	"Sound Pressure Level / dB (re 20 µPa/V)  [2.83V at 1m]"	"Frequency / Hz"	"Sound Pressure Level / dB (re 20 µPa/V)  [2.83V at 1m]"	"Frequency / Hz"	"Sound Pressure Level / dB (re 20 µPa/V)  [2.83V at 1m]"	"Frequency / Hz"	"Sound Pressure Level / dB (re 20 µPa/V)  [2.83V at 1m]"	"Frequency / Hz"	"Sound Pressure Level / dB (re 20 µPa/V)  [2.83V at 1m]"	"Frequency / Hz"	"Sound Pressure Level / dB (re 20 µPa/V)  [2.83V at 1m]"	"Frequency / Hz"	"Sound Pressure Level / dB (re 20 µPa/V)  [2.83V at 1m]"	"Frequency / Hz"	"Sound Pressure Level / dB (re 20 µPa/V)  [2.83V at 1m]"	"Frequency / Hz"	"Sound Pressure Level / dB (re 20 µPa/V)  [2.83V at 1m]"	"Frequency / Hz"	"Sound Pressure Level / dB (re 20 µPa/V)  [2.83V at 1m]"	"Frequency / Hz"	"Sound Pressure Level / dB (re 20 µPa/V)  [2.83V at 1m]"	"Frequency / Hz"	"Sound Pressure Level / dB (re 20 µPa/V)  [2.83V at 1m]"	"Frequency / Hz"	"Sound Pressure Level / dB (re 20 µPa/V)  [2.83V at 1m]"	"Frequency / Hz"	"Sound Pressure Level / dB (re 20 µPa/V)  [2.83V at 1m]"	"Frequency / Hz"	"Sound Pressure Level / dB (re 20 µPa/V)  [2.83V at 1m]"	"Frequency / Hz"	"Sound Pressure Level / dB (re 20 µPa/V)  [2.83V at 1m]"	"Frequency / Hz"	"Sound Pressure Level / dB (re 20 µPa/V)  [2.83V at 1m]"	"Frequency / Hz"	"Sound Pressure Level / dB (re 20 µPa/V)  [2.83V at 1m]"	"Frequency / Hz"	"Sound Pressure Level / dB (re 20 µPa/V)  [2.83V at 1m]"	"Frequency / Hz"	"Sound Pressure Level / dB (re 20 µPa/V)  [2.83V at 1m]"	"Frequency / Hz"	"Sound Pressure Level / dB (re 20 µPa/V)  [2.83V at 1m]"	"Frequency / Hz"	"Sound Pressure Level / dB (re 20 µPa/V)  [2.83V at 1m]"	"Frequency / Hz"	"Sound Pressure Level / dB (re 20 µPa/V)  [2.83V at 1m]"
20.5078	59.1948	20.5078	59.1804	20.5078	59.1941	20.5078	59.1515	20.5078	59.1783	20.5078	59.1089	20.5078	59.1481	20.5078	59.0544	20.5078	59.1048	20.5078	58.9898	20.5078	59.0498	20.5078	58.9173	20.5078	58.9851	20.5078	58.8393	20.5078	58.913	20.5078	58.7585	20.5078	58.8359	20.5078	58.6773	20.5078	58.7561	20.5078	58.5984	20.5078	58.6761	20.5078	58.524	20.5078	58.5983	20.5078	58.4563	20.5078	58.5248	20.5078	58.3973	20.5078	58.4578	20.5078	58.3483	20.5078	58.3991	20.5078	58.3107	20.5078	58.3501	20.5078	58.2853	20.5078	58.3122	20.5078	58.2726	20.5078	58.2863	20.5078	58.273
21.2402	59.5448	21.2402	59.541	21.2402	59.5365	21.2402	59.5254	21.2402	59.5165	21.2402	59.4984	21.2402	59.4854	21.2402	59.461	21.2402	59.4443	21.2402	59.4145	21.2402	59.3947	21.2402	59.3604	21.2402	59.3383	21.2402	59.3007	21.2402	59.2769	21.2402	59.2372	21.2402	59.2125	21.2402	59.1721	21.2402	59.1473	21.2402	59.1074	21.2402	59.0832	21.2402	59.0452	21.2402	59.0221	21.2402	58.9872	21.2402	58.9659	21.2402	58.9351	21.2402	58.9162	21.2402	58.8903	21.2402	58.8742	21.2402	58.8538	21.2402	58.8411	21.2402	58.8265	21.2402	58.8177	21.2402	58.8088	21.2402	58.8043	21.2402	58.8014
21.9727	60.0779	21.9727	60.0742	21.9727	60.0726	21.9727	60.0614	21.9727	60.0585	21.9727	60.04	21.9727	60.0362	21.9727	60.0107	21.9727	60.0065	21.9727	59.9746	21.9727	59.9706	21.9727	59.9331	21.9727	59.9298	21.9727	59.8876	21.9727	59.8858	21.9727	59.8399	21.9727	59.84	21.9727	59.7919	21.9727	59.7942	21.9727	59.7453	21.9727	59.7499	21.9727	59.7017	21.9727	59.7083	21.9727	59.6626	21.9727	59.6706	21.9727	59.6289	21.9727	59.6377	21.9727	59.6015	21.9727	59.6101	21.9727	59.5806	21.9727	59.588	21.9727	59.5663	21.9727	59.5718	21.9727	59.5584	21.9727	59.5614	21.9727	59.5569
22.7051	60.3933	22.7051	60.3869	22.7051	60.3867	22.7051	60.3678	22.7051	60.3672	22.7051	60.3367	22.7051	60.3354	22.7051	60.2947	22.7051	60.2924	22.7051	60.2433	22.7051	60.2396	22.7051	60.1842	22.7051	60.1788	22.7051	60.1194	22.7051	60.1122	22.7051	60.051	22.7051	60.042	22.7051	59.981	22.7051	59.9707	22.7051	59.9118	22.7051	59.9004	22.7051	59.8453	22.7051	59.8335	22.7051	59.7836	22.7051	59.7719	22.7051	59.7282	22.7051	59.7173	22.7051	59.6808	22.7051	59.6712	22.7051	59.6423	22.7051	59.6347	22.7051	59.6138	22.7051	59.6085	22.7051	59.5959	22.7051	59.5932	22.7051	59.5889
23.4375	61.0272	23.4375	61.0214	23.4375	61.0174	23.4375	61.0002	23.4375	60.9923	23.4375	60.9644	23.4375	60.9527	23.4375	60.915	23.4375	60.8998	23.4375	60.8539	23.4375	60.8355	23.4375	60.7828	23.4375	60.7617	23.4375	60.704	23.4375	60.6807	23.4375	60.6198	23.4375	60.595	23.4375	60.5329	23.4375	60.5071	23.4375	60.4457	23.4375	60.4197	23.4375	60.3607	23.4375	60.3354	23.4375	60.2806	23.4375	60.2567	23.4375	60.2075	23.4375	60.1859	23.4375	60.1436	23.4375	60.1252	23.4375	60.0911	23.4375	60.0765	23.4375	60.0514	23.4375	60.0413	23.4375	60.0259	23.4375	60.0208	23.4375	60.0156
24.1699	61.5286	24.1699	61.5207	24.1699	61.5222	24.1699	61.4991	24.1699	61.5017	24.1699	61.4646	24.1699	61.4675	24.1699	61.4185	24.1699	61.4208	24.1699	61.3624	24.1699	61.3631	24.1699	61.2982	24.1699	61.2962	24.1699	61.2279	24.1699	61.2223	24.1699	61.1535	24.1699	61.1439	24.1699	61.0774	24.1699	61.0635	24.1699	61.0016	24.1699	60.9836	24.1699	60.9282	24.1699	60.9069	24.1699	60.8593	24.1699	60.8359	24.1699	60.7966	24.1699	60.7727	24.1699	60.7417	24.1699	60.7193	24.1699	60.6963	24.1699	60.6772	24.1699	60.6616	24.1699	60.6477	24.1699	60.6387	24.1699	60.6313	24.1699	60.6284
25.6348	62.5488	25.6348	62.5375	25.6348	62.552	25.6348	62.5185	25.6348	62.5468	25.6348	62.4923	25.6348	62.5336	25.6348	62.46	25.6348	62.5128	25.6348	62.4226	25.6348	62.4852	25.6348	62.3814	25.6348	62.4518	25.6348	62.3379	25.6348	62.4138	25.6348	62.2935	25.6348	62.3725	25.6348	62.2497	25.6348	62.3295	25.6348	62.2079	25.6348	62.286	25.6348	62.1695	25.6348	62.2435	25.6348	62.1356	25.6348	62.2032	25.6348	62.1069	25.6348	62.1662	25.6348	62.0841	25.6348	62.1335	25.6348	62.0676	25.6348	62.1058	25.6348	62.0577	25.6348	62.0836	25.6348	62.0544	25.6348	62.0675	25.6348	62.0577
26.3672	62.9491	26.3672	62.9474	26.3672	62.943	26.3672	62.938	26.3672	62.9294	26.3672	62.9211	26.3672	62.9086	26.3672	62.8975	26.3672	62.8813	26.3672	62.8678	26.3672	62.8485	26.3672	62.8332	26.3672	62.8112	26.3672	62.7948	26.3672	62.7707	26.3672	62.754	26.3672	62.7285	26.3672	62.7122	26.3672	62.6859	26.3672	62.6707	26.3672	62.6445	26.3672	62.6309	26.3672	62.6055	26.3672	62.5939	26.3672	62.5701	26.3672	62.5607	26.3672	62.5392	26.3672	62.532	26.3672	62.5137	26.3672	62.5084	26.3672	62.494	26.3672	62.4905	26.3672	62.4805	26.3672	62.4785	26.3672	62.4734	26.3672	62.4728
27.0996	63.4903	27.0996	63.4874	27.0996	63.4826	27.0996	63.4739	27.0996	63.4646	27.0996	63.4502	27.0996	63.4369	27.0996	63.4171	27.0996	63.4004	27.0996	63.3755	27.0996	63.3562	27.0996	63.3268	27.0996	63.3058	27.0996	63.2727	27.0996	63.2509	27.0996	63.2149	27.0996	63.193	27.0996	63.1554	27.0996	63.1342	27.0996	63.096	27.0996	63.0762	27.0996	63.0387	27.0996	63.0208	27.0996	62.9853	27.0996	62.9696	27.0996	62.9374	27.0996	62.9242	27.0996	62.8962	27.0996	62.8856	27.0996	62.8628	27.0996	62.8549	27.0996	62.838	27.0996	62.8328	27.0996	62.8225	27.0996	62.8199	27.0996	62.8164
27.832	63.9497	27.832	63.944	27.832	63.9454	27.832	63.9285	27.832	63.9312	27.832	63.9036	27.832	63.9075	27.832	63.87	27.832	63.8751	27.832	63.829	27.832	63.835	27.832	63.7816	27.832	63.7884	27.832	63.7294	27.832	63.7368	27.832	63.6742	27.832	63.6819	27.832	63.6177	27.832	63.6254	27.832	63.5618	27.832	63.5692	27.832	63.5083	27.832	63.5152	27.832	63.4587	27.832	63.4649	27.832	63.4146	27.832	63.4199	27.832	63.3771	27.832	63.3815	27.832	63.3473	27.832	63.3505	27.832	63.3256	27.832	63.3278	27.832	63.3127	27.832	63.3138	27.832	63.3087
29.2969	65.1372	29.2969	65.1294	29.2969	65.1312	29.2969	65.1082	29.2969	65.1117	29.2969	65.0742	29.2969	65.0791	29.2969	65.0282	29.2969	65.0342	29.2969	64.9715	29.2969	64.9782	29.2969	64.9056	29.2969	64.9126	29.2969	64.8324	29.2969	64.8392	29.2969	64.7538	29.2969	64.76	29.2969	64.6721	29.2969	64.6774	29.2969	64.5897	29.2969	64.5938	29.2969	64.5089	29.2969	64.5118	29.2969	64.4324	29.2969	64.434	29.2969	64.3626	29.2969	64.3631	29.2969	64.3017	29.2969	64.3014	29.2969	64.2518	29.2969	64.2512	29.2969	64.2147	29.2969	64.214	29.2969	64.1917	29.2969	64.1913	29.2969	64.1838
30.0293	65.5178	30.0293	65.5108	30.0293	65.512	30.0293	65.4912	30.0293	65.4934	30.0293	65.4596	30.0293	65.4626	30.0293	65.4167	30.0293	65.4204	30.0293	65.364	30.0293	65.3679	30.0293	65.3027	30.0293	65.3066	30.0293	65.2346	30.0293	65.2382	30.0293	65.1618	30.0293	65.1648	30.0293	65.0864	30.0293	65.0884	30.0293	65.0105	30.0293	65.0116	30.0293	64.9365	30.0293	64.9365	30.0293	64.8666	30.0293	64.8657	30.0293	64.803	30.0293	64.8015	30.0293	64.7478	30.0293	64.7459	30.0293	64.7026	30.0293	64.7007	30.0293	64.6691	30.0293	64.6675	30.0293	64.6482	30.0293	64.6474	30.0293	64.6409
31.4941	66.144	31.4941	66.1383	31.4941	66.1357	31.4941	66.1189	31.4941	66.1138	31.4941	66.0866	31.4941	66.0789	31.4941	66.0423	31.4941	66.0322	31.4941	65.9878	31.4941	65.9753	31.4941	65.9248	31.4941	65.9101	31.4941	65.8554	31.4941	65.8388	31.4941	65.7819	31.4941	65.7637	31.4941	65.7065	31.4941	65.6874	31.4941	65.6318	31.4941	65.6122	31.4941	65.5599	31.4941	65.5405	31.4941	65.4929	31.4941	65.4745	31.4941	65.4327	31.4941	65.4159	31.4941	65.3809	31.4941	65.3664	31.4941	65.3388	31.4941	65.3273	31.4941	65.3074	31.4941	65.2994	31.4941	65.2874	31.4941	65.2833	31.4941	65.2793
32.2266	66.1835	32.2266	66.1795	32.2266	66.1729	32.2266	66.161	32.2266	66.148	32.2266	66.1285	32.2266	66.1099	32.2266	66.0834	32.2266	66.0599	32.2266	66.0271	32.2266	65.9999	32.2266	65.9617	32.2266	65.9318	32.2266	65.8894	32.2266	65.8581	32.2266	65.8128	32.2266	65.781	32.2266	65.7343	32.2266	65.703	32.2266	65.6565	32.2266	65.6266	32.2266	65.5818	32.2266	65.5541	32.2266	65.5125	32.2266	65.4875	32.2266	65.4504	32.2266	65.4288	32.2266	65.3972	32.2266	65.3794	32.2266	65.3541	32.2266	65.3404	32.2266	65.322	32.2266	65.3128	32.2266	65.3016	32.2266	65.2969	32.2266	65.2932
33.6914	66.9028	33.6914	66.8956	33.6914	66.8988	33.6914	66.8771	33.6914	66.8835	33.6914	66.8477	33.6914	66.8573	33.6914	66.8079	33.6914	66.8207	33.6914	66.7588	33.6914	66.7747	33.6914	66.7013	33.6914	66.7203	33.6914	66.637	33.6914	66.6588	33.6914	66.5676	33.6914	66.5919	33.6914	66.4952	33.6914	66.5214	33.6914	66.4219	33.6914	66.4494	33.6914	66.3502	33.6914	66.3782	33.6914	66.2825	33.6914	66.3099	33.6914	66.2211	33.6914	66.2468	33.6914	66.1684	33.6914	66.191	33.6914	66.1261	33.6914	66.1445	33.6914	66.0958	33.6914	66.1089	33.6914	66.0787	33.6914	66.0855	33.6914	66.0753
34.4238	67.4989	34.4238	67.4906	34.4238	67.4951	34.4238	67.4703	34.4238	67.4794	34.4238	67.4386	34.4238	67.452	34.4238	67.3961	34.4238	67.4136	34.4238	67.3437	34.4238	67.3651	34.4238	67.2827	34.4238	67.3076	34.4238	67.2145	34.4238	67.2425	34.4238	67.141	34.4238	67.1716	34.4238	67.0642	34.4238	67.0968	34.4238	66.9863	34.4238	67.0201	34.4238	66.9099	34.4238	66.944	34.4238	66.8374	34.4238	66.8706	34.4238	66.7715	34.4238	66.8024	34.4238	66.7145	34.4238	66.7417	34.4238	66.6687	34.4238	66.6908	34.4238	66.6359	34.4238	66.6515	34.4238	66.6174	34.4238	66.6255	34.4238	66.6139
35.8887	68.1116	35.8887	68.1125	35.8887	68.1015	35.8887	68.1039	35.8887	68.0824	35.8887	68.0861	35.8887	68.0549	35.8887	68.0594	35.8887	68.0196	35.8887	68.0242	35.8887	67.9773	35.8887	67.9816	35.8887	67.9292	35.8887	67.9326	35.8887	67.8766	35.8887	67.8786	35.8887	67.8208	35.8887	67.8214	35.8887	67.7636	35.8887	67.7628	35.8887	67.7067	35.8887	67.7045	35.8887	67.6519	35.8887	67.6486	35.8887	67.601	35.8887	67.597	35.8887	67.5555	35.8887	67.5512	35.8887	67.5169	35.8887	67.5129	35.8887	67.4866	35.8887	67.4833	35.8887	67.4655	35.8887	67.4633	35.8887	67.4544	35.8887	67.4536
37.3535	69.0852	37.3535	69.0794	37.3535	69.0785	37.3535	69.0615	37.3535	69.0597	37.3535	69.0319	37.3535	69.0291	37.3535	68.9915	37.3535	68.9876	37.3535	68.9415	37.3535	68.9365	37.3535	68.8834	37.3535	68.8772	37.3535	68.8191	37.3535	68.8115	37.3535	68.7507	37.3535	68.7418	37.3535	68.6805	37.3535	68.6701	37.3535	68.6106	37.3535	68.5991	37.3535	68.5434	37.3535	68.5311	37.3535	68.4808	37.3535	68.4683	37.3535	68.4248	37.3535	68.4126	37.3535	68.3767	37.3535	68.3657	37.3535	68.3378	37.3535	68.3287	37.3535	68.3089	37.3535	68.3024	37.3535	68.2906	37.3535	68.2872	37.3535	68.2833
38.8184	69.5169	38.8184	69.5123	38.8184	69.5085	38.8184	69.4949	38.8184	69.4873	38.8184	69.465	38.8184	69.454	38.8184	69.4236	38.8184	69.4096	38.8184	69.3719	38.8184	69.3554	38.8184	69.3116	38.8184	69.293	38.8184	69.2443	38.8184	69.2242	38.8184	69.1723	38.8184	69.1511	38.8184	69.0977	38.8184	69.0758	38.8184	69.0226	38.8184	69.0007	38.8184	68.9494	38.8184	68.9281	38.8184	68.8803	38.8184	68.8601	38.8184	68.8173	38.8184	68.799	38.8184	68.7624	38.8184	68.7467	38.8184	68.7172	38.8184	68.7048	38.8184	68.6832	38.8184	68.6745	38.8184	68.6614	38.8184	68.657	38.8184	68.6525
39.5508	69.8283	39.5508	69.823	39.5508	69.8217	39.5508	69.8059	39.5508	69.8033	39.5508	69.7776	39.5508	69.7738	39.5508	69.7389	39.5508	69.7341	39.5508	69.6912	39.5508	69.6854	39.5508	69.636	39.5508	69.6293	39.5508	69.5751	39.5508	69.5676	39.5508	69.5105	39.5508	69.5023	39.5508	69.4444	39.5508	69.4354	39.5508	69.3787	39.5508	69.3692	39.5508	69.3156	39.5508	69.3057	39.5508	69.2569	39.5508	69.247	39.5508	69.2042	39.5508	69.1948	39.5508	69.159	39.5508	69.1505	39.5508	69.1223	39.5508	69.1154	39.5508	69.0951	39.5508	69.0901	39.5508	69.078	39.5508	69.0754	39.5508	69.0713
41.0156	70.4913	41.0156	70.4851	41.0156	70.4852	41.0156	70.4666	41.0156	70.4668	41.0156	70.4364	41.0156	70.4368	41.0156	70.3955	41.0156	70.396	41.0156	70.345	41.0156	70.3458	41.0156	70.2866	41.0156	70.2876	41.0156	70.2221	41.0156	70.2233	41.0156	70.1536	41.0156	70.155	41.0156	70.0833	41.0156	70.0848	41.0156	70.0135	41.0156	70.0152	41.0156	69.9465	41.0156	69.9483	41.0156	69.8843	41.0156	69.8861	41.0156	69.8288	41.0156	69.8305	41.0156	69.7815	41.0156	69.7831	41.0156	69.7436	41.0156	69.745	41.0156	69.7161	41.0156	69.7171	41.0156	69.6995	41.0156	69.7	41.0156	69.6941
42.4805	71.1512	42.4805	71.1439	42.4805	71.145	42.4805	71.1234	42.4805	71.1256	42.4805	71.0903	42.4805	71.0934	42.4805	71.0456	42.4805	71.0497	42.4805	70.9908	42.4805	70.9957	42.4805	70.9277	42.4805	70.9332	42.4805	70.8583	42.4805	70.8643	42.4805	70.7849	42.4805	70.7912	42.4805	70.7099	42.4805	70.7163	42.4805	70.6357	42.4805	70.6421	42.4805	70.5646	42.4805	70.5709	42.4805	70.4988	42.4805	70.5048	42.4805	70.4403	42.4805	70.4458	42.4805	70.3906	42.4805	70.3954	42.4805	70.351	42.4805	70.3548	42.4805	70.3224	42.4805	70.3251	42.4805	70.3053	42.4805	70.3067	42.4805	70.3
43.9453	71.8186	43.9453	71.8117	43.9453	71.8104	43.9453	71.7902	43.9453	71.7876	43.9453	71.7548	43.9453	71.7508	43.9453	71.7067	43.9453	71.7012	43.9453	71.6476	43.9453	71.6406	43.9453	71.5793	43.9453	71.5711	43.9453	71.5043	43.9453	71.4949	43.9453	71.4249	43.9453	71.4147	43.9453	71.3437	43.9453	71.3331	43.9453	71.2633	43.9453	71.2528	43.9453	71.1863	43.9453	71.1762	43.9453	71.1149	43.9453	71.1057	43.9453	71.0512	43.9453	71.0432	43.9453	70.9968	43.9453	70.9903	43.9453	70.9531	43.9453	70.9482	43.9453	70.9211	43.9453	70.9179	43.9453	70.9014	43.9453	70.8998	43.9453	70.8942
45.4102	72.1761	45.4102	72.1686	45.4102	72.1693	45.4102	72.1471	45.4102	72.1484	45.4102	72.1121	45.4102	72.1142	45.4102	72.0647	45.4102	72.0675	45.4102	72.0062	45.4102	72.0097	45.4102	71.9383	45.4102	71.9426	45.4102	71.8633	45.4102	71.8681	45.4102	71.7833	45.4102	71.7884	45.4102	71.7009	45.4102	71.7061	45.4102	71.6187	45.4102	71.6237	45.4102	71.5392	45.4102	71.5438	45.4102	71.4649	45.4102	71.4689	45.4102	71.3981	45.4102	71.4013	45.4102	71.3407	45.4102	71.3432	45.4102	71.2944	45.4102	71.2962	45.4102	71.2605	45.4102	71.2616	45.4102	71.2399	45.4102	71.2404	45.4102	71.2331
47.6074	72.9268	47.6074	72.9205	47.6074	72.9215	47.6074	72.9026	47.6074	72.9048	47.6074	72.8736	47.6074	72.8775	47.6074	72.8344	47.6074	72.8405	47.6074	72.7861	47.6074	72.7951	47.6074	72.7305	47.6074	72.7429	47.6074	72.6693	47.6074	72.6855	47.6074	72.6047	47.6074	72.6248	47.6074	72.539	47.6074	72.5628	47.6074	72.4743	47.6074	72.5013	47.6074	72.4131	47.6074	72.4421	47.6074	72.3571	47.6074	72.3868	47.6074	72.3082	47.6074	72.3369	47.6074	72.2676	47.6074	72.2936	47.6074	72.2364	47.6074	72.2579	47.6074	72.2152	47.6074	72.2305	47.6074	72.2041	47.6074	72.212	47.6074	72.2031
49.0723	73.4858	49.0723	73.4799	49.0723	73.4809	49.0723	73.4631	49.0723	73.4654	49.0723	73.436	49.0723	73.44	49.0723	73.3995	49.0723	73.4056	49.0723	73.3549	49.0723	73.3635	49.0723	73.3039	49.0723	73.3154	49.0723	73.2484	49.0723	73.263	49.0723	73.1905	49.0723	73.2084	49.0723	73.1325	49.0723	73.1534	49.0723	73.0767	49.0723	73.1	49.0723	73.0249	49.0723	73.05	49.0723	72.9789	49.0723	73.0045	49.0723	72.94	49.0723	72.9647	49.0723	72.9088	49.0723	72.9311	49.0723	72.8857	49.0723	72.9041	49.0723	72.8706	49.0723	72.8838	49.0723	72.8632	49.0723	72.8701	49.0723	72.8631
50.5371	74.3312	50.5371	74.3279	50.5371	74.3212	50.5371	74.3113	50.5371	74.2982	50.5371	74.282	50.5371	74.2633	50.5371	74.2408	50.5371	74.2175	50.5371	74.1893	50.5371	74.1627	50.5371	74.1293	50.5371	74.1007	50.5371	74.063	50.5371	74.0339	50.5371	73.9928	50.5371	73.9646	50.5371	73.9213	50.5371	73.8954	50.5371	73.8512	50.5371	73.8286	50.5371	73.785	50.5371	73.7663	50.5371	73.7247	50.5371	73.7104	50.5371	73.6721	50.5371	73.6619	50.5371	73.6285	50.5371	73.6219	50.5371	73.5944	50.5371	73.5907	50.5371	73.5703	50.5371	73.5684	50.5371	73.5558	50.5371	73.5551	50.5371	73.5509
52.7344	75.206	52.7344	75.1919	52.7344	75.2036	52.7344	75.1615	52.7344	75.1844	52.7344	75.1161	52.7344	75.149	52.7344	75.0569	52.7344	75.0985	52.7344	74.986	52.7344	75.0344	52.7344	74.9055	52.7344	74.9589	52.7344	74.8179	52.7344	74.8745	52.7344	74.7261	52.7344	74.784	52.7344	74.633	52.7344	74.6906	52.7344	74.5416	52.7344	74.5973	52.7344	74.4548	52.7344	74.5072	52.7344	74.3752	52.7344	74.423	52.7344	74.3052	52.7344	74.3473	52.7344	74.2466	52.7344	74.282	52.7344	74.201	52.7344	74.2285	52.7344	74.1693	52.7344	74.1882	52.7344	74.1521	52.7344	74.1617	52.7344	74.1496
54.1992	75.3159	54.1992	75.3106	54.1992	75.3077	54.1992	75.2919	54.1992	75.2863	54.1992	75.2605	54.1992	75.2524	54.1992	75.2174	54.1992	75.2071	54.1992	75.164	54.1992	75.1518	54.1992	75.102	54.1992	75.0885	54.1992	75.0337	54.1992	75.0194	54.1992	74.9613	54.1992	74.9467	54.1992	74.8873	54.1992	74.873	54.1992	74.8141	54.1992	74.8008	54.1992	74.7441	54.1992	74.7322	54.1992	74.6795	54.1992	74.6694	54.1992	74.6222	54.1992	74.614	54.1992	74.5735	54.1992	74.5673	54.1992	74.5347	54.1992	74.5303	54.1992	74.5064	54.1992	74.5036	54.1992	74.489	54.1992	74.4877	54.1992	74.4828
