"SPL Horizontal"
"On-Axis"		"10°"		"-10°"		"20°"		"-20°"		"30°"		"-30°"		"40°"		"-40°"		"50°"		"-50°"		"60°"		"-60°"		"70°"		"-70°"		"80°"		"-80°"		"90°"		"-90°"		"100°"		"-100°"		"110°"		"-110°"		"120°"		"-120°"		"130°"		"-130°"		"140°"		"-140°"		"150°"		"-150°"		"160°"		"-160°"		"170°"		"-170°"		"180°"
"Frequency / Hz"	"Sound Pressure Level / dB (re 20 µPa/V)  [2.83V at 1m]"	"Frequency / Hz"	"Sound Pressure Level / dB (re 20 µPa/V)  [2.83V at 1m]"	"Frequency / Hz"	"Sound Pressure Level / dB (re 20 µPa/V)  [2.83V at 1m]"	"Frequency / Hz"	"Sound Pressure Level / dB (re 20 µPa/V)  [2.83V at 1m]"	"Frequency / Hz"	"Sound Pressure Level / dB (re 20 µPa/V)  [2.83V at 1m]"	"Frequency / Hz"	"Sound Pressure Level / dB (re 20 µPa/V)  [2.83V at 1m]"	"Frequency / Hz"	"Sound Pressure Level / dB (re 20 µPa/V)  [2.83V at 1m]"	"Frequency / Hz"	"Sound Pressure Level / dB (re 20 µPa/V)  [2.83V at 1m]"	"Frequency / Hz"	"Sound Pressure Level / dB (re 20 µPa/V)  [2.83V at 1m]"	"Frequency / Hz"	"Sound Pressure Level / dB (re 20 µPa/V)  [2.83V at 1m]"	"Frequency / Hz"	"Sound Pressure Level / dB (re 20 µPa/V)  [2.83V at 1m]"	"Frequency / Hz"	"Sound Pressure Level / dB (re 20 µPa/V)  [2.83V at 1m]"	"Frequency / Hz"	"Sound Pressure Level / dB (re 20 µPa/V)  [2.83V at 1m]"	"Frequency / Hz"	"Sound Pressure Level / dB (re 20 µPa/V)  [2.83V at 1m]"	"Frequency / Hz"	"Sound Pressure Level / dB (re 20 µPa/V)  [2.83V at 1m]"	"Frequency / Hz"	"Sound Pressure Level / dB (re 20 µPa/V)  [2.83V at 1m]"	"Frequency / Hz"	"Sound Pressure Level / dB (re 20 µPa/V)  [2.83V at 1m]"	"Frequency / Hz"	"Sound Pressure Level / dB (re 20 µPa/V)  [2.83V at 1m]"	"Frequency / Hz"	"Sound Pressure Level / dB (re 20 µPa/V)  [2.83V at 1m]"	"Frequency / Hz"	"Sound Pressure Level / dB (re 20 µPa/V)  [2.83V at 1m]"	"Frequency / Hz"	"Sound Pressure Level / dB (re 20 µPa/V)  [2.83V at 1m]"	"Frequency / Hz"	"Sound Pressure Level / dB (re 20 µPa/V)  [2.83V at 1m]"	"Frequency / Hz"	"Sound Pressure Level / dB (re 20 µPa/V)  [2.83V at 1m]"	"Frequency / Hz"	"Sound Pressure Level / dB (re 20 µPa/V)  [2.83V at 1m]"	"Frequency / Hz"	"Sound Pressure Level / dB (re 20 µPa/V)  [2.83V at 1m]"	"Frequency / Hz"	"Sound Pressure Level / dB (re 20 µPa/V)  [2.83V at 1m]"	"Frequency / Hz"	"Sound Pressure Level / dB (re 20 µPa/V)  [2.83V at 1m]"	"Frequency / Hz"	"Sound Pressure Level / dB (re 20 µPa/V)  [2.83V at 1m]"	"Frequency / Hz"	"Sound Pressure Level / dB (re 20 µPa/V)  [2.83V at 1m]"	"Frequency / Hz"	"Sound Pressure Level / dB (re 20 µPa/V)  [2.83V at 1m]"	"Frequency / Hz"	"Sound Pressure Level / dB (re 20 µPa/V)  [2.83V at 1m]"	"Frequency / Hz"	"Sound Pressure Level / dB (re 20 µPa/V)  [2.83V at 1m]"	"Frequency / Hz"	"Sound Pressure Level / dB (re 20 µPa/V)  [2.83V at 1m]"	"Frequency / Hz"	"Sound Pressure Level / dB (re 20 µPa/V)  [2.83V at 1m]"	"Frequency / Hz"	"Sound Pressure Level / dB (re 20 µPa/V)  [2.83V at 1m]"	"Frequency / Hz"	"Sound Pressure Level / dB (re 20 µPa/V)  [2.83V at 1m]"
20.5078	59.1948	20.5078	59.1675	20.5078	59.211	20.5078	59.1299	20.5078	59.2151	20.5078	59.0827	20.5078	59.2064	20.5078	59.027	20.5078	59.1841	20.5078	58.9636	20.5078	59.148	20.5078	58.8938	20.5078	59.0979	20.5078	58.8191	20.5078	59.0349	20.5078	58.7412	20.5078	58.9603	20.5078	58.6624	20.5078	58.8768	20.5078	58.585	20.5078	58.7876	20.5078	58.5114	20.5078	58.6963	20.5078	58.4439	20.5078	58.6067	20.5078	58.3848	20.5078	58.5225	20.5078	58.336	20.5078	58.447	20.5078	58.2992	20.5078	58.3826	20.5078	58.2758	20.5078	58.3313	20.5078	58.2668	20.5078	58.2946	20.5078	58.273
21.2402	59.5448	21.2402	59.5136	21.2402	59.5679	21.2402	59.4746	21.2402	59.5822	21.2402	59.4283	21.2402	59.5869	21.2402	59.3753	21.2402	59.5812	21.2402	59.3162	21.2402	59.5642	21.2402	59.2523	21.2402	59.5354	21.2402	59.185	21.2402	59.4947	21.2402	59.1162	21.2402	59.4427	21.2402	59.0481	21.2402	59.3807	21.2402	58.9831	21.2402	59.3109	21.2402	58.9234	21.2402	59.2357	21.2402	58.8712	21.2402	59.1583	21.2402	58.8285	21.2402	59.0816	21.2402	58.797	21.2402	59.0085	21.2402	58.7778	21.2402	58.9417	21.2402	58.7719	21.2402	58.8837	21.2402	58.7797	21.2402	58.8364	21.2402	58.8014
21.9727	60.0779	21.9727	60.0576	21.9727	60.0929	21.9727	60.0321	21.9727	60.1019	21.9727	60.0018	21.9727	60.1042	21.9727	59.9669	21.9727	60.0989	21.9727	59.9277	21.9727	60.0851	21.9727	59.8847	21.9727	60.0622	21.9727	59.8391	21.9727	60.0302	21.9727	59.792	21.9727	59.9896	21.9727	59.7452	21.9727	59.942	21.9727	59.7003	21.9727	59.8894	21.9727	59.6591	21.9727	59.8341	21.9727	59.6229	21.9727	59.7787	21.9727	59.593	21.9727	59.7258	21.9727	59.5701	21.9727	59.6775	21.9727	59.5546	21.9727	59.6355	21.9727	59.5471	21.9727	59.6009	21.9727	59.5478	21.9727	59.5746	21.9727	59.5569
22.7051	60.3933	22.7051	60.361	22.7051	60.4168	22.7051	60.3207	22.7051	60.4303	22.7051	60.2732	22.7051	60.4327	22.7051	60.2195	22.7051	60.4227	22.7051	60.1604	22.7051	60.3995	22.7051	60.0969	22.7051	60.3627	22.7051	60.0304	22.7051	60.3126	22.7051	59.9623	22.7051	60.2504	22.7051	59.8944	22.7051	60.1781	22.7051	59.8285	22.7051	60.0984	22.7051	59.7667	22.7051	60.0146	22.7051	59.7108	22.7051	59.9303	22.7051	59.6626	22.7051	59.8491	22.7051	59.6238	22.7051	59.7743	22.7051	59.5958	22.7051	59.7089	22.7051	59.58	22.7051	59.6552	22.7051	59.5774	22.7051	59.6149	22.7051	59.5889
23.4375	61.0272	23.4375	60.9773	23.4375	61.0654	23.4375	60.917	23.4375	61.0901	23.4375	60.8479	23.4375	61.1001	23.4375	60.7713	23.4375	61.094	23.4375	60.6884	23.4375	61.0712	23.4375	60.6008	23.4375	61.0315	23.4375	60.51	23.4375	60.9753	23.4375	60.4179	23.4375	60.904	23.4375	60.3269	23.4375	60.8197	23.4375	60.2398	23.4375	60.7253	23.4375	60.1597	23.4375	60.6239	23.4375	60.0897	23.4375	60.5191	23.4375	60.0328	23.4375	60.4146	23.4375	59.9918	23.4375	60.314	23.4375	59.9687	23.4375	60.2206	23.4375	59.9648	23.4375	60.1379	23.4375	59.9806	23.4375	60.0687	23.4375	60.0156
24.1699	61.5286	24.1699	61.4985	24.1699	61.5483	24.1699	61.4588	24.1699	61.5567	24.1699	61.4103	24.1699	61.5529	24.1699	61.3534	24.1699	61.5364	24.1699	61.2888	24.1699	61.5066	24.1699	61.2175	24.1699	61.4637	24.1699	61.1405	24.1699	61.4084	24.1699	61.0598	24.1699	61.3419	24.1699	60.9776	24.1699	61.2662	24.1699	60.8968	24.1699	61.1839	24.1699	60.8207	24.1699	61.0976	24.1699	60.7523	24.1699	61.0106	24.1699	60.6945	24.1699	60.9257	24.1699	60.6498	24.1699	60.8459	24.1699	60.62	24.1699	60.774	24.1699	60.6063	24.1699	60.7124	24.1699	60.6091	24.1699	60.6633	24.1699	60.6284
25.6348	62.5488	25.6348	62.5373	25.6348	62.5554	25.6348	62.5211	25.6348	62.5564	25.6348	62.5004	25.6348	62.5514	25.6348	62.4752	25.6348	62.5399	25.6348	62.4456	25.6348	62.5214	25.6348	62.4116	25.6348	62.4959	25.6348	62.3736	25.6348	62.4636	25.6348	62.3323	25.6348	62.4254	25.6348	62.2889	25.6348	62.3824	25.6348	62.2448	25.6348	62.3362	25.6348	62.2018	25.6348	62.2885	25.6348	62.1617	25.6348	62.2411	25.6348	62.1262	25.6348	62.1961	25.6348	62.0967	25.6348	62.155	25.6348	62.0744	25.6348	62.1194	25.6348	62.0601	25.6348	62.0907	25.6348	62.0544	25.6348	62.0699	25.6348	62.0577
26.3672	62.9491	26.3672	62.9507	26.3672	62.9431	26.3672	62.9477	26.3672	62.9326	26.3672	62.9398	26.3672	62.9173	26.3672	62.9267	26.3672	62.8971	26.3672	62.9081	26.3672	62.8717	26.3672	62.8839	26.3672	62.841	26.3672	62.854	26.3672	62.8053	26.3672	62.8191	26.3672	62.7654	26.3672	62.7798	26.3672	62.7224	26.3672	62.7373	26.3672	62.6777	26.3672	62.6931	26.3672	62.6333	26.3672	62.6488	26.3672	62.591	26.3672	62.6061	26.3672	62.5528	26.3672	62.5667	26.3672	62.5203	26.3672	62.5323	26.3672	62.495	26.3672	62.5044	26.3672	62.4783	26.3672	62.4842	26.3672	62.4707	26.3672	62.4728
27.0996	63.4903	27.0996	63.4757	27.0996	63.4979	27.0996	63.4542	27.0996	63.4982	27.0996	63.426	27.0996	63.4906	27.0996	63.3909	27.0996	63.4748	27.0996	63.349	27.0996	63.4502	27.0996	63.3007	27.0996	63.4167	27.0996	63.2466	27.0996	63.3745	27.0996	63.1879	27.0996	63.3244	27.0996	63.1264	27.0996	63.2676	27.0996	63.0642	27.0996	63.2059	27.0996	63.004	27.0996	63.1417	27.0996	62.9483	27.0996	63.0774	27.0996	62.8997	27.0996	63.0155	27.0996	62.86	27.0996	62.9584	27.0996	62.831	27.0996	62.9083	27.0996	62.8138	27.0996	62.867	27.0996	62.8089	27.0996	62.836	27.0996	62.8164
27.832	63.9497	27.832	63.9297	27.832	63.963	27.832	63.9036	27.832	63.9692	27.832	63.8714	27.832	63.9676	27.832	63.8333	27.832	63.9576	27.832	63.7893	27.832	63.9386	27.832	63.74	27.832	63.9104	27.832	63.6858	27.832	63.873	27.832	63.6279	27.832	63.8272	27.832	63.5681	27.832	63.7741	27.832	63.5085	27.832	63.7155	27.832	63.4517	27.832	63.6535	27.832	63.4003	27.832	63.5903	27.832	63.3568	27.832	63.5283	27.832	63.3233	27.832	63.4698	27.832	63.3012	27.832	63.4169	27.832	63.2914	27.832	63.3714	27.832	63.294	27.832	63.3349	27.832	63.3087
29.2969	65.1372	29.2969	65.1249	29.2969	65.1399	29.2969	65.103	29.2969	65.1328	29.2969	65.0714	29.2969	65.1154	29.2969	65.0298	29.2969	65.0873	29.2969	64.9781	29.2969	65.0479	29.2969	64.9165	29.2969	64.997	29.2969	64.8456	29.2969	64.9349	29.2969	64.7668	29.2969	64.8626	29.2969	64.6822	29.2969	64.7819	29.2969	64.5946	29.2969	64.6952	29.2969	64.5073	29.2969	64.6056	29.2969	64.4241	29.2969	64.5168	29.2969	64.3487	29.2969	64.4324	29.2969	64.2843	29.2969	64.3559	29.2969	64.234	29.2969	64.2905	29.2969	64.1997	29.2969	64.2387	29.2969	64.1827	29.2969	64.2027	29.2969	64.1838
30.0293	65.5178	30.0293	65.5066	30.0293	65.5202	30.0293	65.4864	30.0293	65.5135	30.0293	65.4571	30.0293	65.4974	30.0293	65.4184	30.0293	65.4714	30.0293	65.3702	30.0293	65.4351	30.0293	65.3126	30.0293	65.3883	30.0293	65.2464	30.0293	65.3313	30.0293	65.1729	30.0293	65.2651	30.0293	65.0941	30.0293	65.1912	30.0293	65.0128	30.0293	65.1119	30.0293	64.9321	30.0293	65.0301	30.0293	64.8557	30.0293	64.9489	30.0293	64.7867	30.0293	64.8717	30.0293	64.7284	30.0293	64.8015	30.0293	64.6832	30.0293	64.7412	30.0293	64.6529	30.0293	64.6932	30.0293	64.6387	30.0293	64.6594	30.0293	64.6409
31.4941	66.144	31.4941	66.1273	31.4941	66.1505	31.4941	66.1007	31.4941	66.1467	31.4941	66.0643	31.4941	66.1322	31.4941	66.0182	31.4941	66.1067	31.4941	65.9631	31.4941	66.0699	31.4941	65.8997	31.4941	66.0221	31.4941	65.8296	31.4941	65.9638	31.4941	65.7546	31.4941	65.8963	31.4941	65.6771	31.4941	65.8216	31.4941	65.5997	31.4941	65.7421	31.4941	65.5253	31.4941	65.6608	31.4941	65.4567	31.4941	65.5809	31.4941	65.3964	31.4941	65.5054	31.4941	65.3465	31.4941	65.4373	31.4941	65.3088	31.4941	65.3789	31.4941	65.2845	31.4941	65.3322	31.4941	65.2746	31.4941	65.2987	31.4941	65.2793
32.2266	66.1835	32.2266	66.1654	32.2266	66.1905	32.2266	66.1365	32.2266	66.1859	32.2266	66.0974	32.2266	66.1693	32.2266	66.0486	32.2266	66.1404	32.2266	65.9909	32.2266	66.0993	32.2266	65.9254	32.2266	66.0466	32.2266	65.8535	32.2266	65.9831	32.2266	65.7771	32.2266	65.9107	32.2266	65.6985	32.2266	65.8316	32.2266	65.6204	32.2266	65.7488	32.2266	65.5455	32.2266	65.6653	32.2266	65.4764	32.2266	65.5844	32.2266	65.4157	32.2266	65.5092	32.2266	65.3654	32.2266	65.4422	32.2266	65.3271	32.2266	65.3857	32.2266	65.3018	32.2266	65.3413	32.2266	65.2904	32.2266	65.3103	32.2266	65.2932
33.6914	66.9028	33.6914	66.8977	33.6914	66.8994	33.6914	66.8839	33.6914	66.8872	33.6914	66.8614	33.6914	66.866	33.6914	66.8299	33.6914	66.8354	33.6914	66.7892	33.6914	66.7954	33.6914	66.7394	33.6914	66.7459	33.6914	66.6811	33.6914	66.6874	33.6914	66.6154	33.6914	66.6211	33.6914	66.544	33.6914	66.5488	33.6914	66.4691	33.6914	66.4728	33.6914	66.3935	33.6914	66.396	33.6914	66.3201	33.6914	66.3214	33.6914	66.252	33.6914	66.2524	33.6914	66.192	33.6914	66.1917	33.6914	66.1426	33.6914	66.142	33.6914	66.1058	33.6914	66.1052	33.6914	66.0831	33.6914	66.0827	33.6914	66.0753
34.4238	67.4989	34.4238	67.4929	34.4238	67.4955	34.4238	67.4775	34.4238	67.4827	34.4238	67.4527	34.4238	67.4603	34.4238	67.4183	34.4238	67.4279	34.4238	67.3744	34.4238	67.3855	34.4238	67.3212	34.4238	67.3331	34.4238	67.2593	34.4238	67.2712	34.4238	67.1901	34.4238	67.201	34.4238	67.1151	34.4238	67.1242	34.4238	67.0366	34.4238	67.0431	34.4238	66.9572	34.4238	66.9608	34.4238	66.8798	34.4238	66.8805	34.4238	66.8075	34.4238	66.8057	34.4238	66.7432	34.4238	66.7397	34.4238	66.6896	34.4238	66.6855	34.4238	66.649	34.4238	66.6455	34.4238	66.6234	34.4238	66.6213	34.4238	66.6139
35.8887	68.1116	35.8887	68.1024	35.8887	68.114	35.8887	68.0866	35.8887	68.1092	35.8887	68.0641	35.8887	68.097	35.8887	68.035	35.8887	68.0768	35.8887	67.9993	35.8887	68.0483	35.8887	67.9572	35.8887	68.0114	35.8887	67.9091	35.8887	67.9666	35.8887	67.8559	35.8887	67.9146	35.8887	67.7991	35.8887	67.8568	35.8887	67.7404	35.8887	67.7954	35.8887	67.682	35.8887	67.7326	35.8887	67.6262	35.8887	67.671	35.8887	67.5752	35.8887	67.6132	35.8887	67.5311	35.8887	67.5616	35.8887	67.4956	35.8887	67.5184	35.8887	67.4702	35.8887	67.4853	35.8887	67.4559	35.8887	67.4635	35.8887	67.4536
37.3535	69.0852	37.3535	69.0753	37.3535	69.0857	37.3535	69.0563	37.3535	69.0768	37.3535	69.0277	37.3535	69.0582	37.3535	68.9898	37.3535	69.0296	37.3535	68.9425	37.3535	68.9908	37.3535	68.8864	37.3535	68.942	37.3535	68.8228	37.3535	68.884	37.3535	68.7534	37.3535	68.8183	37.3535	68.6804	37.3535	68.747	37.3535	68.6067	37.3535	68.6728	37.3535	68.5352	37.3535	68.5986	37.3535	68.4687	37.3535	68.5274	37.3535	68.4099	37.3535	68.4619	37.3535	68.3607	37.3535	68.4044	37.3535	68.3228	37.3535	68.3568	37.3535	68.297	37.3535	68.3202	37.3535	68.2838	37.3535	68.2956	37.3535	68.2833
38.8184	69.5169	38.8184	69.5094	38.8184	69.5137	38.8184	69.4913	38.8184	69.4997	38.8184	69.4628	38.8184	69.4748	38.8184	69.4242	38.8184	69.4393	38.8184	69.376	38.8184	69.3933	38.8184	69.3189	38.8184	69.3377	38.8184	69.2541	38.8184	69.2735	38.8184	69.1831	38.8184	69.2024	38.8184	69.108	38.8184	69.1265	38.8184	69.0312	38.8184	69.0482	38.8184	68.9554	38.8184	68.9704	38.8184	68.8833	38.8184	68.8959	38.8184	68.8174	38.8184	68.8276	38.8184	68.7603	38.8184	68.7681	38.8184	68.7138	38.8184	68.7193	38.8184	68.6796	38.8184	68.6831	38.8184	68.659	38.8184	68.6606	38.8184	68.6525
39.5508	69.8283	39.5508	69.8212	39.5508	69.8255	39.5508	69.8043	39.5508	69.8128	39.5508	69.7777	39.5508	69.7903	39.5508	69.7418	39.5508	69.7581	39.5508	69.6971	39.5508	69.7167	39.5508	69.6444	39.5508	69.6667	39.5508	69.585	39.5508	69.6094	39.5508	69.5205	39.5508	69.5462	39.5508	69.4532	39.5508	69.4791	39.5508	69.3852	39.5508	69.4105	39.5508	69.3191	39.5508	69.343	39.5508	69.2574	39.5508	69.2789	39.5508	69.2021	39.5508	69.2206	39.5508	69.1551	39.5508	69.1702	39.5508	69.1177	39.5508	69.1291	39.5508	69.0909	39.5508	69.0985	39.5508	69.0753	39.5508	69.0791	39.5508	69.0713
41.0156	70.4913	41.0156	70.4847	41.0156	70.4874	41.0156	70.4676	41.0156	70.4729	41.0156	70.4401	41.0156	70.4479	41.0156	70.4027	41.0156	70.4128	41.0156	70.3557	41.0156	70.368	41.0156	70.3002	41.0156	70.3143	41.0156	70.2375	41.0156	70.253	41.0156	70.1694	41.0156	70.1859	41.0156	70.0982	41.0156	70.115	41.0156	70.0263	41.0156	70.0429	41.0156	69.9565	41.0156	69.9723	41.0156	69.8913	41.0156	69.9057	41.0156	69.8329	41.0156	69.8456	41.0156	69.7833	41.0156	69.7938	41.0156	69.7438	41.0156	69.7519	41.0156	69.7154	41.0156	69.7209	41.0156	69.6987	41.0156	69.7015	41.0156	69.6941
42.4805	71.1512	42.4805	71.1449	42.4805	71.1457	42.4805	71.1266	42.4805	71.1282	42.4805	71.0967	42.4805	71.0993	42.4805	71.0556	42.4805	71.0592	42.4805	71.0041	42.4805	71.0089	42.4805	70.9435	42.4805	70.9494	42.4805	70.8755	42.4805	70.8823	42.4805	70.802	42.4805	70.8095	42.4805	70.7257	42.4805	70.7335	42.4805	70.6492	42.4805	70.657	42.4805	70.5754	42.4805	70.5827	42.4805	70.5069	42.4805	70.5134	42.4805	70.4459	42.4805	70.4514	42.4805	70.3942	42.4805	70.3986	42.4805	70.3531	42.4805	70.3563	42.4805	70.3234	42.4805	70.3255	42.4805	70.3057	42.4805	70.3067	42.4805	70.3
43.9453	71.8186	43.9453	71.8131	43.9453	71.8106	43.9453	71.7943	43.9453	71.7894	43.9453	71.7622	43.9453	71.7555	43.9453	71.7177	43.9453	71.7096	43.9453	71.6616	43.9453	71.6527	43.9453	71.5955	43.9453	71.5863	43.9453	71.5213	43.9453	71.5121	43.9453	71.4414	43.9453	71.4325	43.9453	71.3585	43.9453	71.3499	43.9453	71.2757	43.9453	71.2675	43.9453	71.1959	43.9453	71.1881	43.9453	71.1218	43.9453	71.1145	43.9453	71.0558	43.9453	71.0491	43.9453	70.9996	43.9453	70.9938	43.9453	70.9547	43.9453	70.95	43.9453	70.9219	43.9453	70.9185	43.9453	70.9016	43.9453	70.8999	43.9453	70.8942
45.4102	72.1761	45.4102	72.1645	45.4102	72.1747	45.4102	72.1402	45.4102	72.1602	45.4102	72.1037	45.4102	72.1327	45.4102	72.0557	45.4102	72.0926	45.4102	71.997	45.4102	72.0408	45.4102	71.929	45.4102	71.9782	45.4102	71.8535	45.4102	71.9065	45.4102	71.7726	45.4102	71.8278	45.4102	71.6888	45.4102	71.7445	45.4102	71.6051	45.4102	71.6596	45.4102	71.5243	45.4102	71.5761	45.4102	71.4495	45.4102	71.4969	45.4102	71.383	45.4102	71.4247	45.4102	71.327	45.4102	71.3617	45.4102	71.2831	45.4102	71.31	45.4102	71.2524	45.4102	71.2707	45.4102	71.2356	45.4102	71.2449	45.4102	71.2331
47.6074	72.9268	47.6074	72.9182	47.6074	72.9241	47.6074	72.8983	47.6074	72.9104	47.6074	72.8676	47.6074	72.8863	47.6074	72.8267	47.6074	72.8524	47.6074	72.7768	47.6074	72.8097	47.6074	72.7195	47.6074	72.7596	47.6074	72.6566	47.6074	72.7034	47.6074	72.5905	47.6074	72.643	47.6074	72.5235	47.6074	72.5803	47.6074	72.4582	47.6074	72.5174	47.6074	72.397	47.6074	72.4564	47.6074	72.3419	47.6074	72.3991	47.6074	72.2947	47.6074	72.3472	47.6074	72.2565	47.6074	72.3019	47.6074	72.228	47.6074	72.2643	47.6074	72.2097	47.6074	72.2349	47.6074	72.2015	47.6074	72.2144	47.6074	72.2031
49.0723	73.4858	49.0723	73.4731	49.0723	73.488	49.0723	73.4499	49.0723	73.4796	49.0723	73.4168	49.0723	73.4611	49.0723	73.3748	49.0723	73.4331	49.0723	73.325	49.0723	73.3965	49.0723	73.2692	49.0723	73.3527	49.0723	73.2095	49.0723	73.3032	49.0723	73.1482	49.0723	73.25	49.0723	73.0878	49.0723	73.1951	49.0723	73.0309	49.0723	73.1406	49.0723	72.9798	49.0723	73.0885	49.0723	72.9363	49.0723	73.0401	49.0723	72.9017	49.0723	72.9965	49.0723	72.8765	49.0723	72.9583	49.0723	72.8606	49.0723	72.9258	49.0723	72.8537	49.0723	72.899	49.0723	72.8548	49.0723	72.8781	49.0723	72.8631
50.5371	74.3312	50.5371	74.3199	50.5371	74.3291	50.5371	74.2955	50.5371	74.3137	50.5371	74.2586	50.5371	74.2855	50.5371	74.2105	50.5371	74.2453	50.5371	74.1527	50.5371	74.1947	50.5371	74.0871	50.5371	74.1352	50.5371	74.0164	50.5371	74.0692	50.5371	73.9432	50.5371	73.9992	50.5371	73.8704	50.5371	73.928	50.5371	73.801	50.5371	73.8584	50.5371	73.7374	50.5371	73.7929	50.5371	73.6818	50.5371	73.7337	50.5371	73.6355	50.5371	73.6822	50.5371	73.5992	50.5371	73.639	50.5371	73.573	50.5371	73.6045	50.5371	73.5566	50.5371	73.5784	50.5371	73.5494	50.5371	73.5606	50.5371	73.5509
52.7344	75.206	52.7344	75.2004	52.7344	75.1943	52.7344	75.1777	52.7344	75.1656	52.7344	75.1385	52.7344	75.1206	52.7344	75.0841	52.7344	75.0609	52.7344	75.0165	52.7344	74.9881	52.7344	74.938	52.7344	74.9046	52.7344	74.8515	52.7344	74.8133	52.7344	74.7599	52.7344	74.7172	52.7344	74.6668	52.7344	74.62	52.7344	74.5754	52.7344	74.5251	52.7344	74.4885	52.7344	74.4361	52.7344	74.4086	52.7344	74.356	52.7344	74.3377	52.7344	74.2872	52.7344	74.2769	52.7344	74.2315	52.7344	74.2272	52.7344	74.1898	52.7344	74.1891	52.7344	74.1624	52.7344	74.1631	52.7344	74.1491	52.7344	74.1496
54.1992	75.3159	54.1992	75.3108	54.1992	75.3063	54.1992	75.2912	54.1992	75.2823	54.1992	75.2576	54.1992	75.2449	54.1992	75.2114	54.1992	75.1955	54.1992	75.1542	54.1992	75.1357	54.1992	75.0882	54.1992	75.068	54.1992	75.0161	54.1992	74.9947	54.1992	74.9406	54.1992	74.9187	54.1992	74.8649	54.1992	74.8429	54.1992	74.7916	54.1992	74.7701	54.1992	74.7234	54.1992	74.7026	54.1992	74.6621	54.1992	74.6426	54.1992	74.6092	54.1992	74.5914	54.1992	74.5653	54.1992	74.5499	54.1992	74.5308	54.1992	74.5185	54.1992	74.5056	54.1992	74.497	54.1992	74.4897	54.1992	74.4852	54.1992	74.4828
