"SPL Vertical"
"On-Axis"		"10°"		"-10°"		"20°"		"-20°"		"30°"		"-30°"		"40°"		"-40°"		"50°"		"-50°"		"60°"		"-60°"		"70°"		"-70°"		"80°"		"-80°"		"90°"		"-90°"		"100°"		"-100°"		"110°"		"-110°"		"120°"		"-120°"		"130°"		"-130°"		"140°"		"-140°"		"150°"		"-150°"		"160°"		"-160°"		"170°"		"-170°"		"180°"
"Frequency [Hz]"	"Sound Pessure Level [dB]  / [2.83V 1m] "	"Frequency [Hz]"	"Sound Pessure Level [dB]  / [2.83V 1m] "	"Frequency [Hz]"	"Sound Pessure Level [dB]  / [2.83V 1m] "	"Frequency [Hz]"	"Sound Pessure Level [dB]  / [2.83V 1m] "	"Frequency [Hz]"	"Sound Pessure Level [dB]  / [2.83V 1m] "	"Frequency [Hz]"	"Sound Pessure Level [dB]  / [2.83V 1m] "	"Frequency [Hz]"	"Sound Pessure Level [dB]  / [2.83V 1m] "	"Frequency [Hz]"	"Sound Pessure Level [dB]  / [2.83V 1m] "	"Frequency [Hz]"	"Sound Pessure Level [dB]  / [2.83V 1m] "	"Frequency [Hz]"	"Sound Pessure Level [dB]  / [2.83V 1m] "	"Frequency [Hz]"	"Sound Pessure Level [dB]  / [2.83V 1m] "	"Frequency [Hz]"	"Sound Pessure Level [dB]  / [2.83V 1m] "	"Frequency [Hz]"	"Sound Pessure Level [dB]  / [2.83V 1m] "	"Frequency [Hz]"	"Sound Pessure Level [dB]  / [2.83V 1m] "	"Frequency [Hz]"	"Sound Pessure Level [dB]  / [2.83V 1m] "	"Frequency [Hz]"	"Sound Pessure Level [dB]  / [2.83V 1m] "	"Frequency [Hz]"	"Sound Pessure Level [dB]  / [2.83V 1m] "	"Frequency [Hz]"	"Sound Pessure Level [dB]  / [2.83V 1m] "	"Frequency [Hz]"	"Sound Pessure Level [dB]  / [2.83V 1m] "	"Frequency [Hz]"	"Sound Pessure Level [dB]  / [2.83V 1m] "	"Frequency [Hz]"	"Sound Pessure Level [dB]  / [2.83V 1m] "	"Frequency [Hz]"	"Sound Pessure Level [dB]  / [2.83V 1m] "	"Frequency [Hz]"	"Sound Pessure Level [dB]  / [2.83V 1m] "	"Frequency [Hz]"	"Sound Pessure Level [dB]  / [2.83V 1m] "	"Frequency [Hz]"	"Sound Pessure Level [dB]  / [2.83V 1m] "	"Frequency [Hz]"	"Sound Pessure Level [dB]  / [2.83V 1m] "	"Frequency [Hz]"	"Sound Pessure Level [dB]  / [2.83V 1m] "	"Frequency [Hz]"	"Sound Pessure Level [dB]  / [2.83V 1m] "	"Frequency [Hz]"	"Sound Pessure Level [dB]  / [2.83V 1m] "	"Frequency [Hz]"	"Sound Pessure Level [dB]  / [2.83V 1m] "	"Frequency [Hz]"	"Sound Pessure Level [dB]  / [2.83V 1m] "	"Frequency [Hz]"	"Sound Pessure Level [dB]  / [2.83V 1m] "	"Frequency [Hz]"	"Sound Pessure Level [dB]  / [2.83V 1m] "	"Frequency [Hz]"	"Sound Pessure Level [dB]  / [2.83V 1m] "	"Frequency [Hz]"	"Sound Pessure Level [dB]  / [2.83V 1m] "	"Frequency [Hz]"	"Sound Pessure Level [dB]  / [2.83V 1m] "
20.5078	50.5034	20.5078	51.87	20.5078	49.5034	20.5078	53.4655	20.5078	48.9941	20.5078	55.1564	20.5078	49.1137	20.5078	56.8434	20.5078	49.9991	20.5078	58.467	20.5078	51.626	20.5078	59.9983	20.5078	53.7374	20.5078	61.4267	20.5078	56.0204	20.5078	62.7506	20.5078	58.2615	20.5078	63.9719	20.5078	60.3537	20.5078	65.0924	20.5078	62.2523	20.5078	66.112	20.5078	63.942	20.5078	67.0273	20.5078	65.418	20.5078	67.8311	20.5078	66.6782	20.5078	68.5125	20.5078	67.7206	20.5078	69.057	20.5078	68.5431	20.5078	69.4478	20.5078	69.1449	20.5078	69.6673	20.5078	69.5281	20.5078	69.6988
21.9727	61.1202	21.9727	61.3859	21.9727	60.978	21.9727	61.7959	21.9727	60.9387	21.9727	62.3579	21.9727	60.9943	21.9727	63.0609	21.9727	61.1594	21.9727	63.8773	21.9727	61.4725	21.9727	64.7711	21.9727	61.9839	21.9727	65.7064	21.9727	62.7302	21.9727	66.6522	21.9727	63.7062	21.9727	67.5835	21.9727	64.8577	21.9727	68.4805	21.9727	66.1018	21.9727	69.3262	21.9727	67.354	21.9727	70.1049	21.9727	68.5442	21.9727	70.8007	21.9727	69.6207	21.9727	71.3964	21.9727	70.5471	21.9727	71.8736	21.9727	71.2994	21.9727	72.2132	21.9727	71.863	21.9727	72.3965	21.9727	72.2318	21.9727	72.4071
23.4375	62.6531	23.4375	62.727	23.4375	62.6295	23.4375	62.9054	23.4375	62.6148	23.4375	63.2409	23.4375	62.5913	23.4375	63.7654	23.4375	62.5743	23.4375	64.4771	23.4375	62.6217	23.4375	65.3427	23.4375	62.8375	23.4375	66.3117	23.4375	63.3432	23.4375	67.3323	23.4375	64.2081	23.4375	68.3603	23.4375	65.3902	23.4375	69.3615	23.4375	66.7593	23.4375	70.3094	23.4375	68.1713	23.4375	71.1825	23.4375	69.5161	23.4375	71.9615	23.4375	70.7233	23.4375	72.6271	23.4375	71.7514	23.4375	73.16	23.4375	72.5775	23.4375	73.5405	23.4375	73.1899	23.4375	73.7493	23.4375	73.5859	23.4375	73.7691
24.9023	67.4774	24.9023	67.5214	24.9023	67.4778	24.9023	67.6405	24.9023	67.5003	24.9023	67.8671	24.9023	67.5364	24.9023	68.2259	24.9023	67.5961	24.9023	68.7264	24.9023	67.711	24.9023	69.3592	24.9023	67.9342	24.9023	70.0989	24.9023	68.3287	24.9023	70.9115	24.9023	68.9415	24.9023	71.7615	24.9023	69.7744	24.9023	72.6159	24.9023	70.7762	24.9023	73.4457	24.9023	71.863	24.9023	74.2256	24.9023	72.9482	24.9023	74.9324	24.9023	73.9596	24.9023	75.544	24.9023	74.8452	24.9023	76.0389	24.9023	75.57	24.9023	76.3963	24.9023	76.1131	24.9023	76.5967	24.9023	76.4646	24.9023	76.6236
26.3672	70.9884	26.3672	71.0273	26.3672	70.9905	26.3672	71.1299	26.3672	71.0179	26.3672	71.3205	26.3672	71.0652	26.3672	71.6192	26.3672	71.1403	26.3672	72.0364	26.3672	71.2671	26.3672	72.5693	26.3672	71.4839	26.3672	73.202	26.3672	71.8365	26.3672	73.91	26.3672	72.3613	26.3672	74.664	26.3672	73.0662	26.3672	75.4347	26.3672	73.9202	26.3672	76.1941	26.3672	74.8627	26.3672	76.9165	26.3672	75.8221	26.3672	77.5775	26.3672	76.7324	26.3672	78.1541	26.3672	77.5407	26.3672	78.6235	26.3672	78.2093	26.3672	78.9646	26.3672	78.7135	26.3672	79.1578	26.3672	79.0404	26.3672	79.1869
27.832	74.4172	27.832	74.4488	27.832	74.424	27.832	74.5335	27.832	74.459	27.832	74.688	27.832	74.5192	27.832	74.927	27.832	74.61	27.832	75.2602	27.832	74.7466	27.832	75.689	27.832	74.9538	27.832	76.2061	27.832	75.2609	27.832	76.7958	27.832	75.694	27.832	77.4373	27.832	76.2633	27.832	78.1064	27.832	76.9552	27.832	78.7781	27.832	77.732	27.832	79.4273	27.832	78.5413	27.832	80.0292	27.832	79.3272	27.832	80.5598	27.832	80.0396	27.832	80.9955	27.832	80.6382	27.832	81.3142	27.832	81.095	27.832	81.4962	27.832	81.393	27.832	81.5259
29.2969	77.5787	29.2969	77.6008	29.2969	77.5924	29.2969	77.6692	29.2969	77.6345	29.2969	77.7962	29.2969	77.7029	29.2969	77.9933	29.2969	77.8017	29.2969	78.269	29.2969	77.9418	29.2969	78.6263	29.2969	78.1407	29.2969	79.0619	29.2969	78.4197	29.2969	79.5659	29.2969	78.7979	29.2969	80.123	29.2969	79.2848	29.2969	80.7138	29.2969	79.8734	29.2969	81.3161	29.2969	80.5379	29.2969	81.9068	29.2969	81.2381	29.2969	82.4617	29.2969	81.9272	29.2969	82.9564	29.2969	82.5593	29.2969	83.3673	29.2969	83.0953	29.2969	83.6717	29.2969	83.5059	29.2969	83.85	29.2969	83.7724	29.2969	83.8867
30.7617	80.2688	30.7617	80.2867	30.7617	80.2862	30.7617	80.3484	30.7617	80.3332	30.7617	80.4637	30.7617	80.4081	30.7617	80.6416	30.7617	80.5136	30.7617	80.8891	30.7617	80.6578	30.7617	81.209	30.7617	80.8534	30.7617	81.5991	30.7617	81.1159	30.7617	82.0521	30.7617	81.4598	30.7617	82.5554	30.7617	81.8932	30.7617	83.0926	30.7617	82.4122	30.7617	83.6443	30.7617	82.9985	30.7617	84.1889	30.7617	83.6209	30.7617	84.7038	30.7617	84.2396	30.7617	85.1653	30.7617	84.8135	30.7617	85.55	30.7617	85.305	30.7617	85.8359	30.7617	85.6845	30.7617	86.0037	30.7617	85.9322	30.7617	86.0386
32.2266	83.055	32.2266	83.0787	32.2266	83.0669	32.2266	83.1436	32.2266	83.1108	32.2266	83.2562	32.2266	83.1858	32.2266	83.4228	32.2266	83.2941	32.2266	83.6484	32.2266	83.4416	32.2266	83.9356	32.2266	83.637	32.2266	84.2835	32.2266	83.8909	32.2266	84.6873	32.2266	84.213	32.2266	85.138	32.2266	84.6084	32.2266	85.6227	32.2266	85.0744	32.2266	86.1253	32.2266	85.5976	32.2266	86.6263	32.2266	86.1538	32.2266	87.1046	32.2266	86.7109	32.2266	87.5369	32.2266	87.2326	32.2266	87.9	32.2266	87.6841	32.2266	88.1715	32.2266	88.036	32.2266	88.3317	32.2266	88.2671	32.2266	88.3661
33.6914	85.3554	33.6914	85.3736	33.6914	85.3739	33.6914	85.4325	33.6914	85.4267	33.6914	85.5368	33.6914	85.5129	33.6914	85.6909	33.6914	85.634	33.6914	85.8984	33.6914	85.7937	33.6914	86.1612	33.6914	85.9976	33.6914	86.4785	33.6914	86.2523	33.6914	86.8465	33.6914	86.5634	33.6914	87.2579	33.6914	86.9336	33.6914	87.702	33.6914	87.3597	33.6914	88.1646	33.6914	87.8308	33.6914	88.6287	33.6914	88.3276	33.6914	89.0746	33.6914	88.8237	33.6914	89.4808	33.6914	89.2883	33.6914	89.8251	33.6914	89.6905	33.6914	90.0858	33.6914	90.0029	33.6914	90.2442	33.6914	90.2052	33.6914	90.2863
35.1562	87.4258	35.1562	87.4381	35.1562	87.4493	35.1562	87.4891	35.1562	87.5069	35.1562	87.582	35.1562	87.5978	35.1562	87.7201	35.1562	87.7228	35.1562	87.9059	35.1562	87.884	35.1562	88.1409	35.1562	88.0847	35.1562	88.4245	35.1562	88.3287	35.1562	88.7537	35.1562	88.6191	35.1562	89.123	35.1562	88.9572	35.1562	89.5235	35.1562	89.3399	35.1562	89.9433	35.1562	89.7588	35.1562	90.3675	35.1562	90.1986	35.1562	90.7781	35.1562	90.6376	35.1562	91.1552	35.1562	91.0494	35.1562	91.4777	35.1562	91.4062	35.1562	91.7249	35.1562	91.6828	35.1562	91.8787	35.1562	91.8597	35.1562	91.9258
36.6211	89.2599	36.6211	89.2699	36.6211	89.2843	36.6211	89.3159	36.6211	89.3416	36.6211	89.4002	36.6211	89.4314	36.6211	89.5249	36.6211	89.5539	36.6211	89.6918	36.6211	89.7101	36.6211	89.9018	36.6211	89.9019	36.6211	90.1546	36.6211	90.1313	36.6211	90.4481	36.6211	90.3998	36.6211	90.778	36.6211	90.7078	36.6211	91.1373	36.6211	91.0526	36.6211	91.516	36.6211	91.4273	36.6211	91.9013	36.6211	91.8193	36.6211	92.277	36.6211	92.2105	36.6211	92.6248	36.6211	92.578	36.6211	92.9246	36.6211	92.8967	36.6211	93.1569	36.6211	93.1432	36.6211	93.3042	36.6211	93.2992	36.6211	93.3536
38.0859	90.7609	38.0859	90.7673	38.0859	90.7875	38.0859	90.808	38.0859	90.8463	38.0859	90.884	38.0859	90.9367	38.0859	90.9969	38.0859	91.0588	38.0859	91.1476	38.0859	91.2126	38.0859	91.3369	38.0859	91.3987	38.0859	91.5643	38.0859	91.6177	38.0859	91.8283	38.0859	91.8698	38.0859	92.1255	38.0859	92.1543	38.0859	92.4503	38.0859	92.4685	38.0859	92.7945	38.0859	92.8065	38.0859	93.1467	38.0859	93.1577	38.0859	93.4926	38.0859	93.5068	38.0859	93.8152	38.0859	93.834	38.0859	94.0959	38.0859	94.1171	38.0859	94.316	38.0859	94.3348	38.0859	94.4588	38.0859	94.4699	38.0859	94.512
39.5508	91.8697	39.5508	91.8691	39.5508	91.9017	39.5508	91.9009	39.5508	91.9647	39.5508	91.9657	39.5508	92.0579	39.5508	92.0643	39.5508	92.1809	39.5508	92.1975	39.5508	92.3331	39.5508	92.3656	39.5508	92.5141	39.5508	92.5685	39.5508	92.7232	39.5508	92.8049	39.5508	92.9597	39.5508	93.0723	39.5508	93.2222	39.5508	93.3662	39.5508	93.5078	39.5508	93.6796	39.5508	93.8114	39.5508	94.0027	39.5508	94.1243	39.5508	94.3227	39.5508	94.4334	39.5508	94.6239	39.5508	94.7219	39.5508	94.8888	39.5508	94.9701	39.5508	95.0998	39.5508	95.1588	39.5508	95.2408	39.5508	95.272	39.5508	95.3
41.0156	92.5002	41.0156	92.5019	41.0156	92.5296	41.0156	92.535	41.0156	92.5899	41.0156	92.5999	41.0156	92.6807	41.0156	92.6966	41.0156	92.8013	41.0156	92.8255	41.0156	92.951	41.0156	92.9865	41.0156	93.1287	41.0156	93.1791	41.0156	93.3329	41.0156	93.4021	41.0156	93.562	41.0156	93.6531	41.0156	93.8136	41.0156	93.9281	41.0156	94.0844	41.0156	94.2209	41.0156	94.3694	41.0156	94.5228	41.0156	94.6608	41.0156	94.8219	41.0156	94.9471	41.0156	95.104	41.0156	95.2133	41.0156	95.3528	41.0156	95.4419	41.0156	95.5516	41.0156	95.6153	41.0156	95.6852	41.0156	95.7186	41.0156	95.7426
42.4805	93.0262	42.4805	93.0174	42.4805	93.0655	42.4805	93.0393	42.4805	93.1348	42.4805	93.0919	42.4805	93.2332	42.4805	93.1752	42.4805	93.3595	42.4805	93.2888	42.4805	93.5121	42.4805	93.4326	42.4805	93.6889	42.4805	93.6059	42.4805	93.8878	42.4805	93.8075	42.4805	94.1063	42.4805	94.0356	42.4805	94.3417	42.4805	94.2869	42.4805	94.5908	42.4805	94.5562	42.4805	94.8489	42.4805	94.8361	42.4805	95.1093	42.4805	95.1162	42.4805	95.3622	42.4805	95.3834	42.4805	95.5947	42.4805	95.6227	42.4805	95.7912	42.4805	95.8181	42.4805	95.9361	42.4805	95.9551	42.4805	96.016	42.4805	96.0229
43.9453	93.3746	43.9453	93.3592	43.9453	93.4195	43.9453	93.3737	43.9453	93.4936	43.9453	93.4177	43.9453	93.5958	43.9453	93.4911	43.9453	93.7246	43.9453	93.5932	43.9453	93.8779	43.9453	93.7238	43.9453	94.0531	43.9453	93.882	43.9453	94.2473	43.9453	94.0667	43.9453	94.4574	43.9453	94.2763	43.9453	94.6799	43.9453	94.5078	43.9453	94.9112	43.9453	94.7568	43.9453	95.1469	43.9453	95.0166	43.9453	95.3809	43.9453	95.278	43.9453	95.6049	43.9453	95.5292	43.9453	95.8078	43.9453	95.7562	43.9453	95.9765	43.9453	95.9444	43.9453	96.0973	43.9453	96.0802	43.9453	96.1586	43.9453	96.1533
45.4102	93.6016	45.4102	93.5846	45.4102	93.647	45.4102	93.5958	45.4102	93.7201	45.4102	93.6348	45.4102	93.8201	45.4102	93.7012	45.4102	93.9452	45.4102	93.7942	45.4102	94.093	45.4102	93.913	45.4102	94.2608	45.4102	94.0568	45.4102	94.445	45.4102	94.2242	45.4102	94.6422	45.4102	94.4138	45.4102	94.8484	45.4102	94.623	45.4102	95.06	45.4102	94.848	45.4102	95.2725	45.4102	95.083	45.4102	95.4806	45.4102	95.3201	45.4102	95.6772	45.4102	95.5489	45.4102	95.853	45.4102	95.7571	45.4102	95.9971	45.4102	95.9316	45.4102	96.0977	45.4102	96.0599	45.4102	96.145	45.4102	96.1326
46.875	93.7035	46.875	93.6849	46.875	93.7493	46.875	93.6932	46.875	93.8218	46.875	93.7276	46.875	93.9202	46.875	93.7872	46.875	94.0425	46.875	93.871	46.875	94.1861	46.875	93.9777	46.875	94.3477	46.875	94.1062	46.875	94.5233	46.875	94.2555	46.875	94.7089	46.875	94.4241	46.875	94.9002	46.875	94.6099	46.875	95.0931	46.875	94.8099	46.875	95.2834	46.875	95.0197	46.875	95.4663	46.875	95.2327	46.875	95.6358	46.875	95.4401	46.875	95.7845	46.875	95.6311	46.875	95.9032	46.875	95.7939	46.875	95.9824	46.875	95.9172	46.875	96.0136	46.875	95.992
48.3398	93.639	48.3398	93.6186	48.3398	93.6864	48.3398	93.6247	48.3398	93.7606	48.3398	93.6562	48.3398	93.8604	48.3398	93.7117	48.3398	93.9839	48.3398	93.7899	48.3398	94.1281	48.3398	93.8892	48.3398	94.289	48.3398	94.0083	48.3398	94.4623	48.3398	94.146	48.3398	94.6432	48.3398	94.3009	48.3398	94.8271	48.3398	94.4713	48.3398	95.0092	48.3398	94.6549	48.3398	95.1854	48.3398	94.8479	48.3398	95.3511	48.3398	95.0448	48.3398	95.5011	48.3398	95.2382	48.3398	95.6292	48.3398	95.4183	48.3398	95.7278	48.3398	95.5745	48.3398	95.789	48.3398	95.6963	48.3398	95.8061	48.3398	95.7751
51.2695	93.5644	51.2695	93.5346	51.2695	93.6178	51.2695	93.5282	51.2695	93.6942	51.2695	93.5444	51.2695	93.7921	51.2695	93.582	51.2695	93.9092	51.2695	93.6394	51.2695	94.0423	51.2695	93.715	51.2695	94.1874	51.2695	93.8071	51.2695	94.3401	51.2695	93.9146	51.2695	94.4955	51.2695	94.0361	51.2695	94.6488	51.2695	94.1705	51.2695	94.7954	51.2695	94.3163	51.2695	94.9315	51.2695	94.471	51.2695	95.0535	51.2695	94.6312	51.2695	95.1579	51.2695	94.7913	51.2695	95.241	51.2695	94.9442	51.2695	95.2986	51.2695	95.0811	51.2695	95.3258	51.2695	95.1935	51.2695	95.3184	51.2695	95.274
52.7344	93.5175	52.7344	93.4881	52.7344	93.5701	52.7344	93.4816	52.7344	93.6454	52.7344	93.4969	52.7344	93.742	52.7344	93.5327	52.7344	93.8574	52.7344	93.5869	52.7344	93.9883	52.7344	93.6578	52.7344	94.1305	52.7344	93.7435	52.7344	94.2792	52.7344	93.8426	52.7344	94.4293	52.7344	93.9538	52.7344	94.5757	52.7344	94.076	52.7344	94.7137	52.7344	94.2082	52.7344	94.8392	52.7344	94.3485	52.7344	94.9486	52.7344	94.4942	52.7344	95.0391	52.7344	94.6409	52.7344	95.1077	52.7344	94.7824	52.7344	95.1513	52.7344	94.9112	52.7344	95.1663	52.7344	95.0195	52.7344	95.1499	52.7344	95.1005
54.1992	93.5139	54.1992	93.4846	54.1992	93.5655	54.1992	93.4771	54.1992	93.6389	54.1992	93.4904	54.1992	93.7329	54.1992	93.5228	54.1992	93.845	54.1992	93.5725	54.1992	93.9721	54.1992	93.6375	54.1992	94.11	54.1992	93.716	54.1992	94.254	54.1992	93.8063	54.1992	94.3989	54.1992	93.9074	54.1992	94.5393	54.1992	94.0184	54.1992	94.6702	54.1992	94.1383	54.1992	94.7873	54.1992	94.266	54.1992	94.887	54.1992	94.3993	54.1992	94.9665	54.1992	94.5348	54.1992	95.0232	54.1992	94.6673	54.1992	95.0548	54.1992	94.7901	54.1992	95.059	54.1992	94.8961	54.1992	95.0338	54.1992	94.9788
55.6641	93.5357	55.6641	93.502	55.6641	93.5907	55.6641	93.4892	55.6641	93.6664	55.6641	93.4964	55.6641	93.7614	55.6641	93.5221	55.6641	93.8734	55.6641	93.5645	55.6641	93.9991	55.6641	93.6216	55.6641	94.1345	55.6641	93.6916	55.6641	94.2747	55.6641	93.773	55.6641	94.4144	55.6641	93.8647	55.6641	94.5483	55.6641	93.9658	55.6641	94.671	55.6641	94.0756	55.6641	94.7782	55.6641	94.1931	55.6641	94.8661	55.6641	94.3168	55.6641	94.9321	55.6641	94.4437	55.6641	94.9743	55.6641	94.5697	55.6641	94.9913	55.6641	94.6889	55.6641	94.9817	55.6641	94.7951	55.6641	94.9451	55.6641	94.882
58.5938	93.5318	58.5938	93.4933	58.5938	93.5898	58.5938	93.474	58.5938	93.6665	58.5938	93.4727	58.5938	93.7604	58.5938	93.488	58.5938	93.8691	58.5938	93.5176	58.5938	93.989	58.5938	93.5596	58.5938	94.1159	58.5938	93.6117	58.5938	94.2446	58.5938	93.6722	58.5938	94.3695	58.5938	93.7398	58.5938	94.4847	58.5938	93.8138	58.5938	94.5847	58.5938	93.8939	58.5938	94.6648	58.5938	93.9804	58.5938	94.7217	58.5938	94.0731	58.5938	94.7536	58.5938	94.1714	58.5938	94.7603	58.5938	94.2735	58.5938	94.7428	58.5938	94.3762	58.5938	94.7028	58.5938	94.4752	58.5938	94.6427	58.5938	94.5656
60.0586	93.5182	60.0586	93.4786	60.0586	93.5769	60.0586	93.4577	60.0586	93.6542	60.0586	93.4547	60.0586	93.7484	60.0586	93.4676	60.0586	93.857	60.0586	93.4943	60.0586	93.9765	60.0586	93.5326	60.0586	94.1025	60.0586	93.5803	60.0586	94.2297	60.0586	93.6354	60.0586	94.3524	60.0586	93.6966	60.0586	94.4645	60.0586	93.7632	60.0586	94.5603	60.0586	93.8353	60.0586	94.6349	60.0586	93.9133	60.0586	94.6849	60.0586	93.9978	60.0586	94.7084	60.0586	94.0888	60.0586	94.7056	60.0586	94.1853	60.0586	94.678	60.0586	94.2848	60.0586	94.6284	60.0586	94.3835	60.0586	94.56	60.0586	94.4769
62.9883	93.5421	62.9883	93.4964	62.9883	93.6047	62.9883	93.4675	62.9883	93.6833	62.9883	93.4546	62.9883	93.7764	62.9883	93.4561	62.9883	93.8812	62.9883	93.4698	62.9883	93.9943	62.9883	93.4937	62.9883	94.1115	62.9883	93.5253	62.9883	94.2275	62.9883	93.5628	62.9883	94.3367	62.9883	93.6047	62.9883	94.4331	62.9883	93.6507	62.9883	94.5109	62.9883	93.701	62.9883	94.565	62.9883	93.7567	62.9883	94.592	62.9883	93.8194	62.9883	94.5905	62.9883	93.8906	62.9883	94.5615	62.9883	93.9709	62.9883	94.5081	62.9883	94.0598	62.9883	94.4351	62.9883	94.155	62.9883	94.348	62.9883	94.2528
64.4531	93.5481	64.4531	93.4994	64.4531	93.6131	64.4531	93.4672	64.4531	93.6935	64.4531	93.4506	64.4531	93.7877	64.4531	93.4481	64.4531	93.8928	64.4531	93.4577	64.4531	94.0053	64.4531	93.477	64.4531	94.121	64.4531	93.5037	64.4531	94.2347	64.4531	93.5357	64.4531	94.3405	64.4531	93.5717	64.4531	94.4324	64.4531	93.611	64.4531	94.5045	64.4531	93.6541	64.4531	94.5516	64.4531	93.7023	64.4531	94.5703	64.4531	93.7575	64.4531	94.5593	64.4531	93.8219	64.4531	94.52	64.4531	93.8968	64.4531	94.4562	64.4531	93.9824	64.4531	94.3734	64.4531	94.0771	64.4531	94.2783	64.4531	94.1774
67.3828	93.5549	67.3828	93.5005	67.3828	93.6247	67.3828	93.4619	67.3828	93.709	67.3828	93.4383	67.3828	93.8057	67.3828	93.4283	67.3828	93.912	67.3828	93.4298	67.3828	94.0244	67.3828	93.4404	67.3828	94.1382	67.3828	93.4576	67.3828	94.2484	67.3828	93.4792	67.3828	94.3489	67.3828	93.5036	67.3828	94.4335	67.3828	93.5304	67.3828	94.496	67.3828	93.56	67.3828	94.5311	67.3828	93.5943	67.3828	94.5351	67.3828	93.6361	67.3828	94.5071	67.3828	93.6886	67.3828	94.449	67.3828	93.7547	67.3828	94.3655	67.3828	93.8359	67.3828	94.2637	67.3828	93.9317	67.3828	94.152	67.3828	94.0389
68.8477	93.5751	68.8477	93.5182	68.8477	93.6467	68.8477	93.4761	68.8477	93.7317	68.8477	93.4483	68.8477	93.8281	68.8477	93.4335	68.8477	93.9331	68.8477	93.4296	68.8477	94.0431	68.8477	93.4342	68.8477	94.1537	68.8477	93.4448	68.8477	94.2599	68.8477	93.4593	68.8477	94.3557	68.8477	93.476	68.8477	94.4348	68.8477	93.4946	68.8477	94.491	68.8477	93.5157	68.8477	94.5189	68.8477	93.5414	68.8477	94.5147	68.8477	93.5751	68.8477	94.4775	68.8477	93.6204	68.8477	94.4093	68.8477	93.6809	68.8477	94.3154	68.8477	93.7589	68.8477	94.2038	68.8477	93.8545	68.8477	94.0838	68.8477	93.9646
