"SPL Horizontal"
"On-Axis"		"10°"		"-10°"		"20°"		"-20°"		"30°"		"-30°"		"40°"		"-40°"		"50°"		"-50°"		"60°"		"-60°"		"70°"		"-70°"		"80°"		"-80°"		"90°"		"-90°"		"100°"		"-100°"		"110°"		"-110°"		"120°"		"-120°"		"130°"		"-130°"		"140°"		"-140°"		"150°"		"-150°"		"160°"		"-160°"		"170°"		"-170°"		"180°"
"Frequency [Hz]"	"Sound Pessure Level [dB]  / [2.83V 1m] "	"Frequency [Hz]"	"Sound Pessure Level [dB]  / [2.83V 1m] "	"Frequency [Hz]"	"Sound Pessure Level [dB]  / [2.83V 1m] "	"Frequency [Hz]"	"Sound Pessure Level [dB]  / [2.83V 1m] "	"Frequency [Hz]"	"Sound Pessure Level [dB]  / [2.83V 1m] "	"Frequency [Hz]"	"Sound Pessure Level [dB]  / [2.83V 1m] "	"Frequency [Hz]"	"Sound Pessure Level [dB]  / [2.83V 1m] "	"Frequency [Hz]"	"Sound Pessure Level [dB]  / [2.83V 1m] "	"Frequency [Hz]"	"Sound Pessure Level [dB]  / [2.83V 1m] "	"Frequency [Hz]"	"Sound Pessure Level [dB]  / [2.83V 1m] "	"Frequency [Hz]"	"Sound Pessure Level [dB]  / [2.83V 1m] "	"Frequency [Hz]"	"Sound Pessure Level [dB]  / [2.83V 1m] "	"Frequency [Hz]"	"Sound Pessure Level [dB]  / [2.83V 1m] "	"Frequency [Hz]"	"Sound Pessure Level [dB]  / [2.83V 1m] "	"Frequency [Hz]"	"Sound Pessure Level [dB]  / [2.83V 1m] "	"Frequency [Hz]"	"Sound Pessure Level [dB]  / [2.83V 1m] "	"Frequency [Hz]"	"Sound Pessure Level [dB]  / [2.83V 1m] "	"Frequency [Hz]"	"Sound Pessure Level [dB]  / [2.83V 1m] "	"Frequency [Hz]"	"Sound Pessure Level [dB]  / [2.83V 1m] "	"Frequency [Hz]"	"Sound Pessure Level [dB]  / [2.83V 1m] "	"Frequency [Hz]"	"Sound Pessure Level [dB]  / [2.83V 1m] "	"Frequency [Hz]"	"Sound Pessure Level [dB]  / [2.83V 1m] "	"Frequency [Hz]"	"Sound Pessure Level [dB]  / [2.83V 1m] "	"Frequency [Hz]"	"Sound Pessure Level [dB]  / [2.83V 1m] "	"Frequency [Hz]"	"Sound Pessure Level [dB]  / [2.83V 1m] "	"Frequency [Hz]"	"Sound Pessure Level [dB]  / [2.83V 1m] "	"Frequency [Hz]"	"Sound Pessure Level [dB]  / [2.83V 1m] "	"Frequency [Hz]"	"Sound Pessure Level [dB]  / [2.83V 1m] "	"Frequency [Hz]"	"Sound Pessure Level [dB]  / [2.83V 1m] "	"Frequency [Hz]"	"Sound Pessure Level [dB]  / [2.83V 1m] "	"Frequency [Hz]"	"Sound Pessure Level [dB]  / [2.83V 1m] "	"Frequency [Hz]"	"Sound Pessure Level [dB]  / [2.83V 1m] "	"Frequency [Hz]"	"Sound Pessure Level [dB]  / [2.83V 1m] "	"Frequency [Hz]"	"Sound Pessure Level [dB]  / [2.83V 1m] "	"Frequency [Hz]"	"Sound Pessure Level [dB]  / [2.83V 1m] "	"Frequency [Hz]"	"Sound Pessure Level [dB]  / [2.83V 1m] "
20.5078	50.5034	20.5078	50.7952	20.5078	50.7257	20.5078	51.5955	20.5078	51.4547	20.5078	52.8503	20.5078	52.644	20.5078	54.4328	20.5078	54.1753	20.5078	56.1848	20.5078	55.89	20.5078	57.9737	20.5078	57.6494	20.5078	59.713	20.5078	59.3615	20.5078	61.3548	20.5078	60.9768	20.5078	62.8749	20.5078	62.4734	20.5078	64.2616	20.5078	63.8439	20.5078	65.5084	20.5078	65.0866	20.5078	66.6099	20.5078	66.2002	20.5078	67.5595	20.5078	67.1801	20.5078	68.3484	20.5078	68.0179	20.5078	68.9662	20.5078	68.7016	20.5078	69.4024	20.5078	69.2178	20.5078	69.6483	20.5078	69.5535	20.5078	69.6988
21.9727	61.1202	21.9727	61.2161	21.9727	61.1328	21.9727	61.4255	21.9727	61.2651	21.9727	61.765	21.9727	61.5413	21.9727	62.2535	21.9727	61.988	21.9727	62.9003	21.9727	62.6188	21.9727	63.6961	21.9727	63.4229	21.9727	64.6121	21.9727	64.3643	21.9727	65.6069	21.9727	65.3927	21.9727	66.6362	21.9727	66.456	21.9727	67.6591	21.9727	67.5093	21.9727	68.6413	21.9727	68.517	21.9727	69.5546	21.9727	69.4514	21.9727	70.3749	21.9727	70.2899	21.9727	71.0807	21.9727	71.0125	21.9727	71.6523	21.9727	71.6007	21.9727	72.0723	21.9727	72.0376	21.9727	72.327	21.9727	72.3095	21.9727	72.4071
23.4375	62.6531	23.4375	62.6626	23.4375	62.6553	23.4375	62.6988	23.4375	62.6817	23.4375	62.8027	23.4375	62.7723	23.4375	63.034	23.4375	62.9894	23.4375	63.4546	23.4375	63.3999	23.4375	64.1023	23.4375	64.0463	23.4375	64.9699	23.4375	64.9218	23.4375	66.0072	23.4375	65.9721	23.4375	67.142	23.4375	67.1201	23.4375	68.3034	23.4375	68.2914	23.4375	69.4334	23.4375	69.4273	23.4375	70.4879	23.4375	70.4845	23.4375	71.4334	23.4375	71.4308	23.4375	72.2437	23.4375	72.2412	23.4375	72.8975	23.4375	72.8951	23.4375	73.3775	23.4375	73.3757	23.4375	73.6708	23.4375	73.6698	23.4375	73.7691
24.9023	67.4774	24.9023	67.4771	24.9023	67.5018	24.9023	67.5088	24.9023	67.5577	24.9023	67.5947	24.9023	67.6673	24.9023	67.7686	24.9023	67.8644	24.9023	68.0683	24.9023	68.1864	24.9023	68.5237	24.9023	68.6627	24.9023	69.1449	24.9023	69.3016	24.9023	69.9152	24.9023	70.0844	24.9023	70.7959	24.9023	70.9707	24.9023	71.7371	24.9023	71.9097	24.9023	72.6883	24.9023	72.8512	24.9023	73.6041	24.9023	73.7512	24.9023	74.4462	24.9023	74.5726	24.9023	75.1826	24.9023	75.2853	24.9023	75.7868	24.9023	75.8643	24.9023	76.2378	24.9023	76.2894	24.9023	76.5199	24.9023	76.5457	24.9023	76.6236
26.3672	70.9884	26.3672	71.0105	26.3672	70.9936	26.3672	71.0663	26.3672	71.0309	26.3672	71.1721	26.3672	71.1161	26.3672	71.352	26.3672	71.2743	26.3672	71.6324	26.3672	71.5352	26.3672	72.0353	26.3672	71.9249	26.3672	72.5701	26.3672	72.4566	26.3672	73.2285	26.3672	73.1227	26.3672	73.985	26.3672	73.8958	26.3672	74.803	26.3672	74.7349	26.3672	75.6411	26.3672	75.5941	26.3672	76.4586	26.3672	76.4294	26.3672	77.2183	26.3672	77.2022	26.3672	77.8874	26.3672	77.8798	26.3672	78.4382	26.3672	78.4353	26.3672	78.8484	26.3672	78.8476	26.3672	79.1013	26.3672	79.1013	26.3672	79.1869
27.832	74.4172	27.832	74.436	27.832	74.4289	27.832	74.4892	27.832	74.4743	27.832	74.5872	27.832	74.5638	27.832	74.7458	27.832	74.7135	27.832	74.983	27.832	74.9428	27.832	75.3153	27.832	75.2695	27.832	75.7522	27.832	75.7045	27.832	76.292	27.832	76.2468	27.832	76.9209	27.832	76.881	27.832	77.6135	27.832	77.5803	27.832	78.3374	27.832	78.3102	27.832	79.0567	27.832	79.0339	27.832	79.7355	27.832	79.7157	27.832	80.3406	27.832	80.3231	27.832	80.8429	27.832	80.8281	27.832	81.2185	27.832	81.2075	27.832	81.4497	27.832	81.4438	27.832	81.5259
29.2969	77.5787	29.2969	77.5944	29.2969	77.5931	29.2969	77.6427	29.2969	77.6399	29.2969	77.7311	29.2969	77.7267	29.2969	77.8712	29.2969	77.8649	29.2969	78.0765	29.2969	78.0681	29.2969	78.3601	29.2969	78.3497	29.2969	78.7308	29.2969	78.7187	29.2969	79.1899	29.2969	79.1766	29.2969	79.7291	29.2969	79.715	29.2969	80.3304	29.2969	80.3158	29.2969	80.9678	29.2969	80.9529	29.2969	81.6105	29.2969	81.5956	29.2969	82.2256	29.2969	82.2109	29.2969	82.7807	29.2969	82.767	29.2969	83.2462	29.2969	83.2345	29.2969	83.5971	29.2969	83.5885	29.2969	83.8145	29.2969	83.8099	29.2969	83.8867
30.7617	80.2688	30.7617	80.2934	30.7617	80.2756	30.7617	80.3523	30.7617	80.3152	30.7617	80.4513	30.7617	80.3924	30.7617	80.599	30.7617	80.5155	30.7617	80.8052	30.7617	80.695	30.7617	81.0787	30.7617	80.9417	30.7617	81.4253	30.7617	81.2644	30.7617	81.845	30.7617	81.6662	30.7617	82.331	30.7617	82.143	30.7617	82.8689	30.7617	82.6816	30.7617	83.4375	30.7617	83.2606	30.7617	84.0113	30.7617	83.8524	30.7617	84.5617	30.7617	84.4262	30.7617	85.0596	30.7617	84.9506	30.7617	85.4775	30.7617	85.3961	30.7617	85.7914	30.7617	85.7375	30.7617	85.9824	30.7617	85.9556	30.7617	86.0386
32.2266	83.055	32.2266	83.0822	32.2266	83.0604	32.2266	83.1435	32.2266	83.0999	32.2266	83.2429	32.2266	83.1776	32.2266	83.3862	32.2266	83.2998	32.2266	83.58	32.2266	83.4745	32.2266	83.8305	32.2266	83.7096	32.2266	84.1422	32.2266	84.011	32.2266	84.5155	32.2266	84.3808	32.2266	84.9463	32.2266	84.8151	32.2266	85.4244	32.2266	85.3032	32.2266	85.9341	32.2266	85.8275	32.2266	86.4545	32.2266	86.3649	32.2266	86.9604	32.2266	86.8881	32.2266	87.4245	32.2266	87.3687	32.2266	87.8195	32.2266	87.7788	32.2266	88.1203	32.2266	88.0937	32.2266	88.3068	32.2266	88.2936	32.2266	88.3661
33.6914	85.3554	33.6914	85.3782	33.6914	85.3675	33.6914	85.4369	33.6914	85.4158	33.6914	85.5339	33.6914	85.503	33.6914	85.673	33.6914	85.6335	33.6914	85.8588	33.6914	85.8123	33.6914	86.0956	33.6914	86.0442	33.6914	86.3862	33.6914	86.3326	33.6914	86.7308	33.6914	86.678	33.6914	87.1259	33.6914	87.0765	33.6914	87.5633	33.6914	87.5193	33.6914	88.0297	33.6914	87.9924	33.6914	88.507	33.6914	88.4765	33.6914	88.9728	33.6914	88.9487	33.6914	89.4023	33.6914	89.3837	33.6914	89.7697	33.6914	89.756	33.6914	90.0512	33.6914	90.0421	33.6914	90.2276	33.6914	90.223	33.6914	90.2863
35.1562	87.4258	35.1562	87.4439	35.1562	87.4423	35.1562	87.4975	35.1562	87.4944	35.1562	87.5882	35.1562	87.5835	35.1562	87.7186	35.1562	87.7126	35.1562	87.8916	35.1562	87.8845	35.1562	88.1102	35.1562	88.1023	35.1562	88.3761	35.1562	88.3679	35.1562	88.6892	35.1562	88.6811	35.1562	89.0466	35.1562	89.039	35.1562	89.4414	35.1562	89.4347	35.1562	89.8627	35.1562	89.8569	35.1562	90.2949	35.1562	90.2899	35.1562	90.7184	35.1562	90.7139	35.1562	91.1105	35.1562	91.1064	35.1562	91.4476	35.1562	91.444	35.1562	91.707	35.1562	91.7043	35.1562	91.8704	35.1562	91.8689	35.1562	91.9258
36.6211	89.2599	36.6211	89.2802	36.6211	89.2733	36.6211	89.3346	36.6211	89.3207	36.6211	89.4242	36.6211	89.4032	36.6211	89.5505	36.6211	89.5224	36.6211	89.7152	36.6211	89.6803	36.6211	89.9199	36.6211	89.8787	36.6211	90.1653	36.6211	90.1188	36.6211	90.4508	36.6211	90.4004	36.6211	90.7737	36.6211	90.7211	36.6211	91.1283	36.6211	91.0755	36.6211	91.5057	36.6211	91.4544	36.6211	91.8927	36.6211	91.8448	36.6211	92.2725	36.6211	92.2296	36.6211	92.6249	36.6211	92.5884	36.6211	92.9283	36.6211	92.8994	36.6211	93.1616	36.6211	93.1415	36.6211	93.3072	36.6211	93.2969	36.6211	93.3536
38.0859	90.7609	38.0859	90.7831	38.0859	90.7715	38.0859	90.8382	38.0859	90.8153	38.0859	90.9267	38.0859	90.8928	38.0859	91.0493	38.0859	91.0049	38.0859	91.2067	38.0859	91.1528	38.0859	91.3994	38.0859	91.3374	38.0859	91.6274	38.0859	91.5591	38.0859	91.8896	38.0859	91.8173	38.0859	92.1835	38.0859	92.1097	38.0859	92.5043	38.0859	92.4317	38.0859	92.8444	38.0859	92.7755	38.0859	93.1928	38.0859	93.1299	38.0859	93.535	38.0859	93.4799	38.0859	93.8532	38.0859	93.8072	38.0859	94.1277	38.0859	94.0921	38.0859	94.3391	38.0859	94.3148	38.0859	94.4709	38.0859	94.4585	38.0859	94.512
39.5508	91.8697	39.5508	91.892	39.5508	91.8791	39.5508	91.9459	39.5508	91.9205	39.5508	92.0314	39.5508	91.9942	39.5508	92.1485	39.5508	92.1005	39.5508	92.2973	39.5508	92.2399	39.5508	92.4774	39.5508	92.4125	39.5508	92.6882	39.5508	92.618	39.5508	92.9284	39.5508	92.8553	39.5508	93.1954	39.5508	93.1221	39.5508	93.4853	39.5508	93.4143	39.5508	93.7917	39.5508	93.7252	39.5508	94.1053	39.5508	94.0453	39.5508	94.4137	39.5508	94.3617	39.5508	94.7012	39.5508	94.6582	39.5508	94.9501	39.5508	94.917	39.5508	95.1425	39.5508	95.1198	39.5508	95.2626	39.5508	95.2511	39.5508	95.3
41.0156	92.5002	41.0156	92.5179	41.0156	92.5135	41.0156	92.5665	41.0156	92.5578	41.0156	92.6457	41.0156	92.633	41.0156	92.7551	41.0156	92.739	41.0156	92.8941	41.0156	92.8756	41.0156	93.062	41.0156	93.0426	41.0156	93.2577	41.0156	93.2394	41.0156	93.4799	41.0156	93.4651	41.0156	93.7268	41.0156	93.7176	41.0156	93.9952	41.0156	93.9932	41.0156	94.2804	41.0156	94.2857	41.0156	94.5748	41.0156	94.5863	41.0156	94.8675	41.0156	94.8825	41.0156	95.1436	41.0156	95.1593	41.0156	95.3859	41.0156	95.3996	41.0156	95.5762	41.0156	95.5861	41.0156	95.6987	41.0156	95.7038	41.0156	95.7426
42.4805	93.0262	42.4805	93.0325	42.4805	93.05	42.4805	93.0689	42.4805	93.1037	42.4805	93.1352	42.4805	93.1867	42.4805	93.2308	42.4805	93.2983	42.4805	93.3551	42.4805	93.4374	42.4805	93.5071	42.4805	93.6028	42.4805	93.6859	42.4805	93.7929	42.4805	93.8903	42.4805	94.0058	42.4805	94.1187	42.4805	94.2389	42.4805	94.3682	42.4805	94.4888	42.4805	94.6346	42.4805	94.7505	42.4805	94.9105	42.4805	95.0167	42.4805	95.1856	42.4805	95.2778	42.4805	95.4459	42.4805	95.521	42.4805	95.6752	42.4805	95.7316	42.4805	95.8567	42.4805	95.894	42.4805	95.9759	42.4805	95.9944	42.4805	96.0229
43.9453	93.3746	43.9453	93.3765	43.9453	93.4016	43.9453	93.4073	43.9453	93.4573	43.9453	93.4669	43.9453	93.5406	43.9453	93.5545	43.9453	93.6506	43.9453	93.6694	43.9453	93.7857	43.9453	93.8107	43.9453	93.9441	43.9453	93.9772	43.9453	94.124	43.9453	94.1679	43.9453	94.3231	43.9453	94.3808	43.9453	94.5389	43.9453	94.6135	43.9453	94.7683	43.9453	94.8616	43.9453	95.0068	43.9453	95.1183	43.9453	95.2483	43.9453	95.3738	43.9453	95.4843	43.9453	95.6154	43.9453	95.7038	43.9453	95.8282	43.9453	95.8936	43.9453	95.9969	43.9453	96.0396	43.9453	96.1083	43.9453	96.1293	43.9453	96.1533
45.4102	93.6016	45.4102	93.6076	45.4102	93.6232	45.4102	93.6411	45.4102	93.672	45.4102	93.7016	45.4102	93.7471	45.4102	93.7884	45.4102	93.8472	45.4102	93.9003	45.4102	93.9707	45.4102	94.0361	45.4102	94.1157	45.4102	94.1943	45.4102	94.28	45.4102	94.3734	45.4102	94.4614	45.4102	94.5711	45.4102	94.6573	45.4102	94.7845	45.4102	94.8647	45.4102	95.0093	45.4102	95.08	45.4102	95.2393	45.4102	95.2978	45.4102	95.4657	45.4102	95.511	45.4102	95.6776	45.4102	95.71	45.4102	95.8622	45.4102	95.8835	45.4102	96.0065	45.4102	96.0188	45.4102	96.0992	45.4102	96.1047	45.4102	96.1326
46.875	93.7035	46.875	93.7167	46.875	93.7172	46.875	93.7564	46.875	93.7574	46.875	93.8218	46.875	93.8231	46.875	93.9118	46.875	93.9131	46.875	94.0244	46.875	94.0253	46.875	94.1577	46.875	94.1577	46.875	94.3094	46.875	94.3079	46.875	94.4772	46.875	94.4734	46.875	94.6583	46.875	94.6516	46.875	94.8497	46.875	94.8396	46.875	95.0474	46.875	95.034	46.875	95.2463	46.875	95.2301	46.875	95.4398	46.875	95.4219	46.875	95.619	46.875	95.6011	46.875	95.7739	46.875	95.7579	46.875	95.8936	46.875	95.8816	46.875	95.9685	46.875	95.9621	46.875	95.992
48.3398	93.639	48.3398	93.6545	48.3398	93.6503	48.3398	93.6962	48.3398	93.6881	48.3398	93.7631	48.3398	93.7514	48.3398	93.8534	48.3398	93.8385	48.3398	93.9649	48.3398	93.9474	48.3398	94.0952	48.3398	94.0755	48.3398	94.2414	48.3398	94.2199	48.3398	94.4008	48.3398	94.3778	48.3398	94.5706	48.3398	94.5463	48.3398	94.7477	48.3398	94.7224	48.3398	94.9285	48.3398	94.9026	48.3398	95.1088	48.3398	95.0829	48.3398	95.2829	48.3398	95.2579	48.3398	95.4435	48.3398	95.4206	48.3398	95.5818	48.3398	95.5625	48.3398	95.6884	48.3398	95.6744	48.3398	95.7548	48.3398	95.7474	48.3398	95.7751
51.2695	93.5644	51.2695	93.5793	51.2695	93.5728	51.2695	93.617	51.2695	93.6042	51.2695	93.6764	51.2695	93.6577	51.2695	93.7556	51.2695	93.7316	51.2695	93.8521	51.2695	93.8236	51.2695	93.9633	51.2695	93.9311	51.2695	94.0862	51.2695	94.0514	51.2695	94.2178	51.2695	94.1816	51.2695	94.3551	51.2695	94.3187	51.2695	94.4955	51.2695	94.46	51.2695	94.6361	51.2695	94.6026	51.2695	94.7739	51.2695	94.7434	51.2695	94.9054	51.2695	94.8786	51.2695	95.0258	51.2695	95.0034	51.2695	95.1293	51.2695	95.1118	51.2695	95.2092	51.2695	95.1971	51.2695	95.2589	51.2695	95.2528	51.2695	95.274
52.7344	93.5175	52.7344	93.5299	52.7344	93.5279	52.7344	93.5648	52.7344	93.5607	52.7344	93.6209	52.7344	93.615	52.7344	93.6962	52.7344	93.6888	52.7344	93.7883	52.7344	93.7796	52.7344	93.8941	52.7344	93.8848	52.7344	94.0106	52.7344	94.0011	52.7344	94.1344	52.7344	94.1254	52.7344	94.2625	52.7344	94.2548	52.7344	94.3922	52.7344	94.3861	52.7344	94.5207	52.7344	94.5167	52.7344	94.6457	52.7344	94.6436	52.7344	94.7641	52.7344	94.7637	52.7344	94.8723	52.7344	94.8729	52.7344	94.9654	52.7344	94.9665	52.7344	95.0379	52.7344	95.0389	52.7344	95.0843	52.7344	95.0849	52.7344	95.1005
54.1992	93.5139	54.1992	93.5226	54.1992	93.527	54.1992	93.5526	54.1992	93.5614	54.1992	93.603	54.1992	93.616	54.1992	93.6718	54.1992	93.6889	54.1992	93.7565	54.1992	93.7775	54.1992	93.8545	54.1992	93.8791	54.1992	93.9626	54.1992	93.9905	54.1992	94.0776	54.1992	94.1084	54.1992	94.1967	54.1992	94.2297	54.1992	94.3172	54.1992	94.3515	54.1992	94.4366	54.1992	94.4709	54.1992	94.5525	54.1992	94.5854	54.1992	94.6622	54.1992	94.6922	54.1992	94.7625	54.1992	94.788	54.1992	94.8489	54.1992	94.8689	54.1992	94.9168	54.1992	94.9304	54.1992	94.9613	54.1992	94.9682	54.1992	94.9788
55.6641	93.5357	55.6641	93.5442	55.6641	93.5479	55.6641	93.573	55.6641	93.5804	55.6641	93.621	55.6641	93.6322	55.6641	93.6863	55.6641	93.7014	55.6641	93.7668	55.6641	93.7857	55.6641	93.8595	55.6641	93.8821	55.6641	93.9616	55.6641	93.9875	55.6641	94.0699	55.6641	94.0984	55.6641	94.1816	55.6641	94.2115	55.6641	94.2939	55.6641	94.324	55.6641	94.4041	55.6641	94.4329	55.6641	94.5098	55.6641	94.5359	55.6641	94.6084	55.6641	94.6308	55.6641	94.697	55.6641	94.715	55.6641	94.7723	55.6641	94.7855	55.6641	94.8304	55.6641	94.839	55.6641	94.8678	55.6641	94.872	55.6641	94.882
58.5938	93.5318	58.5938	93.5405	58.5938	93.5423	58.5938	93.5677	58.5938	93.5714	58.5938	93.6124	58.5938	93.618	58.5938	93.6724	58.5938	93.6802	58.5938	93.7453	58.5938	93.7554	58.5938	93.8278	58.5938	93.8403	58.5938	93.9165	58.5938	93.9315	58.5938	94.0078	58.5938	94.025	58.5938	94.0983	58.5938	94.1173	58.5938	94.185	58.5938	94.2053	58.5938	94.2654	58.5938	94.2863	58.5938	94.3379	58.5938	94.3586	58.5938	94.4016	58.5938	94.4212	58.5938	94.4559	58.5938	94.4734	58.5938	94.5004	58.5938	94.5146	58.5938	94.5342	58.5938	94.5443	58.5938	94.5563	58.5938	94.5615	58.5938	94.5656
60.0586	93.5182	60.0586	93.5242	60.0586	93.5311	60.0586	93.5486	60.0586	93.5624	60.0586	93.5902	60.0586	93.6107	60.0586	93.6472	60.0586	93.6742	60.0586	93.7167	60.0586	93.7498	60.0586	93.7955	60.0586	93.8343	60.0586	93.8801	60.0586	93.9239	60.0586	93.9667	60.0586	94.0146	60.0586	94.0519	60.0586	94.1026	60.0586	94.1325	60.0586	94.1847	60.0586	94.2064	60.0586	94.2584	60.0586	94.272	60.0586	94.3218	60.0586	94.3287	60.0586	94.3745	60.0586	94.3765	60.0586	94.4161	60.0586	94.4154	60.0586	94.447	60.0586	94.4454	60.0586	94.4674	60.0586	94.4661	60.0586	94.4774	60.0586	94.4769
62.9883	93.5421	62.9883	93.5459	62.9883	93.5546	62.9883	93.5658	62.9883	93.583	62.9883	93.6008	62.9883	93.626	62.9883	93.6489	62.9883	93.6816	62.9883	93.7079	62.9883	93.7471	62.9883	93.7744	62.9883	93.8194	62.9883	93.845	62.9883	93.8948	62.9883	93.9161	62.9883	93.9694	62.9883	93.984	62.9883	94.0396	62.9883	94.0458	62.9883	94.1023	62.9883	94.0991	62.9883	94.1548	62.9883	94.1429	62.9883	94.196	62.9883	94.1771	62.9883	94.2256	62.9883	94.2027	62.9883	94.2447	62.9883	94.2215	62.9883	94.255	62.9883	94.2352	62.9883	94.2586	62.9883	94.2454	62.9883	94.2574	62.9883	94.2528
64.4531	93.5481	64.4531	93.5504	64.4531	93.5615	64.4531	93.5684	64.4531	93.5902	64.4531	93.601	64.4531	93.6329	64.4531	93.6463	64.4531	93.6876	64.4531	93.702	64.4531	93.7514	64.4531	93.7649	64.4531	93.8212	64.4531	93.8314	64.4531	93.8932	64.4531	93.8978	64.4531	93.9636	64.4531	93.9604	64.4531	94.0285	64.4531	94.0161	64.4531	94.0848	64.4531	94.0626	64.4531	94.1299	64.4531	94.099	64.4531	94.1626	64.4531	94.1255	64.4531	94.1832	64.4531	94.1434	64.4531	94.193	64.4531	94.1553	64.4531	94.1946	64.4531	94.1636	64.4531	94.1909	64.4531	94.1705	64.4531	94.1845	64.4531	94.1774
67.3828	93.5549	67.3828	93.5535	67.3828	93.5712	67.3828	93.5669	67.3828	93.602	67.3828	93.5942	67.3828	93.6457	67.3828	93.6336	67.3828	93.7003	67.3828	93.6827	67.3828	93.7629	67.3828	93.7383	67.3828	93.83	67.3828	93.7968	67.3828	93.8974	67.3828	93.8543	67.3828	93.961	67.3828	93.907	67.3828	94.0166	67.3828	93.9518	67.3828	94.0609	67.3828	93.9863	67.3828	94.0915	67.3828	94.0098	67.3828	94.1076	67.3828	94.0231	67.3828	94.1102	67.3828	94.0283	67.3828	94.102	67.3828	94.029	67.3828	94.0866	67.3828	94.0289	67.3828	94.0685	67.3828	94.0315	67.3828	94.0516	67.3828	94.0389
68.8477	93.5751	68.8477	93.571	68.8477	93.5933	68.8477	93.5807	68.8477	93.6248	68.8477	93.6035	68.8477	93.6683	68.8477	93.6377	68.8477	93.7216	68.8477	93.6811	68.8477	93.7819	68.8477	93.7307	68.8477	93.8456	68.8477	93.7829	68.8477	93.9086	68.8477	93.8338	68.8477	93.9665	68.8477	93.8799	68.8477	94.0154	68.8477	93.9178	68.8477	94.0518	68.8477	93.9453	68.8477	94.0734	68.8477	93.9617	68.8477	94.0798	68.8477	93.9678	68.8477	94.0723	68.8477	93.9663	68.8477	94.0539	68.8477	93.9611	68.8477	94.0292	68.8477	93.9566	68.8477	94.0032	68.8477	93.9569	68.8477	93.9806	68.8477	93.9646
