"SPL Vertical"
"On-Axis"		"10°"		"-10°"		"20°"		"-20°"		"30°"		"-30°"		"40°"		"-40°"		"50°"		"-50°"		"60°"		"-60°"		"70°"		"-70°"		"80°"		"-80°"		"90°"		"-90°"		"100°"		"-100°"		"110°"		"-110°"		"120°"		"-120°"		"130°"		"-130°"		"140°"		"-140°"		"150°"		"-150°"		"160°"		"-160°"		"170°"		"-170°"		"180°"
"Frequency / Hz"	"Sound Pressure Level / dB (re 20 µPa/V)   /[0.3V at 1m]"	"Frequency / Hz"	"Sound Pressure Level / dB (re 20 µPa/V)   /[0.3V at 1m]"	"Frequency / Hz"	"Sound Pressure Level / dB (re 20 µPa/V)   /[0.3V at 1m]"	"Frequency / Hz"	"Sound Pressure Level / dB (re 20 µPa/V)   /[0.3V at 1m]"	"Frequency / Hz"	"Sound Pressure Level / dB (re 20 µPa/V)   /[0.3V at 1m]"	"Frequency / Hz"	"Sound Pressure Level / dB (re 20 µPa/V)   /[0.3V at 1m]"	"Frequency / Hz"	"Sound Pressure Level / dB (re 20 µPa/V)   /[0.3V at 1m]"	"Frequency / Hz"	"Sound Pressure Level / dB (re 20 µPa/V)   /[0.3V at 1m]"	"Frequency / Hz"	"Sound Pressure Level / dB (re 20 µPa/V)   /[0.3V at 1m]"	"Frequency / Hz"	"Sound Pressure Level / dB (re 20 µPa/V)   /[0.3V at 1m]"	"Frequency / Hz"	"Sound Pressure Level / dB (re 20 µPa/V)   /[0.3V at 1m]"	"Frequency / Hz"	"Sound Pressure Level / dB (re 20 µPa/V)   /[0.3V at 1m]"	"Frequency / Hz"	"Sound Pressure Level / dB (re 20 µPa/V)   /[0.3V at 1m]"	"Frequency / Hz"	"Sound Pressure Level / dB (re 20 µPa/V)   /[0.3V at 1m]"	"Frequency / Hz"	"Sound Pressure Level / dB (re 20 µPa/V)   /[0.3V at 1m]"	"Frequency / Hz"	"Sound Pressure Level / dB (re 20 µPa/V)   /[0.3V at 1m]"	"Frequency / Hz"	"Sound Pressure Level / dB (re 20 µPa/V)   /[0.3V at 1m]"	"Frequency / Hz"	"Sound Pressure Level / dB (re 20 µPa/V)   /[0.3V at 1m]"	"Frequency / Hz"	"Sound Pressure Level / dB (re 20 µPa/V)   /[0.3V at 1m]"	"Frequency / Hz"	"Sound Pressure Level / dB (re 20 µPa/V)   /[0.3V at 1m]"	"Frequency / Hz"	"Sound Pressure Level / dB (re 20 µPa/V)   /[0.3V at 1m]"	"Frequency / Hz"	"Sound Pressure Level / dB (re 20 µPa/V)   /[0.3V at 1m]"	"Frequency / Hz"	"Sound Pressure Level / dB (re 20 µPa/V)   /[0.3V at 1m]"	"Frequency / Hz"	"Sound Pressure Level / dB (re 20 µPa/V)   /[0.3V at 1m]"	"Frequency / Hz"	"Sound Pressure Level / dB (re 20 µPa/V)   /[0.3V at 1m]"	"Frequency / Hz"	"Sound Pressure Level / dB (re 20 µPa/V)   /[0.3V at 1m]"	"Frequency / Hz"	"Sound Pressure Level / dB (re 20 µPa/V)   /[0.3V at 1m]"	"Frequency / Hz"	"Sound Pressure Level / dB (re 20 µPa/V)   /[0.3V at 1m]"	"Frequency / Hz"	"Sound Pressure Level / dB (re 20 µPa/V)   /[0.3V at 1m]"	"Frequency / Hz"	"Sound Pressure Level / dB (re 20 µPa/V)   /[0.3V at 1m]"	"Frequency / Hz"	"Sound Pressure Level / dB (re 20 µPa/V)   /[0.3V at 1m]"	"Frequency / Hz"	"Sound Pressure Level / dB (re 20 µPa/V)   /[0.3V at 1m]"	"Frequency / Hz"	"Sound Pressure Level / dB (re 20 µPa/V)   /[0.3V at 1m]"	"Frequency / Hz"	"Sound Pressure Level / dB (re 20 µPa/V)   /[0.3V at 1m]"	"Frequency / Hz"	"Sound Pressure Level / dB (re 20 µPa/V)   /[0.3V at 1m]"	"Frequency / Hz"	"Sound Pressure Level / dB (re 20 µPa/V)   /[0.3V at 1m]"
20.5078	76.4123	20.5078	76.3798	20.5078	76.4717	20.5078	76.3751	20.5078	76.5572	20.5078	76.3986	20.5078	76.6681	20.5078	76.4508	20.5078	76.8031	20.5078	76.5321	20.5078	76.9611	20.5078	76.6426	20.5078	77.1404	20.5078	76.7821	20.5078	77.3393	20.5078	76.95	20.5078	77.5552	20.5078	77.145	20.5078	77.7845	20.5078	77.3646	20.5078	78.0224	20.5078	77.6051	20.5078	78.2621	20.5078	77.8606	20.5078	78.4947	20.5078	78.1228	20.5078	78.7094	20.5078	78.3811	20.5078	78.8935	20.5078	78.6221	20.5078	79.0344	20.5078	78.8315	20.5078	79.1208	20.5078	78.9953	20.5078	79.1445	20.5078	79.1021
21.9727	77.3774	21.9727	77.3555	21.9727	77.4274	21.9727	77.3622	21.9727	77.5049	21.9727	77.3981	21.9727	77.609	21.9727	77.4635	21.9727	77.7388	21.9727	77.5584	21.9727	77.8932	21.9727	77.6828	21.9727	78.071	21.9727	77.8362	21.9727	78.2703	21.9727	78.0176	21.9727	78.4889	21.9727	78.2254	21.9727	78.7234	21.9727	78.4566	21.9727	78.9691	21.9727	78.7068	21.9727	79.2191	21.9727	78.9697	21.9727	79.4645	21.9727	79.2365	21.9727	79.6942	21.9727	79.4955	21.9727	79.8954	21.9727	79.7333	21.9727	80.0549	21.9727	79.9352	21.9727	80.1606	21.9727	80.0873	21.9727	80.2035	21.9727	80.1788
23.4375	78.2466	23.4375	78.231	23.4375	78.2913	23.4375	78.2447	23.4375	78.3645	23.4375	78.288	23.4375	78.4658	23.4375	78.3609	23.4375	78.5943	23.4375	78.4633	23.4375	78.7488	23.4375	78.5951	23.4375	78.9279	23.4375	78.7557	23.4375	79.1295	23.4375	78.944	23.4375	79.351	23.4375	79.1581	23.4375	79.5887	23.4375	79.3951	23.4375	79.8378	23.4375	79.6503	23.4375	80.0919	23.4375	79.917	23.4375	80.3426	23.4375	80.1858	23.4375	80.5789	23.4375	80.4448	23.4375	80.7881	23.4375	80.6803	23.4375	80.9566	23.4375	80.8776	23.4375	81.0716	23.4375	81.0235	23.4375	81.1235	23.4375	81.1074
24.9023	78.2883	24.9023	78.2765	24.9023	78.3276	24.9023	78.2926	24.9023	78.3942	24.9023	78.3367	24.9023	78.4877	24.9023	78.4088	24.9023	78.6075	24.9023	78.5087	24.9023	78.7527	24.9023	78.6362	24.9023	78.9222	24.9023	78.7905	24.9023	79.1142	24.9023	78.9704	24.9023	79.3262	24.9023	79.1741	24.9023	79.5547	24.9023	79.3985	24.9023	79.7946	24.9023	79.6392	24.9023	80.0392	24.9023	79.89	24.9023	80.28	24.9023	80.1424	24.9023	80.5062	24.9023	80.3854	24.9023	80.7057	24.9023	80.6065	24.9023	80.8657	24.9023	80.7921	24.9023	80.9747	24.9023	80.9295	24.9023	81.0239	24.9023	81.0086
26.3672	79.0419	26.3672	79.023	26.3672	79.0857	26.3672	79.0292	26.3672	79.1538	26.3672	79.0608	26.3672	79.2455	26.3672	79.1181	26.3672	79.36	26.3672	79.2009	26.3672	79.4963	26.3672	79.3091	26.3672	79.6529	26.3672	79.4422	26.3672	79.8282	26.3672	79.5992	26.3672	80.0197	26.3672	79.7786	26.3672	80.2243	26.3672	79.9781	26.3672	80.4377	26.3672	80.1938	26.3672	80.6543	26.3672	80.4206	26.3672	80.8667	26.3672	80.6511	26.3672	81.0654	26.3672	80.8758	26.3672	81.2395	26.3672	81.083	26.3672	81.3772	26.3672	81.2604	26.3672	81.4677	26.3672	81.3955	26.3672	81.5028	26.3672	81.4783
27.832	79.433	27.832	79.4103	27.832	79.4785	27.832	79.4108	27.832	79.5463	27.832	79.4348	27.832	79.6356	27.832	79.4826	27.832	79.7455	27.832	79.554	27.832	79.875	27.832	79.649	27.832	80.0226	27.832	79.7672	27.832	80.1867	27.832	79.9078	27.832	80.3649	27.832	80.0698	27.832	80.5544	27.832	80.2511	27.832	80.7513	27.832	80.4488	27.832	80.9502	27.832	80.6585	27.832	81.1446	27.832	80.8737	27.832	81.3256	27.832	81.0859	27.832	81.483	27.832	81.2843	27.832	81.6059	27.832	81.457	27.832	81.6839	27.832	81.5915	27.832	81.7091	27.832	81.6778
29.2969	79.9885	29.2969	79.9646	29.2969	80.0345	29.2969	79.9632	29.2969	80.1021	29.2969	79.9845	29.2969	80.1904	29.2969	80.0287	29.2969	80.2987	29.2969	80.0958	29.2969	80.4256	29.2969	80.1856	29.2969	80.5698	29.2969	80.2977	29.2969	80.7295	29.2969	80.4314	29.2969	80.9025	29.2969	80.5858	29.2969	81.0858	29.2969	80.759	29.2969	81.2756	29.2969	80.9484	29.2969	81.4668	29.2969	81.1499	29.2969	81.6528	29.2969	81.3576	29.2969	81.8254	29.2969	81.5635	29.2969	81.9746	29.2969	81.7571	29.2969	82.09	29.2969	81.9267	29.2969	82.1615	29.2969	82.0603	29.2969	82.1819	29.2969	82.1476
30.7617	80.3321	30.7617	80.3074	30.7617	80.3766	30.7617	80.3028	30.7617	80.4404	30.7617	80.3187	30.7617	80.5225	30.7617	80.3551	30.7617	80.6222	30.7617	80.4122	30.7617	80.7382	30.7617	80.4898	30.7617	80.8692	30.7617	80.5876	30.7617	81.0135	30.7617	80.7052	30.7617	81.169	30.7617	80.8418	30.7617	81.3331	30.7617	80.9961	30.7617	81.5026	30.7617	81.166	30.7617	81.6732	30.7617	81.3481	30.7617	81.8391	30.7617	81.5373	30.7617	81.9932	30.7617	81.7264	30.7617	82.1266	30.7617	81.9057	30.7617	82.2294	30.7617	82.064	30.7617	82.2923	30.7617	82.1899	30.7617	82.3081	30.7617	82.2734
32.2266	80.6634	32.2266	80.6379	32.2266	80.7061	32.2266	80.6303	32.2266	80.7656	32.2266	80.6408	32.2266	80.841	32.2266	80.6696	32.2266	80.9313	32.2266	80.7168	32.2266	81.0355	32.2266	80.7824	32.2266	81.1521	32.2266	80.8662	32.2266	81.2799	32.2266	80.9682	32.2266	81.417	32.2266	81.0877	32.2266	81.5613	32.2266	81.224	32.2266	81.7103	32.2266	81.3754	32.2266	81.8606	32.2266	81.5392	32.2266	82.0074	32.2266	81.711	32.2266	82.1445	32.2266	81.884	32.2266	82.2639	32.2266	82.0495	32.2266	82.3564	32.2266	82.1967	32.2266	82.4129	32.2266	82.3144	32.2266	82.4262	32.2266	82.3929
33.6914	80.9716	33.6914	80.9435	33.6914	81.015	33.6914	80.9311	33.6914	81.0728	33.6914	80.9348	33.6914	81.1443	33.6914	80.9549	33.6914	81.2283	33.6914	80.9915	33.6914	81.3237	33.6914	81.0447	33.6914	81.4292	33.6914	81.1145	33.6914	81.5433	33.6914	81.2008	33.6914	81.6644	33.6914	81.3033	33.6914	81.7908	33.6914	81.4217	33.6914	81.9203	33.6914	81.5548	33.6914	82.0502	33.6914	81.7005	33.6914	82.1767	33.6914	81.8552	33.6914	82.2944	33.6914	82.0129	33.6914	82.3965	33.6914	82.1656	33.6914	82.4747	33.6914	82.3032	33.6914	82.5205	33.6914	82.415	33.6914	82.5273	33.6914	82.4917
35.1562	81.3694	35.1562	81.3361	35.1562	81.4143	35.1562	81.3151	35.1562	81.4699	35.1562	81.3069	35.1562	81.5354	35.1562	81.3118	35.1562	81.6094	35.1562	81.3302	35.1562	81.6908	35.1562	81.3621	35.1562	81.7783	35.1562	81.4079	35.1562	81.8704	35.1562	81.4678	35.1562	81.966	35.1562	81.5421	35.1562	82.0637	35.1562	81.631	35.1562	82.1623	35.1562	81.7343	35.1562	82.2601	35.1562	81.8509	35.1562	82.3545	35.1562	81.9787	35.1562	82.4418	35.1562	82.113	35.1562	82.5164	35.1562	82.2469	35.1562	82.5713	35.1562	82.3713	35.1562	82.5992	35.1562	82.4761	35.1562	82.5938	35.1562	82.5522
36.6211	81.3405	36.6211	81.3085	36.6211	81.3824	36.6211	81.287	36.6211	81.4336	36.6211	81.2766	36.6211	81.4931	36.6211	81.2777	36.6211	81.5599	36.6211	81.2906	36.6211	81.633	36.6211	81.3158	36.6211	81.7113	36.6211	81.3537	36.6211	81.7937	36.6211	81.4049	36.6211	81.8793	36.6211	81.47	36.6211	81.9672	36.6211	81.5496	36.6211	82.0564	36.6211	81.644	36.6211	82.1457	36.6211	81.7527	36.6211	82.2331	36.6211	81.8736	36.6211	82.3153	36.6211	82.0024	36.6211	82.387	36.6211	82.132	36.6211	82.4413	36.6211	82.253	36.6211	82.4702	36.6211	82.3548	36.6211	82.467	36.6211	82.4281
38.0859	81.4984	38.0859	81.4648	38.0859	81.5408	38.0859	81.4406	38.0859	81.591	38.0859	81.4264	38.0859	81.6481	38.0859	81.4224	38.0859	81.7109	38.0859	81.429	38.0859	81.7783	38.0859	81.4464	38.0859	81.8488	38.0859	81.475	38.0859	81.9214	38.0859	81.5151	38.0859	81.995	38.0859	81.5672	38.0859	82.0687	38.0859	81.6321	38.0859	82.1417	38.0859	81.7103	38.0859	82.2133	38.0859	81.8016	38.0859	82.2823	38.0859	81.905	38.0859	82.3463	38.0859	82.0171	38.0859	82.4012	38.0859	82.1323	38.0859	82.4411	38.0859	82.2421	38.0859	82.4591	38.0859	82.337	38.0859	82.4491	38.0859	82.4079
39.5508	81.7893	39.5508	81.7488	39.5508	81.8346	39.5508	81.714	39.5508	81.8838	39.5508	81.6853	39.5508	81.9354	39.5508	81.6633	39.5508	81.988	39.5508	81.648	39.5508	82.0401	39.5508	81.6396	39.5508	82.0904	39.5508	81.6385	39.5508	82.1376	39.5508	81.6452	39.5508	82.1809	39.5508	81.6605	39.5508	82.22	39.5508	81.686	39.5508	82.2548	39.5508	81.7233	39.5508	82.2858	39.5508	81.7741	39.5508	82.3132	39.5508	81.8395	39.5508	82.3363	39.5508	81.9187	39.5508	82.3529	39.5508	82.0082	39.5508	82.3587	39.5508	82.1013	39.5508	82.3485	39.5508	82.1895	39.5508	82.3175	39.5508	82.2637
41.0156	81.9427	41.0156	81.9064	41.0156	81.9817	41.0156	81.8733	41.0156	82.0225	41.0156	81.8436	41.0156	82.0643	41.0156	81.8176	41.0156	82.106	41.0156	81.7956	41.0156	82.1464	41.0156	81.7778	41.0156	82.1843	41.0156	81.7647	41.0156	82.2187	41.0156	81.7574	41.0156	82.2488	41.0156	81.7573	41.0156	82.2744	41.0156	81.7666	41.0156	82.2957	41.0156	81.788	41.0156	82.3135	41.0156	81.8241	41.0156	82.3288	41.0156	81.8768	41.0156	82.3419	41.0156	81.9456	41.0156	82.3515	41.0156	82.0271	41.0156	82.354	41.0156	82.114	41.0156	82.3439	41.0156	82.1967	41.0156	82.3156	41.0156	82.266
42.4805	82.2596	42.4805	82.2236	42.4805	82.2955	42.4805	82.1881	42.4805	82.3308	42.4805	82.1531	42.4805	82.3645	42.4805	82.119	42.4805	82.3956	42.4805	82.0857	42.4805	82.4226	42.4805	82.0537	42.4805	82.4442	42.4805	82.0235	42.4805	82.459	42.4805	81.9964	42.4805	82.4661	42.4805	81.9743	42.4805	82.4654	42.4805	81.9596	42.4805	82.4578	42.4805	81.9559	42.4805	82.4451	42.4805	81.9666	42.4805	82.4301	42.4805	81.9943	42.4805	82.4153	42.4805	82.0398	42.4805	82.4018	42.4805	82.1001	42.4805	82.3879	42.4805	82.1686	42.4805	82.369	42.4805	82.2365	42.4805	82.3394	42.4805	82.2951
43.9453	82.1678	43.9453	82.1283	43.9453	82.2064	43.9453	82.0885	43.9453	82.2434	43.9453	82.0488	43.9453	82.2776	43.9453	82.0092	43.9453	82.3075	43.9453	81.9699	43.9453	82.3315	43.9453	81.9309	43.9453	82.3478	43.9453	81.8927	43.9453	82.3549	43.9453	81.8565	43.9453	82.3517	43.9453	81.8239	43.9453	82.3382	43.9453	81.7976	43.9453	82.3155	43.9453	81.7813	43.9453	82.2862	43.9453	81.779	43.9453	82.254	43.9453	81.794	43.9453	82.2226	43.9453	81.8278	43.9453	82.1942	43.9453	81.8783	43.9453	82.1682	43.9453	81.9394	43.9453	82.1405	43.9453	82.0027	43.9453	82.1058	43.9453	82.0598
45.4102	82.316	45.4102	82.2741	45.4102	82.3543	45.4102	82.2292	45.4102	82.3881	45.4102	82.1814	45.4102	82.4164	45.4102	82.1306	45.4102	82.4374	45.4102	82.0769	45.4102	82.4494	45.4102	82.0203	45.4102	82.4504	45.4102	81.9614	45.4102	82.4389	45.4102	81.9012	45.4102	82.4139	45.4102	81.8419	45.4102	82.3754	45.4102	81.787	45.4102	82.3251	45.4102	81.7411	45.4102	82.2666	45.4102	81.7097	45.4102	82.2048	45.4102	81.6978	45.4102	82.1451	45.4102	81.7085	45.4102	82.0915	45.4102	81.7412	45.4102	82.0446	45.4102	81.7906	45.4102	82.0012	45.4102	81.8481	45.4102	81.9561	45.4102	81.905
46.875	82.4342	46.875	82.3927	46.875	82.4705	46.875	82.3463	46.875	82.5007	46.875	82.2952	46.875	82.5238	46.875	82.2393	46.875	82.5379	46.875	82.1783	46.875	82.5414	46.875	82.1122	46.875	82.5323	46.875	82.0413	46.875	82.5087	46.875	81.9668	46.875	82.4694	46.875	81.8909	46.875	82.4145	46.875	81.817	46.875	82.3456	46.875	81.7503	46.875	82.2662	46.875	81.6968	46.875	82.182	46.875	81.6628	46.875	82.0996	46.875	81.6526	46.875	82.0246	46.875	81.6667	46.875	81.9599	46.875	81.7012	46.875	81.9038	46.875	81.7483	46.875	81.8519	46.875	81.8001
48.3398	82.436	48.3398	82.3939	48.3398	82.4721	48.3398	82.3462	48.3398	82.5014	48.3398	82.2927	48.3398	82.5227	48.3398	82.2332	48.3398	82.5342	48.3398	82.167	48.3398	82.5337	48.3398	82.0937	48.3398	82.5189	48.3398	82.0134	48.3398	82.4875	48.3398	81.9265	48.3398	82.4377	48.3398	81.835	48.3398	82.3687	48.3398	81.7422	48.3398	82.2818	48.3398	81.6533	48.3398	82.1805	48.3398	81.5751	48.3398	82.071	48.3398	81.5152	48.3398	81.9613	48.3398	81.4799	48.3398	81.8594	48.3398	81.472	48.3398	81.7705	48.3398	81.4896	48.3398	81.6956	48.3398	81.5263	48.3398	81.6316	48.3398	81.5752
51.2695	83.1488	51.2695	83.088	51.2695	83.1868	51.2695	83.005	51.2695	83.2005	51.2695	82.9003	51.2695	83.188	51.2695	82.7735	51.2695	83.1467	51.2695	82.6243	51.2695	83.0737	51.2695	82.4526	51.2695	82.9658	51.2695	82.2587	51.2695	82.8205	51.2695	82.0442	51.2695	82.6363	51.2695	81.8128	51.2695	82.4145	51.2695	81.5712	51.2695	82.1604	51.2695	81.3302	51.2695	81.8851	51.2695	81.1045	51.2695	81.606	51.2695	80.9115	51.2695	81.345	51.2695	80.7669	51.2695	81.1232	51.2695	80.6795	51.2695	80.953	51.2695	80.6468	51.2695	80.8331	51.2695	80.6565	51.2695	80.7512	51.2695	80.6938
52.7344	82.9481	52.7344	82.8868	52.7344	82.9889	52.7344	82.8062	52.7344	83.0078	52.7344	82.7064	52.7344	83.0028	52.7344	82.5876	52.7344	82.9713	52.7344	82.4497	52.7344	82.9104	52.7344	82.2928	52.7344	82.8172	52.7344	82.1175	52.7344	82.6896	52.7344	81.9259	52.7344	82.5269	52.7344	81.7221	52.7344	82.3312	52.7344	81.5131	52.7344	82.1091	52.7344	81.3098	52.7344	81.8724	52.7344	81.1264	52.7344	81.6382	52.7344	80.9787	52.7344	81.4264	52.7344	80.8794	52.7344	81.2533	52.7344	80.8337	52.7344	81.1254	52.7344	80.835	52.7344	81.0364	52.7344	80.8682	52.7344	80.9714	52.7344	80.9166
54.1992	82.6894	54.1992	82.6356	54.1992	82.7254	54.1992	82.5646	54.1992	82.7424	54.1992	82.4766	54.1992	82.7384	54.1992	82.3713	54.1992	82.7112	54.1992	82.2482	54.1992	82.6581	54.1992	82.1068	54.1992	82.5768	54.1992	81.9474	54.1992	82.4653	54.1992	81.7711	54.1992	82.323	54.1992	81.5816	54.1992	82.152	54.1992	81.3851	54.1992	81.9577	54.1992	81.1919	54.1992	81.7501	54.1992	81.0161	54.1992	81.5434	54.1992	80.8734	54.1992	81.3537	54.1992	80.7776	54.1992	81.1944	54.1992	80.735	54.1992	81.0708	54.1992	80.7407	54.1992	80.9778	54.1992	80.7806	54.1992	80.9037	54.1992	80.8383
55.6641	82.9353	55.6641	82.8818	55.6641	82.9684	55.6641	82.8082	55.6641	82.9801	55.6641	82.7142	55.6641	82.9687	55.6641	82.5988	55.6641	82.9316	55.6641	82.4609	55.6641	82.8659	55.6641	82.2992	55.6641	82.7682	55.6641	82.1134	55.6641	82.6354	55.6641	81.9039	55.6641	82.4654	55.6641	81.6739	55.6641	82.2584	55.6641	81.4296	55.6641	82.0184	55.6641	81.182	55.6641	81.7547	55.6641	80.9469	55.6641	81.483	55.6641	80.7434	55.6641	81.2235	55.6641	80.5896	55.6641	80.9969	55.6641	80.4963	55.6641	80.8165	55.6641	80.4622	55.6641	80.6835	55.6641	80.4752	55.6641	80.5884	55.6641	80.5201
58.5938	83.1843	58.5938	83.1247	58.5938	83.2186	58.5938	83.0401	58.5938	83.2264	58.5938	82.9299	58.5938	83.2058	58.5938	82.7929	58.5938	83.1537	58.5938	82.6278	58.5938	83.0667	58.5938	82.433	58.5938	82.941	58.5938	82.2075	58.5938	82.7727	58.5938	81.9521	58.5938	82.5594	58.5938	81.67	58.5938	82.3015	58.5938	81.3689	58.5938	82.0038	58.5938	81.0624	58.5938	81.6782	58.5938	80.7704	58.5938	81.3446	58.5938	80.5178	58.5938	81.0296	58.5938	80.328	58.5938	80.7598	58.5938	80.2142	58.5938	80.5522	58.5938	80.1733	58.5938	80.4061	58.5938	80.1874	58.5938	80.3063	58.5938	80.2354
60.0586	83.2488	60.0586	83.1859	60.0586	83.2847	60.0586	83.096	60.0586	83.2922	60.0586	82.9786	60.0586	83.2693	60.0586	82.8324	60.0586	83.2129	60.0586	82.6556	60.0586	83.1193	60.0586	82.4466	60.0586	82.9842	60.0586	82.2043	60.0586	82.8037	60.0586	81.9292	60.0586	82.575	60.0586	81.6251	60.0586	82.2983	60.0586	81.3002	60.0586	81.9787	60.0586	80.9695	60.0586	81.629	60.0586	80.6553	60.0586	81.271	60.0586	80.3854	60.0586	80.9339	60.0586	80.1854	60.0586	80.6474	60.0586	80.0695	60.0586	80.4298	60.0586	80.0323	60.0586	80.2796	60.0586	80.0523	60.0586	80.1782	60.0586	80.105
62.9883	83.3314	62.9883	83.2599	62.9883	83.3737	62.9883	83.1593	62.9883	83.3855	62.9883	83.029	62.9883	83.3647	62.9883	82.8676	62.9883	83.3079	62.9883	82.6733	62.9883	83.2112	62.9883	82.4445	62.9883	83.07	62.9883	82.1803	62.9883	82.8801	62.9883	81.8819	62.9883	82.6384	62.9883	81.554	62.9883	82.3451	62.9883	81.2071	62.9883	82.0058	62.9883	80.8591	62.9883	81.6347	62.9883	80.5362	62.9883	81.2565	62.9883	80.2692	62.9883	80.9045	62.9883	80.0851	62.9883	80.6118	62.9883	79.9945	62.9883	80.3976	62.9883	79.9851	62.9883	80.2567	62.9883	80.0273	62.9883	80.1638	62.9883	80.0911
64.4531	83.3413	64.4531	83.2635	64.4531	83.3888	64.4531	83.1557	64.4531	83.4046	64.4531	83.0172	64.4531	83.3863	64.4531	82.8464	64.4531	83.3304	64.4531	82.6416	64.4531	83.2325	64.4531	82.4006	64.4531	83.0875	64.4531	82.1222	64.4531	82.8904	64.4531	81.8068	64.4531	82.6371	64.4531	81.4583	64.4531	82.3265	64.4531	81.086	64.4531	81.9626	64.4531	80.7066	64.4531	81.558	64.4531	80.3459	64.4531	81.1364	64.4531	80.0356	64.4531	80.7317	64.4531	79.8059	64.4531	80.3811	64.4531	79.6729	64.4531	80.1108	64.4531	79.6301	64.4531	79.9234	64.4531	79.6523	64.4531	79.799	64.4531	79.7124
67.3828	83.4572	67.3828	83.3684	67.3828	83.5106	67.3828	83.2444	67.3828	83.5269	67.3828	83.0846	67.3828	83.5032	67.3828	82.8872	67.3828	83.4356	67.3828	82.65	67.3828	83.3186	67.3828	82.3708	67.3828	83.1462	67.3828	82.048	67.3828	82.9118	67.3828	81.6819	67.3828	82.6102	67.3828	81.2767	67.3828	82.2387	67.3828	80.8433	67.3828	81.8014	67.3828	80.4018	67.3828	81.3127	67.3828	79.9833	67.3828	80.8027	67.3828	79.627	67.3828	80.3167	67.3828	79.369	67.3828	79.9067	67.3828	79.2257	67.3828	79.6093	67.3828	79.1834	67.3828	79.4253	67.3828	79.2054	67.3828	79.3214	67.3828	79.2553
