"SPL Horizontal"
"On-Axis"		"10°"		"-10°"		"20°"		"-20°"		"30°"		"-30°"		"40°"		"-40°"		"50°"		"-50°"		"60°"		"-60°"		"70°"		"-70°"		"80°"		"-80°"		"90°"		"-90°"		"100°"		"-100°"		"110°"		"-110°"		"120°"		"-120°"		"130°"		"-130°"		"140°"		"-140°"		"150°"		"-150°"		"160°"		"-160°"		"170°"		"-170°"		"180°"
"Frequency / Hz"	"Sound Pressure Level / dB (re 20 µPa/V)  [0.3V at 1m]"	"Frequency / Hz"	"Sound Pressure Level / dB (re 20 µPa/V)  [0.3V at 1m]"	"Frequency / Hz"	"Sound Pressure Level / dB (re 20 µPa/V)  [0.3V at 1m]"	"Frequency / Hz"	"Sound Pressure Level / dB (re 20 µPa/V)  [0.3V at 1m]"	"Frequency / Hz"	"Sound Pressure Level / dB (re 20 µPa/V)  [0.3V at 1m]"	"Frequency / Hz"	"Sound Pressure Level / dB (re 20 µPa/V)  [0.3V at 1m]"	"Frequency / Hz"	"Sound Pressure Level / dB (re 20 µPa/V)  [0.3V at 1m]"	"Frequency / Hz"	"Sound Pressure Level / dB (re 20 µPa/V)  [0.3V at 1m]"	"Frequency / Hz"	"Sound Pressure Level / dB (re 20 µPa/V)  [0.3V at 1m]"	"Frequency / Hz"	"Sound Pressure Level / dB (re 20 µPa/V)  [0.3V at 1m]"	"Frequency / Hz"	"Sound Pressure Level / dB (re 20 µPa/V)  [0.3V at 1m]"	"Frequency / Hz"	"Sound Pressure Level / dB (re 20 µPa/V)  [0.3V at 1m]"	"Frequency / Hz"	"Sound Pressure Level / dB (re 20 µPa/V)  [0.3V at 1m]"	"Frequency / Hz"	"Sound Pressure Level / dB (re 20 µPa/V)  [0.3V at 1m]"	"Frequency / Hz"	"Sound Pressure Level / dB (re 20 µPa/V)  [0.3V at 1m]"	"Frequency / Hz"	"Sound Pressure Level / dB (re 20 µPa/V)  [0.3V at 1m]"	"Frequency / Hz"	"Sound Pressure Level / dB (re 20 µPa/V)  [0.3V at 1m]"	"Frequency / Hz"	"Sound Pressure Level / dB (re 20 µPa/V)  [0.3V at 1m]"	"Frequency / Hz"	"Sound Pressure Level / dB (re 20 µPa/V)  [0.3V at 1m]"	"Frequency / Hz"	"Sound Pressure Level / dB (re 20 µPa/V)  [0.3V at 1m]"	"Frequency / Hz"	"Sound Pressure Level / dB (re 20 µPa/V)  [0.3V at 1m]"	"Frequency / Hz"	"Sound Pressure Level / dB (re 20 µPa/V)  [0.3V at 1m]"	"Frequency / Hz"	"Sound Pressure Level / dB (re 20 µPa/V)  [0.3V at 1m]"	"Frequency / Hz"	"Sound Pressure Level / dB (re 20 µPa/V)  [0.3V at 1m]"	"Frequency / Hz"	"Sound Pressure Level / dB (re 20 µPa/V)  [0.3V at 1m]"	"Frequency / Hz"	"Sound Pressure Level / dB (re 20 µPa/V)  [0.3V at 1m]"	"Frequency / Hz"	"Sound Pressure Level / dB (re 20 µPa/V)  [0.3V at 1m]"	"Frequency / Hz"	"Sound Pressure Level / dB (re 20 µPa/V)  [0.3V at 1m]"	"Frequency / Hz"	"Sound Pressure Level / dB (re 20 µPa/V)  [0.3V at 1m]"	"Frequency / Hz"	"Sound Pressure Level / dB (re 20 µPa/V)  [0.3V at 1m]"	"Frequency / Hz"	"Sound Pressure Level / dB (re 20 µPa/V)  [0.3V at 1m]"	"Frequency / Hz"	"Sound Pressure Level / dB (re 20 µPa/V)  [0.3V at 1m]"	"Frequency / Hz"	"Sound Pressure Level / dB (re 20 µPa/V)  [0.3V at 1m]"	"Frequency / Hz"	"Sound Pressure Level / dB (re 20 µPa/V)  [0.3V at 1m]"	"Frequency / Hz"	"Sound Pressure Level / dB (re 20 µPa/V)  [0.3V at 1m]"	"Frequency / Hz"	"Sound Pressure Level / dB (re 20 µPa/V)  [0.3V at 1m]"
20.5078	76.4123	20.5078	76.4242	20.5078	76.4291	20.5078	76.4649	20.5078	76.4745	20.5078	76.5341	20.5078	76.5479	20.5078	76.6312	20.5078	76.6484	20.5078	76.7553	20.5078	76.775	20.5078	76.9051	20.5078	76.9263	20.5078	77.0788	20.5078	77.1003	20.5078	77.2742	20.5078	77.2947	20.5078	77.4882	20.5078	77.5065	20.5078	77.7167	20.5078	77.7319	20.5078	77.9546	20.5078	77.9659	20.5078	78.1948	20.5078	78.2019	20.5078	78.4287	20.5078	78.4318	20.5078	78.6456	20.5078	78.6454	20.5078	78.8331	20.5078	78.8311	20.5078	78.9787	20.5078	78.9762	20.5078	79.071	20.5078	79.0694	20.5078	79.1021
21.9727	77.3774	21.9727	77.3932	21.9727	77.3919	21.9727	77.4393	21.9727	77.4367	21.9727	77.5152	21.9727	77.5113	21.9727	77.6202	21.9727	77.6149	21.9727	77.7532	21.9727	77.7467	21.9727	77.9128	21.9727	77.9051	21.9727	78.0969	21.9727	78.0882	21.9727	78.3029	21.9727	78.2934	21.9727	78.5274	21.9727	78.5172	21.9727	78.7659	21.9727	78.7551	21.9727	79.0126	21.9727	79.0014	21.9727	79.2602	21.9727	79.2488	21.9727	79.4997	21.9727	79.4883	21.9727	79.7203	21.9727	79.7095	21.9727	79.9099	21.9727	79.9006	21.9727	80.0563	21.9727	80.0494	21.9727	80.1485	21.9727	80.1447	21.9727	80.1788
23.4375	78.2466	23.4375	78.272	23.4375	78.2524	23.4375	78.3284	23.4375	78.2893	23.4375	78.415	23.4375	78.3569	23.4375	78.531	23.4375	78.4548	23.4375	78.675	23.4375	78.5818	23.4375	78.8449	23.4375	78.7368	23.4375	79.0385	23.4375	78.9179	23.4375	79.2526	23.4375	79.1228	23.4375	79.4834	23.4375	79.3484	23.4375	79.7263	23.4375	79.5904	23.4375	79.9755	23.4375	79.8432	23.4375	80.2237	23.4375	80.0996	23.4375	80.4619	23.4375	80.3505	23.4375	80.6793	23.4375	80.5848	23.4375	80.864	23.4375	80.7898	23.4375	81.0037	23.4375	80.9526	23.4375	81.0873	23.4375	81.0613	23.4375	81.1074
24.9023	78.2883	24.9023	78.3035	24.9023	78.3035	24.9023	78.3487	24.9023	78.3493	24.9023	78.4231	24.9023	78.4256	24.9023	78.5255	24.9023	78.5316	24.9023	78.6544	24.9023	78.6662	24.9023	78.8082	24.9023	78.8275	24.9023	78.9845	24.9023	79.0131	24.9023	79.1807	24.9023	79.2197	24.9023	79.3938	24.9023	79.443	24.9023	79.6198	24.9023	79.6781	24.9023	79.8538	24.9023	79.9188	24.9023	80.0897	24.9023	80.1579	24.9023	80.3195	24.9023	80.3868	24.9023	80.5336	24.9023	80.5953	24.9023	80.7209	24.9023	80.7723	24.9023	80.8694	24.9023	80.9064	24.9023	80.968	24.9023	80.9875	24.9023	81.0086
26.3672	79.0419	26.3672	79.0624	26.3672	79.0487	26.3672	79.1099	26.3672	79.0828	26.3672	79.1835	26.3672	79.1439	26.3672	79.2824	26.3672	79.2314	26.3672	79.4053	26.3672	79.3444	26.3672	79.5503	26.3672	79.4814	26.3672	79.7153	26.3672	79.6403	26.3672	79.8976	26.3672	79.8188	26.3672	80.0939	26.3672	80.0134	26.3672	80.3	26.3672	80.2203	26.3672	80.5112	26.3672	80.4345	26.3672	80.7212	26.3672	80.6499	26.3672	80.9228	26.3672	80.8592	26.3672	81.1072	26.3672	81.0534	26.3672	81.2645	26.3672	81.2224	26.3672	81.3845	26.3672	81.3557	26.3672	81.458	26.3672	81.4433	26.3672	81.4783
27.832	79.433	27.832	79.4389	27.832	79.4525	27.832	79.47	27.832	79.4969	27.832	79.5262	27.832	79.5656	27.832	79.6068	27.832	79.6577	27.832	79.7108	27.832	79.7718	27.832	79.837	27.832	79.9063	27.832	79.9834	27.832	80.0589	27.832	80.1476	27.832	80.2271	27.832	80.3267	27.832	80.4078	27.832	80.517	27.832	80.5971	27.832	80.7141	27.832	80.7906	27.832	80.9123	27.832	80.9829	27.832	81.105	27.832	81.1676	27.832	81.284	27.832	81.3367	27.832	81.4402	27.832	81.4813	27.832	81.5635	27.832	81.5918	27.832	81.6449	27.832	81.6593	27.832	81.6778
29.2969	79.9885	29.2969	80.0084	29.2969	79.9933	29.2969	80.0526	29.2969	80.0225	29.2969	80.1206	29.2969	80.076	29.2969	80.2116	29.2969	80.153	29.2969	80.3241	29.2969	80.2525	29.2969	80.4564	29.2969	80.3732	29.2969	80.6061	29.2969	80.5133	29.2969	80.7706	29.2969	80.6704	29.2969	80.9464	29.2969	80.8417	29.2969	81.1297	29.2969	81.0238	29.2969	81.3159	29.2969	81.2124	29.2969	81.4999	29.2969	81.4024	29.2969	81.6753	29.2969	81.5875	29.2969	81.8348	29.2969	81.7602	29.2969	81.97	29.2969	81.9115	29.2969	82.0723	29.2969	82.0321	29.2969	82.1334	29.2969	82.1129	29.2969	82.1476
30.7617	80.3321	30.7617	80.3499	30.7617	80.3369	30.7617	80.3898	30.7617	80.3643	30.7617	80.4514	30.7617	80.4138	30.7617	80.5335	30.7617	80.485	30.7617	80.6349	30.7617	80.5766	30.7617	80.7538	30.7617	80.6873	30.7617	80.888	30.7617	80.8151	30.7617	81.0349	30.7617	80.9577	30.7617	81.1917	30.7617	81.1122	30.7617	81.355	30.7617	81.2754	30.7617	81.5209	30.7617	81.4435	30.7617	81.6852	30.7617	81.6122	30.7617	81.8425	30.7617	81.7763	30.7617	81.9863	30.7617	81.9294	30.7617	82.1091	30.7617	82.0639	30.7617	82.2027	30.7617	82.1713	30.7617	82.2593	30.7617	82.2432	30.7617	82.2734
32.2266	80.6634	32.2266	80.6802	32.2266	80.6668	32.2266	80.717	32.2266	80.6906	32.2266	80.773	32.2266	80.7345	32.2266	80.8472	32.2266	80.7979	32.2266	80.9382	32.2266	80.8799	32.2266	81.0444	32.2266	80.979	32.2266	81.1638	32.2266	81.0934	32.2266	81.294	32.2266	81.2208	32.2266	81.4324	32.2266	81.3588	32.2266	81.5761	32.2266	81.5042	32.2266	81.7221	32.2266	81.6539	32.2266	81.8668	32.2266	81.804	32.2266	82.0056	32.2266	81.9501	32.2266	82.1333	32.2266	82.0865	32.2266	82.2432	32.2266	82.2066	32.2266	82.3276	32.2266	82.3024	32.2266	82.3793	32.2266	82.3665	32.2266	82.3929
33.6914	80.9716	33.6914	80.9858	33.6914	80.9756	33.6914	81.0177	33.6914	80.9978	33.6914	81.0668	33.6914	81.038	33.6914	81.1321	33.6914	81.0956	33.6914	81.2123	33.6914	81.1696	33.6914	81.3058	33.6914	81.2587	33.6914	81.4108	33.6914	81.3611	33.6914	81.5252	33.6914	81.4747	33.6914	81.6463	33.6914	81.597	33.6914	81.7719	33.6914	81.7253	33.6914	81.899	33.6914	81.8565	33.6914	82.0247	33.6914	81.9874	33.6914	82.1455	33.6914	82.1142	33.6914	82.2572	33.6914	82.2322	33.6914	82.354	33.6914	82.3355	33.6914	82.4295	33.6914	82.4174	33.6914	82.4771	33.6914	82.4712	33.6914	82.4917
35.1562	81.3694	35.1562	81.3724	35.1562	81.381	35.1562	81.3898	35.1562	81.4073	35.1562	81.4212	35.1562	81.4479	35.1562	81.4655	35.1562	81.502	35.1562	81.5219	35.1562	81.5686	35.1562	81.5888	35.1562	81.6461	35.1562	81.6648	35.1562	81.7328	35.1562	81.7482	35.1562	81.8264	35.1562	81.8372	35.1562	81.9246	35.1562	81.9304	35.1562	82.0251	35.1562	82.0262	35.1562	82.1253	35.1562	82.1234	35.1562	82.223	35.1562	82.22	35.1562	82.3153	35.1562	82.3135	35.1562	82.399	35.1562	82.3996	35.1562	82.4697	35.1562	82.4723	35.1562	82.5222	35.1562	82.5251	35.1562	82.551	35.1562	82.5522
36.6211	81.3405	36.6211	81.3397	36.6211	81.3548	36.6211	81.3525	36.6211	81.3823	36.6211	81.3786	36.6211	81.4225	36.6211	81.4175	36.6211	81.4744	36.6211	81.4684	36.6211	81.5371	36.6211	81.5302	36.6211	81.6088	36.6211	81.6014	36.6211	81.688	36.6211	81.6806	36.6211	81.7724	36.6211	81.7658	36.6211	81.8602	36.6211	81.8553	36.6211	81.9491	36.6211	81.9472	36.6211	82.0374	36.6211	82.0398	36.6211	82.1233	36.6211	82.1309	36.6211	82.2049	36.6211	82.2177	36.6211	82.2799	36.6211	82.2962	36.6211	82.3446	36.6211	82.3611	36.6211	82.3943	36.6211	82.4067	36.6211	82.4235	36.6211	82.4281
38.0859	81.4984	38.0859	81.5034	38.0859	81.506	38.0859	81.521	38.0859	81.5258	38.0859	81.551	38.0859	81.5574	38.0859	81.5925	38.0859	81.5996	38.0859	81.6447	38.0859	81.6514	38.0859	81.706	38.0859	81.7112	38.0859	81.7747	38.0859	81.777	38.0859	81.8486	38.0859	81.847	38.0859	81.9255	38.0859	81.9191	38.0859	82.003	38.0859	81.9913	38.0859	82.0792	38.0859	82.0624	38.0859	82.1524	38.0859	82.1311	38.0859	82.221	38.0859	82.1969	38.0859	82.2833	38.0859	82.2588	38.0859	82.3367	38.0859	82.3145	38.0859	82.3777	38.0859	82.3609	38.0859	82.4025	38.0859	82.3934	38.0859	82.4079
39.5508	81.7893	39.5508	81.7984	39.5508	81.7887	39.5508	81.8157	39.5508	81.7967	39.5508	81.8406	39.5508	81.8128	39.5508	81.8721	39.5508	81.8363	39.5508	81.9089	39.5508	81.8662	39.5508	81.9494	39.5508	81.9012	39.5508	81.9916	39.5508	81.9396	39.5508	82.0334	39.5508	81.9795	39.5508	82.073	39.5508	82.0192	39.5508	82.1088	39.5508	82.0572	39.5508	82.1402	39.5508	82.0929	39.5508	82.1673	39.5508	82.126	39.5508	82.1911	39.5508	82.1571	39.5508	82.2128	39.5508	82.1867	39.5508	82.2329	39.5508	82.2145	39.5508	82.2499	39.5508	82.2385	39.5508	82.2612	39.5508	82.2558	39.5508	82.2637
41.0156	81.9427	41.0156	81.9441	41.0156	81.9482	41.0156	81.9523	41.0156	81.9602	41.0156	81.9667	41.0156	81.9783	41.0156	81.9868	41.0156	82.0017	41.0156	82.0113	41.0156	82.0291	41.0156	82.0388	41.0156	82.059	41.0156	82.0677	41.0156	82.0896	41.0156	82.0962	41.0156	82.1191	41.0156	82.1226	41.0156	82.1458	41.0156	82.1458	41.0156	82.1685	41.0156	82.1654	41.0156	82.187	41.0156	82.1822	41.0156	82.202	41.0156	82.1976	41.0156	82.2152	41.0156	82.2135	41.0156	82.2283	41.0156	82.2303	41.0156	82.242	41.0156	82.2467	41.0156	82.2549	41.0156	82.2598	41.0156	82.264	41.0156	82.266
42.4805	82.2596	42.4805	82.2603	42.4805	82.2634	42.4805	82.2653	42.4805	82.2716	42.4805	82.2742	42.4805	82.2836	42.4805	82.286	42.4805	82.2983	42.4805	82.2993	42.4805	82.3145	42.4805	82.3126	42.4805	82.3305	42.4805	82.324	42.4805	82.3443	42.4805	82.3316	42.4805	82.3541	42.4805	82.3341	42.4805	82.3584	42.4805	82.3306	42.4805	82.3564	42.4805	82.3218	42.4805	82.3484	42.4805	82.3095	42.4805	82.3363	42.4805	82.2969	42.4805	82.3229	42.4805	82.2874	42.4805	82.3114	42.4805	82.2836	42.4805	82.3039	42.4805	82.2853	42.4805	82.3002	42.4805	82.2902	42.4805	82.2982	42.4805	82.2951
43.9453	82.1678	43.9453	82.1644	43.9453	82.1752	43.9453	82.165	43.9453	82.1862	43.9453	82.1692	43.9453	82.1999	43.9453	82.1761	43.9453	82.2151	43.9453	82.1842	43.9453	82.2299	43.9453	82.1919	43.9453	82.2425	43.9453	82.197	43.9453	82.2506	43.9453	82.1976	43.9453	82.2522	43.9453	82.1919	43.9453	82.2455	43.9453	82.1791	43.9453	82.2299	43.9453	82.1594	43.9453	82.2059	43.9453	82.1348	43.9453	82.1761	43.9453	82.1088	43.9453	82.1443	43.9453	82.0856	43.9453	82.1149	43.9453	82.0688	43.9453	82.0915	43.9453	82.0598	43.9453	82.0754	43.9453	82.0575	43.9453	82.0655	43.9453	82.0598
45.4102	82.316	45.4102	82.313	45.4102	82.3203	45.4102	82.3114	45.4102	82.3254	45.4102	82.3107	45.4102	82.3305	45.4102	82.3099	45.4102	82.3343	45.4102	82.3076	45.4102	82.3349	45.4102	82.3018	45.4102	82.3304	45.4102	82.2905	45.4102	82.3187	45.4102	82.2715	45.4102	82.2978	45.4102	82.2431	45.4102	82.2663	45.4102	82.2045	45.4102	82.2238	45.4102	82.1565	45.4102	82.1719	45.4102	82.102	45.4102	82.1137	45.4102	82.046	45.4102	82.0547	45.4102	81.9945	45.4102	82.0011	45.4102	81.9531	45.4102	81.958	45.4102	81.9246	45.4102	81.9281	45.4102	81.9092	45.4102	81.9111	45.4102	81.905
46.875	82.4342	46.875	82.4316	46.875	82.4369	46.875	82.4289	46.875	82.4391	46.875	82.4256	46.875	82.4402	46.875	82.4204	46.875	82.4387	46.875	82.4118	46.875	82.4328	46.875	82.3975	46.875	82.4204	46.875	82.3752	46.875	82.3992	46.875	82.3425	46.875	82.367	46.875	82.2974	46.875	82.322	46.875	82.2394	46.875	82.2636	46.875	82.1694	46.875	82.193	46.875	82.0911	46.875	82.1138	46.875	82.0106	46.875	82.032	46.875	81.9357	46.875	81.955	46.875	81.8738	46.875	81.8901	46.875	81.83	46.875	81.8419	46.875	81.8058	46.875	81.8121	46.875	81.8001
48.3398	82.436	48.3398	82.4303	48.3398	82.4412	48.3398	82.4239	48.3398	82.4456	48.3398	82.4162	48.3398	82.4481	48.3398	82.4059	48.3398	82.4472	48.3398	82.391	48.3398	82.4406	48.3398	82.3694	48.3398	82.4259	48.3398	82.3383	48.3398	82.3999	48.3398	82.2951	48.3398	82.3596	48.3398	82.2375	48.3398	82.3024	48.3398	82.1645	48.3398	82.2269	48.3398	82.0768	48.3398	82.1338	48.3398	81.9779	48.3398	82.027	48.3398	81.8743	48.3398	81.9137	48.3398	81.7749	48.3398	81.804	48.3398	81.6892	48.3398	81.7088	48.3398	81.6249	48.3398	81.6365	48.3398	81.5864	48.3398	81.5917	48.3398	81.5752
51.2695	83.1488	51.2695	83.1554	51.2695	83.125	51.2695	83.1445	51.2695	83.0837	51.2695	83.1149	51.2695	83.0242	51.2695	83.0649	51.2695	82.9452	51.2695	82.9924	51.2695	82.8446	51.2695	82.8943	51.2695	82.7205	51.2695	82.7677	51.2695	82.5708	51.2695	82.6098	51.2695	82.3938	51.2695	82.419	51.2695	82.1898	51.2695	82.1958	51.2695	81.9615	51.2695	81.9451	51.2695	81.7162	51.2695	81.6775	51.2695	81.4661	51.2695	81.4102	51.2695	81.2286	51.2695	81.1648	51.2695	81.0226	51.2695	80.9627	51.2695	80.8636	51.2695	80.8171	51.2695	80.7579	51.2695	80.7297	51.2695	80.703	51.2695	80.6938
52.7344	82.9481	52.7344	82.9357	52.7344	82.9456	52.7344	82.9081	52.7344	82.9281	52.7344	82.8647	52.7344	82.895	52.7344	82.804	52.7344	82.845	52.7344	82.7243	52.7344	82.7767	52.7344	82.6236	52.7344	82.688	52.7344	82.4996	52.7344	82.5769	52.7344	82.3506	52.7344	82.4419	52.7344	82.1761	52.7344	82.2824	52.7344	81.978	52.7344	82.1002	52.7344	81.7624	52.7344	81.9001	52.7344	81.5405	52.7344	81.6917	52.7344	81.3291	52.7344	81.4881	52.7344	81.1477	52.7344	81.3044	52.7344	81.0132	52.7344	81.153	52.7344	80.9333	52.7344	81.0394	52.7344	80.9044	52.7344	80.9618	52.7344	80.9166
54.1992	82.6894	54.1992	82.6702	54.1992	82.697	54.1992	82.6392	54.1992	82.6926	54.1992	82.5959	54.1992	82.6753	54.1992	82.5391	54.1992	82.6435	54.1992	82.467	54.1992	82.5954	54.1992	82.3776	54.1992	82.5283	54.1992	82.2685	54.1992	82.4396	54.1992	82.1377	54.1992	82.3267	54.1992	81.984	54.1992	82.1878	54.1992	81.8087	54.1992	82.0232	54.1992	81.6166	54.1992	81.8364	54.1992	81.4174	54.1992	81.6355	54.1992	81.2259	54.1992	81.4332	54.1992	81.0595	54.1992	81.2454	54.1992	80.934	54.1992	81.0868	54.1992	80.8571	54.1992	80.9661	54.1992	80.8276	54.1992	80.8843	54.1992	80.8383
55.6641	82.9353	55.6641	82.9204	55.6641	82.9365	55.6641	82.8917	55.6641	82.9235	55.6641	82.8485	55.6641	82.8949	55.6641	82.7891	55.6641	82.8487	55.6641	82.7111	55.6641	82.7822	55.6641	82.6117	55.6641	82.6921	55.6641	82.4874	55.6641	82.5747	55.6641	82.3349	55.6641	82.4265	55.6641	82.1518	55.6641	82.2451	55.6641	81.9382	55.6641	82.0302	55.6641	81.6979	55.6641	81.7859	55.6641	81.4407	55.6641	81.5221	55.6641	81.183	55.6641	81.2555	55.6641	80.9463	55.6641	81.0078	55.6641	80.7521	55.6641	80.8008	55.6641	80.6149	55.6641	80.6488	55.6641	80.5387	55.6641	80.5562	55.6641	80.5201
58.5938	83.1843	58.5938	83.1677	58.5938	83.1823	58.5938	83.1323	58.5938	83.1612	58.5938	83.077	58.5938	83.1196	58.5938	83.0002	58.5938	83.0554	58.5938	82.8992	58.5938	82.966	58.5938	82.7709	58.5938	82.8477	58.5938	82.6116	58.5938	82.6968	58.5938	82.4178	58.5938	82.5096	58.5938	82.1871	58.5938	82.2837	58.5938	81.9201	58.5938	82.0194	58.5938	81.6221	58.5938	81.7221	58.5938	81.3058	58.5938	81.4043	58.5938	80.9925	58.5938	81.0866	58.5938	80.7094	58.5938	80.7955	58.5938	80.4832	58.5938	80.5562	58.5938	80.3298	58.5938	80.3837	58.5938	80.2502	58.5938	80.279	58.5938	80.2354
60.0586	83.2488	60.0586	83.23	60.0586	83.2474	60.0586	83.1905	60.0586	83.225	60.0586	83.1295	60.0586	83.1805	60.0586	83.045	60.0586	83.1116	60.0586	82.9344	60.0586	83.0154	60.0586	82.7943	60.0586	82.8885	60.0586	82.6209	60.0586	82.7266	60.0586	82.4108	60.0586	82.5259	60.0586	82.1615	60.0586	82.284	60.0586	81.8737	60.0586	82.0011	60.0586	81.5537	60.0586	81.6831	60.0586	81.2153	60.0586	81.3434	60.0586	80.882	60.0586	81.0046	60.0586	80.5836	60.0586	80.6954	60.0586	80.3486	60.0586	80.4429	60.0586	80.1932	60.0586	80.2622	60.0586	80.1159	60.0586	80.1525	60.0586	80.105
62.9883	83.3314	62.9883	83.3047	62.9883	83.3359	62.9883	83.2557	62.9883	83.3177	62.9883	83.1834	62.9883	83.2752	62.9883	83.0862	62.9883	83.2063	62.9883	82.9615	62.9883	83.1079	62.9883	82.8061	62.9883	82.9763	62.9883	82.6165	62.9883	82.8072	62.9883	82.3895	62.9883	82.5965	62.9883	82.1231	62.9883	82.3418	62.9883	81.8189	62.9883	82.0435	62.9883	81.4846	62.9883	81.7083	62.9883	81.1365	62.9883	81.3513	62.9883	80.8003	62.9883	80.9977	62.9883	80.5081	62.9883	80.679	62.9883	80.2878	62.9883	80.424	62.9883	80.1517	62.9883	80.2463	62.9883	80.0918	62.9883	80.1403	62.9883	80.0911
64.4531	83.3413	64.4531	83.317	64.4531	83.3425	64.4531	83.2696	64.4531	83.3196	64.4531	83.1984	64.4531	83.2711	64.4531	83.1016	64.4531	83.1942	64.4531	82.9767	64.4531	83.0857	64.4531	82.8201	64.4531	82.9412	64.4531	82.6278	64.4531	82.7559	64.4531	82.3956	64.4531	82.5252	64.4531	82.1203	64.4531	82.2456	64.4531	81.8017	64.4531	81.9167	64.4531	81.445	64.4531	81.5443	64.4531	81.0643	64.4531	81.1435	64.4531	80.6839	64.4531	80.7408	64.4531	80.3364	64.4531	80.372	64.4531	80.0544	64.4531	80.0729	64.4531	79.8577	64.4531	79.8651	64.4531	79.747	64.4531	79.749	64.4531	79.7124
67.3828	83.4572	67.3828	83.4421	67.3828	83.4443	67.3828	83.3985	67.3828	83.4026	67.3828	83.3251	67.3828	83.3306	67.3828	83.2198	67.3828	83.2258	67.3828	83.0792	67.3828	83.0848	67.3828	82.8989	67.3828	82.9031	67.3828	82.674	67.3828	82.6756	67.3828	82.3993	67.3828	82.3975	67.3828	82.0707	67.3828	82.0653	67.3828	81.6881	67.3828	81.6792	67.3828	81.258	67.3828	81.247	67.3828	80.7981	67.3828	80.7878	67.3828	80.3406	67.3828	80.3345	67.3828	79.929	67.3828	79.93	67.3828	79.6057	67.3828	79.6139	67.3828	79.3931	67.3828	79.4046	67.3828	79.2842	67.3828	79.2924	67.3828	79.2553
