"SPL Vertical"
"On-Axis"		"10°"		"-10°"		"20°"		"-20°"		"30°"		"-30°"		"40°"		"-40°"		"50°"		"-50°"		"60°"		"-60°"		"70°"		"-70°"		"80°"		"-80°"		"90°"		"-90°"		"100°"		"-100°"		"110°"		"-110°"		"120°"		"-120°"		"130°"		"-130°"		"140°"		"-140°"		"150°"		"-150°"		"160°"		"-160°"		"170°"		"-170°"		"180°"
"Frequency / Hz"	"Sound Pressure Level / dB (re 20 µPa/V)  [2.83  V @ 1. m]"	"Frequency / Hz"	"Sound Pressure Level / dB (re 20 µPa/V)  [2.83  V @ 1. m]"	"Frequency / Hz"	"Sound Pressure Level / dB (re 20 µPa/V)  [2.83  V @ 1. m]"	"Frequency / Hz"	"Sound Pressure Level / dB (re 20 µPa/V)  [2.83  V @ 1. m]"	"Frequency / Hz"	"Sound Pressure Level / dB (re 20 µPa/V)  [2.83  V @ 1. m]"	"Frequency / Hz"	"Sound Pressure Level / dB (re 20 µPa/V)  [2.83  V @ 1. m]"	"Frequency / Hz"	"Sound Pressure Level / dB (re 20 µPa/V)  [2.83  V @ 1. m]"	"Frequency / Hz"	"Sound Pressure Level / dB (re 20 µPa/V)  [2.83  V @ 1. m]"	"Frequency / Hz"	"Sound Pressure Level / dB (re 20 µPa/V)  [2.83  V @ 1. m]"	"Frequency / Hz"	"Sound Pressure Level / dB (re 20 µPa/V)  [2.83  V @ 1. m]"	"Frequency / Hz"	"Sound Pressure Level / dB (re 20 µPa/V)  [2.83  V @ 1. m]"	"Frequency / Hz"	"Sound Pressure Level / dB (re 20 µPa/V)  [2.83  V @ 1. m]"	"Frequency / Hz"	"Sound Pressure Level / dB (re 20 µPa/V)  [2.83  V @ 1. m]"	"Frequency / Hz"	"Sound Pressure Level / dB (re 20 µPa/V)  [2.83  V @ 1. m]"	"Frequency / Hz"	"Sound Pressure Level / dB (re 20 µPa/V)  [2.83  V @ 1. m]"	"Frequency / Hz"	"Sound Pressure Level / dB (re 20 µPa/V)  [2.83  V @ 1. m]"	"Frequency / Hz"	"Sound Pressure Level / dB (re 20 µPa/V)  [2.83  V @ 1. m]"	"Frequency / Hz"	"Sound Pressure Level / dB (re 20 µPa/V)  [2.83  V @ 1. m]"	"Frequency / Hz"	"Sound Pressure Level / dB (re 20 µPa/V)  [2.83  V @ 1. m]"	"Frequency / Hz"	"Sound Pressure Level / dB (re 20 µPa/V)  [2.83  V @ 1. m]"	"Frequency / Hz"	"Sound Pressure Level / dB (re 20 µPa/V)  [2.83  V @ 1. m]"	"Frequency / Hz"	"Sound Pressure Level / dB (re 20 µPa/V)  [2.83  V @ 1. m]"	"Frequency / Hz"	"Sound Pressure Level / dB (re 20 µPa/V)  [2.83  V @ 1. m]"	"Frequency / Hz"	"Sound Pressure Level / dB (re 20 µPa/V)  [2.83  V @ 1. m]"	"Frequency / Hz"	"Sound Pressure Level / dB (re 20 µPa/V)  [2.83  V @ 1. m]"	"Frequency / Hz"	"Sound Pressure Level / dB (re 20 µPa/V)  [2.83  V @ 1. m]"	"Frequency / Hz"	"Sound Pressure Level / dB (re 20 µPa/V)  [2.83  V @ 1. m]"	"Frequency / Hz"	"Sound Pressure Level / dB (re 20 µPa/V)  [2.83  V @ 1. m]"	"Frequency / Hz"	"Sound Pressure Level / dB (re 20 µPa/V)  [2.83  V @ 1. m]"	"Frequency / Hz"	"Sound Pressure Level / dB (re 20 µPa/V)  [2.83  V @ 1. m]"	"Frequency / Hz"	"Sound Pressure Level / dB (re 20 µPa/V)  [2.83  V @ 1. m]"	"Frequency / Hz"	"Sound Pressure Level / dB (re 20 µPa/V)  [2.83  V @ 1. m]"	"Frequency / Hz"	"Sound Pressure Level / dB (re 20 µPa/V)  [2.83  V @ 1. m]"	"Frequency / Hz"	"Sound Pressure Level / dB (re 20 µPa/V)  [2.83  V @ 1. m]"	"Frequency / Hz"	"Sound Pressure Level / dB (re 20 µPa/V)  [2.83  V @ 1. m]"	"Frequency / Hz"	"Sound Pressure Level / dB (re 20 µPa/V)  [2.83  V @ 1. m]"
20.5078	35.5933	20.5078	37.8295	20.5078	32.6361	20.5078	39.5461	20.5078	28.7729	20.5078	40.8642	20.5078	25.709	20.5078	41.8586	20.5078	28.1506	20.5078	42.5797	20.5078	31.9647	20.5078	43.0669	20.5078	34.975	20.5078	43.3559	20.5078	37.3495	20.5078	43.4856	20.5078	39.3095	20.5078	43.5048	20.5078	40.9787	20.5078	43.4779	20.5078	42.4184	20.5078	43.4865	20.5078	43.6549	20.5078	43.6154	20.5078	44.6951	20.5078	43.9215	20.5078	45.5361	20.5078	44.4022	20.5078	46.1706	20.5078	44.9945	20.5078	46.5907	20.5078	45.6058	20.5078	46.7917	20.5078	46.1473	20.5078	46.775	20.5078	46.5518
21.9727	42.3004	21.9727	41.1478	21.9727	43.4085	21.9727	39.9887	21.9727	44.4496	21.9727	38.8822	21.9727	45.4126	21.9727	37.9152	21.9727	46.2935	21.9727	37.2096	21.9727	47.0926	21.9727	36.9158	21.9727	47.8126	21.9727	37.1647	21.9727	48.4564	21.9727	37.9776	21.9727	49.0268	21.9727	39.2304	21.9727	49.5256	21.9727	40.7281	21.9727	49.953	21.9727	42.2988	21.9727	50.3068	21.9727	43.8283	21.9727	50.5824	21.9727	45.2503	21.9727	50.7717	21.9727	46.5291	21.9727	50.8634	21.9727	47.6464	21.9727	50.8439	21.9727	48.5934	21.9727	50.6983	21.9727	49.3678	21.9727	50.412	21.9727	49.9718
23.4375	48.1975	23.4375	48.045	23.4375	48.4035	23.4375	47.9466	23.4375	48.6529	23.4375	47.8927	23.4375	48.9296	23.4375	47.8657	23.4375	49.2147	23.4375	47.8443	23.4375	49.4901	23.4375	47.8079	23.4375	49.7401	23.4375	47.7405	23.4375	49.952	23.4375	47.6327	23.4375	50.1163	23.4375	47.4842	23.4375	50.2259	23.4375	47.3049	23.4375	50.2761	23.4375	47.1177	23.4375	50.2633	23.4375	46.9585	23.4375	50.1848	23.4375	46.8732	23.4375	50.0378	23.4375	46.9063	23.4375	49.8195	23.4375	47.0836	23.4375	49.5284	23.4375	47.3992	23.4375	49.1665	23.4375	47.8158	23.4375	48.7433	23.4375	48.2807
24.9023	49.2608	24.9023	48.9872	24.9023	49.5772	24.9023	48.7629	24.9023	49.9225	24.9023	48.5855	24.9023	50.2776	24.9023	48.4448	24.9023	50.6216	24.9023	48.3259	24.9023	50.9346	24.9023	48.2125	24.9023	51.1988	24.9023	48.0905	24.9023	51.3999	24.9023	47.9502	24.9023	51.5269	24.9023	47.7885	24.9023	51.5723	24.9023	47.6107	24.9023	51.5318	24.9023	47.432	24.9023	51.4038	24.9023	47.2792	24.9023	51.1892	24.9023	47.1882	24.9023	50.8914	24.9023	47.1983	24.9023	50.5164	24.9023	47.34	24.9023	50.0734	24.9023	47.6223	24.9023	49.5765	24.9023	48.0275	24.9023	49.0475	24.9023	48.5175
26.3672	53.5799	26.3672	53.345	26.3672	53.8287	26.3672	53.1288	26.3672	54.0832	26.3672	52.9325	26.3672	54.3326	26.3672	52.754	26.3672	54.5645	26.3672	52.5889	26.3672	54.7666	26.3672	52.4319	26.3672	54.9271	26.3672	52.2786	26.3672	55.0356	26.3672	52.1265	26.3672	55.0841	26.3672	51.9763	26.3672	55.0669	26.3672	51.833	26.3672	54.981	26.3672	51.7061	26.3672	54.8266	26.3672	51.6101	26.3672	54.6068	26.3672	51.5626	26.3672	54.3275	26.3672	51.582	26.3672	53.9977	26.3672	51.6822	26.3672	53.6295	26.3672	51.8687	26.3672	53.2386	26.3672	52.1361	26.3672	52.8441	26.3672	52.4686
27.832	57.0596	27.832	56.8662	27.832	57.2627	27.832	56.6877	27.832	57.468	27.832	56.5272	27.832	57.6668	27.832	56.3857	27.832	57.849	27.832	56.2623	27.832	58.0047	27.832	56.1552	27.832	58.1241	27.832	56.0621	27.832	58.1988	27.832	55.9809	27.832	58.2221	27.832	55.9107	27.832	58.1899	27.832	55.8518	27.832	58.1012	27.832	55.806	27.832	57.9583	27.832	55.777	27.832	57.7668	27.832	55.7699	27.832	57.536	27.832	55.7908	27.832	57.2778	27.832	55.8463	27.832	57.0066	27.832	55.942	27.832	56.7378	27.832	56.0814	27.832	56.4861	27.832	56.2643
29.2969	58.9002	29.2969	58.7239	29.2969	59.0911	29.2969	58.5647	29.2969	59.2916	29.2969	58.4225	29.2969	59.4938	29.2969	58.2959	29.2969	59.6877	29.2969	58.1828	29.2969	59.8619	29.2969	58.0813	29.2969	60.0051	29.2969	57.9904	29.2969	60.107	29.2969	57.9098	29.2969	60.1594	29.2969	57.8408	29.2969	60.1572	29.2969	57.786	29.2969	60.0984	29.2969	57.7494	29.2969	59.9846	29.2969	57.7361	29.2969	59.8211	29.2969	57.7516	29.2969	59.6161	29.2969	57.8013	29.2969	59.3804	29.2969	57.8892	29.2969	59.1267	29.2969	58.017	29.2969	58.8682	29.2969	58.1841	29.2969	58.6176	29.2969	58.3865
30.7617	62.3772	30.7617	62.2184	30.7617	62.5511	30.7617	62.0782	30.7617	62.7342	30.7617	61.9582	30.7617	62.9184	30.7617	61.8584	30.7617	63.0945	30.7617	61.7776	30.7617	63.2526	30.7617	61.7143	30.7617	63.3833	30.7617	61.6672	30.7617	63.4784	30.7617	61.6352	30.7617	63.5317	30.7617	61.6181	30.7617	63.5397	30.7617	61.616	30.7617	63.5018	30.7617	61.6295	30.7617	63.4205	30.7617	61.66	30.7617	63.301	30.7617	61.7088	30.7617	63.1509	30.7617	61.7774	30.7617	62.9792	30.7617	61.8669	30.7617	62.7958	30.7617	61.9778	30.7617	62.6099	30.7617	62.1098	30.7617	62.4296	30.7617	62.2614
32.2266	65.1337	32.2266	64.9624	32.2266	65.3153	32.2266	64.8061	32.2266	65.501	32.2266	64.6677	32.2266	65.683	32.2266	64.5489	32.2266	65.8531	32.2266	64.4501	32.2266	66.0026	32.2266	64.3711	32.2266	66.1235	32.2266	64.3116	32.2266	66.209	32.2266	64.2713	32.2266	66.2541	32.2266	64.25	32.2266	66.2562	32.2266	64.248	32.2266	66.2152	32.2266	64.2657	32.2266	66.1336	32.2266	64.304	32.2266	66.0162	32.2266	64.3637	32.2266	65.8699	32.2266	64.4453	32.2266	65.7023	32.2266	64.5489	32.2266	65.5219	32.2266	64.6736	32.2266	65.3367	32.2266	64.818	32.2266	65.1538	32.2266	64.9793
33.6914	67.279	33.6914	67.0979	33.6914	67.466	33.6914	66.9278	33.6914	67.6527	33.6914	66.7727	33.6914	67.8318	33.6914	66.6352	33.6914	67.9955	33.6914	66.517	33.6914	68.136	33.6914	66.419	33.6914	68.2461	33.6914	66.3418	33.6914	68.3196	33.6914	66.2857	33.6914	68.3522	33.6914	66.2509	33.6914	68.3415	33.6914	66.2377	33.6914	68.2877	33.6914	66.2467	33.6914	68.1933	33.6914	66.2784	33.6914	68.0632	33.6914	66.3335	33.6914	67.904	33.6914	66.4125	33.6914	67.7239	33.6914	66.5155	33.6914	67.5312	33.6914	66.642	33.6914	67.3344	33.6914	66.7904	33.6914	67.1412	33.6914	66.9581
35.1562	69.9941	35.1562	69.8255	35.1562	70.1658	35.1562	69.6644	35.1562	70.3351	35.1562	69.5145	35.1562	70.496	35.1562	69.3783	35.1562	70.6419	35.1562	69.258	35.1562	70.766	35.1562	69.1551	35.1562	70.8622	35.1562	69.0708	35.1562	70.9249	35.1562	69.0061	35.1562	70.9504	35.1562	68.9619	35.1562	70.9363	35.1562	68.939	35.1562	70.8828	35.1562	68.9384	35.1562	70.7918	35.1562	68.9611	35.1562	70.6675	35.1562	69.0079	35.1562	70.5157	35.1562	69.0795	35.1562	70.3434	35.1562	69.176	35.1562	70.1583	35.1562	69.2968	35.1562	69.9684	35.1562	69.4402	35.1562	69.781	35.1562	69.6031
36.6211	72.1777	36.6211	72.0269	36.6211	72.3312	36.6211	71.8832	36.6211	72.4828	36.6211	71.7502	36.6211	72.627	36.6211	71.6308	36.6211	72.7581	36.6211	71.5274	36.6211	72.8705	36.6211	71.4418	36.6211	72.9591	36.6211	71.3754	36.6211	73.0193	36.6211	71.3294	36.6211	73.0482	36.6211	71.3043	36.6211	73.0441	36.6211	71.3008	36.6211	73.0072	36.6211	71.3189	36.6211	72.9395	36.6211	71.3584	36.6211	72.8445	36.6211	71.419	36.6211	72.7269	36.6211	71.4995	36.6211	72.5919	36.6211	71.5989	36.6211	72.4451	36.6211	71.7151	36.6211	72.2922	36.6211	71.8459	36.6211	72.1383	36.6211	71.9882
38.0859	72.9554	38.0859	72.8049	38.0859	73.1094	38.0859	72.6624	38.0859	73.2617	38.0859	72.5316	38.0859	73.407	38.0859	72.4157	38.0859	73.5392	38.0859	72.3172	38.0859	73.6526	38.0859	72.2383	38.0859	73.7418	38.0859	72.1806	38.0859	73.8023	38.0859	72.1452	38.0859	73.8312	38.0859	72.1326	38.0859	73.8273	38.0859	72.1428	38.0859	73.7914	38.0859	72.175	38.0859	73.7263	38.0859	72.2282	38.0859	73.6363	38.0859	72.3004	38.0859	73.5267	38.0859	72.3894	38.0859	73.403	38.0859	72.4926	38.0859	73.2706	38.0859	72.6074	38.0859	73.134	38.0859	72.7313	38.0859	72.9968	38.0859	72.8618
39.5508	74.7733	39.5508	74.5933	39.5508	74.9544	39.5508	74.4199	39.5508	75.1303	39.5508	74.2579	39.5508	75.2942	39.5508	74.111	39.5508	75.4394	39.5508	73.9819	39.5508	75.5593	39.5508	73.8728	39.5508	75.648	39.5508	73.7849	39.5508	75.701	39.5508	73.7192	39.5508	75.7149	39.5508	73.6762	39.5508	75.6888	39.5508	73.6562	39.5508	75.6233	39.5508	73.6594	39.5508	75.5215	39.5508	73.6857	39.5508	75.388	39.5508	73.7351	39.5508	75.2292	39.5508	73.8077	39.5508	75.0524	39.5508	73.9031	39.5508	74.8654	39.5508	74.0209	39.5508	74.6761	39.5508	74.1598	39.5508	74.4915	39.5508	74.3178
41.0156	76.7013	41.0156	76.549	41.0156	76.8533	41.0156	76.4007	41.0156	76.9998	41.0156	76.2603	41.0156	77.1356	41.0156	76.1307	41.0156	77.255	41.0156	76.0147	41.0156	77.3524	41.0156	75.9144	41.0156	77.4228	41.0156	75.8313	41.0156	77.4623	41.0156	75.7667	41.0156	77.4682	41.0156	75.7215	41.0156	77.4395	41.0156	75.6963	41.0156	77.3769	41.0156	75.6915	41.0156	77.2833	41.0156	75.7074	41.0156	77.1628	41.0156	75.7438	41.0156	77.0212	41.0156	75.8009	41.0156	76.8649	41.0156	75.8784	41.0156	76.7009	41.0156	75.9761	41.0156	76.536	41.0156	76.093	41.0156	76.3764	41.0156	76.2274
42.4805	78.2134	42.4805	78.0601	42.4805	78.3658	42.4805	77.9104	42.4805	78.5122	42.4805	77.7684	42.4805	78.6474	42.4805	77.6372	42.4805	78.7658	42.4805	77.5195	42.4805	78.8625	42.4805	77.4173	42.4805	78.9328	42.4805	77.3321	42.4805	78.9732	42.4805	77.2654	42.4805	78.9813	42.4805	77.2179	42.4805	78.9562	42.4805	77.1906	42.4805	78.8985	42.4805	77.1843	42.4805	78.8105	42.4805	77.1995	42.4805	78.6957	42.4805	77.2371	42.4805	78.5589	42.4805	77.2973	42.4805	78.4058	42.4805	77.3803	42.4805	78.2425	42.4805	77.4854	42.4805	78.0753	42.4805	77.6109	42.4805	77.9105	42.4805	77.754
43.9453	79.1886	43.9453	79.0505	43.9453	79.3237	43.9453	78.9137	43.9453	79.4514	43.9453	78.7822	43.9453	79.5672	43.9453	78.6595	43.9453	79.6667	43.9453	78.549	43.9453	79.7457	43.9453	78.4531	43.9453	79.8008	43.9453	78.3742	43.9453	79.8292	43.9453	78.3138	43.9453	79.8293	43.9453	78.273	43.9453	79.8008	43.9453	78.2527	43.9453	79.745	43.9453	78.253	43.9453	79.6645	43.9453	78.2739	43.9453	79.5629	43.9453	78.3148	43.9453	79.4448	43.9453	78.3749	43.9453	79.3153	43.9453	78.4528	43.9453	79.1793	43.9453	78.5471	43.9453	79.0413	43.9453	78.6556	43.9453	78.9057	43.9453	78.776
45.4102	79.7627	45.4102	79.6227	45.4102	79.8991	45.4102	79.4833	45.4102	80.0277	45.4102	79.3483	45.4102	80.1436	45.4102	79.2211	45.4102	80.2424	45.4102	79.1044	45.4102	80.3197	45.4102	79.001	45.4102	80.3718	45.4102	78.913	45.4102	80.396	45.4102	78.8424	45.4102	80.3905	45.4102	78.7908	45.4102	80.3553	45.4102	78.7594	45.4102	80.2915	45.4102	78.7492	45.4102	80.2021	45.4102	78.7607	45.4102	80.0909	45.4102	78.7938	45.4102	79.9629	45.4102	78.8483	45.4102	79.8233	45.4102	78.9231	45.4102	79.6775	45.4102	79.0166	45.4102	79.5306	45.4102	79.127	45.4102	79.3873	45.4102	79.2515
46.875	80.5183	46.875	80.3794	46.875	80.6533	46.875	80.241	46.875	80.78	46.875	80.107	46.875	80.8937	46.875	79.9808	46.875	80.9896	46.875	79.8653	46.875	81.0638	46.875	79.7629	46.875	81.1125	46.875	79.6756	46.875	81.1331	46.875	79.605	46.875	81.1241	46.875	79.5525	46.875	81.0854	46.875	79.5191	46.875	81.0185	46.875	79.5054	46.875	80.9261	46.875	79.5122	46.875	80.8122	46.875	79.5396	46.875	80.6818	46.875	79.5876	46.875	80.5403	46.875	79.6558	46.875	80.3932	46.875	79.7433	46.875	80.2458	46.875	79.8485	46.875	80.1031	46.875	79.9695
48.3398	81.1937	48.3398	81.0648	48.3398	81.3196	48.3398	80.9371	48.3398	81.4381	48.3398	80.8143	48.3398	81.545	48.3398	80.6997	48.3398	81.6359	48.3398	80.5962	48.3398	81.7069	48.3398	80.506	48.3398	81.7546	48.3398	80.4309	48.3398	81.7766	48.3398	80.3725	48.3398	81.7716	48.3398	80.3315	48.3398	81.7398	48.3398	80.3088	48.3398	81.6823	48.3398	80.3045	48.3398	81.602	48.3398	80.3186	48.3398	81.5025	48.3398	80.3511	48.3398	81.3882	48.3398	80.4013	48.3398	81.264	48.3398	80.4685	48.3398	81.1346	48.3398	80.5515	48.3398	81.0046	48.3398	80.6487	48.3398	80.878	48.3398	80.7584
51.2695	82.0626	51.2695	81.9434	51.2695	82.1783	51.2695	81.8244	51.2695	82.2863	51.2695	81.7092	51.2695	82.3826	51.2695	81.601	51.2695	82.4631	51.2695	81.5025	51.2695	82.5241	51.2695	81.4161	51.2695	82.5626	51.2695	81.3437	51.2695	82.5766	51.2695	81.2869	51.2695	82.5651	51.2695	81.2467	51.2695	82.5285	51.2695	81.2234	51.2695	82.4684	51.2695	81.2173	51.2695	82.3878	51.2695	81.2281	51.2695	82.2904	51.2695	81.2551	51.2695	82.1807	51.2695	81.2976	51.2695	82.0636	51.2695	81.3548	51.2695	81.9435	51.2695	81.4259	51.2695	81.8249	51.2695	81.5098	51.2695	81.7112	51.2695	81.6055
52.7344	82.3669	52.7344	82.2449	52.7344	82.485	52.7344	82.1235	52.7344	82.595	52.7344	82.0066	52.7344	82.6926	52.7344	81.8978	52.7344	82.7736	52.7344	81.8004	52.7344	82.8347	52.7344	81.7169	52.7344	82.8732	52.7344	81.6495	52.7344	82.8875	52.7344	81.5993	52.7344	82.8772	52.7344	81.5673	52.7344	82.843	52.7344	81.5536	52.7344	82.787	52.7344	81.5577	52.7344	82.7121	52.7344	81.5788	52.7344	82.6223	52.7344	81.6156	52.7344	82.5215	52.7344	81.6669	52.7344	82.4141	52.7344	81.731	52.7344	82.3038	52.7344	81.8065	52.7344	82.194	52.7344	81.8921	52.7344	82.0874	52.7344	81.9862
54.1992	82.6529	54.1992	82.5359	54.1992	82.764	54.1992	82.4171	54.1992	82.8648	54.1992	82.3008	54.1992	82.9513	54.1992	82.1907	54.1992	83.0201	54.1992	82.0905	54.1992	83.0682	54.1992	82.003	54.1992	83.0935	54.1992	81.9307	54.1992	83.0952	54.1992	81.8751	54.1992	83.0733	54.1992	81.8375	54.1992	83.0294	54.1992	81.8181	54.1992	82.9659	54.1992	81.8168	54.1992	82.8864	54.1992	81.8326	54.1992	82.795	54.1992	81.8643	54.1992	82.696	54.1992	81.9101	54.1992	82.5931	54.1992	81.9684	54.1992	82.4899	54.1992	82.0372	54.1992	82.3889	54.1992	82.1149	54.1992	82.2918	54.1992	82.2001
55.6641	82.9436	55.6641	82.8352	55.6641	83.0404	55.6641	82.7188	55.6641	83.1221	55.6641	82.5981	55.6641	83.1856	55.6641	82.4767	55.6641	83.2281	55.6641	82.3583	55.6641	83.2473	55.6641	82.2463	55.6641	83.2418	55.6641	82.1439	55.6641	83.2109	55.6641	82.0538	55.6641	83.1552	55.6641	81.9784	55.6641	83.0766	55.6641	81.9193	55.6641	82.9783	55.6641	81.8779	55.6641	82.8647	55.6641	81.8545	55.6641	82.7412	55.6641	81.8492	55.6641	82.6134	55.6641	81.8613	55.6641	82.4868	55.6641	81.89	55.6641	82.3659	55.6641	81.9344	55.6641	82.2542	55.6641	81.9937	55.6641	82.1542	55.6641	82.0671
58.5938	83.1239	58.5938	83.0273	58.5938	83.2074	58.5938	82.9206	58.5938	83.2751	58.5938	82.8066	58.5938	83.3246	58.5938	82.6886	58.5938	83.3535	58.5938	82.5694	58.5938	83.3601	58.5938	82.452	58.5938	83.343	58.5938	82.3392	58.5938	83.3015	58.5938	82.2335	58.5938	83.2358	58.5938	82.1371	58.5938	83.1472	58.5938	82.0521	58.5938	83.0379	58.5938	81.9805	58.5938	82.9115	58.5938	81.9239	58.5938	82.7727	58.5938	81.8842	58.5938	82.6268	58.5938	81.8634	58.5938	82.4801	58.5938	81.8633	58.5938	82.3386	58.5938	81.8857	58.5938	82.2085	58.5938	81.9317	58.5938	82.0949	58.5938	82.0018
60.0586	83.0106	60.0586	82.9112	60.0586	83.096	60.0586	82.8008	60.0586	83.1648	60.0586	82.6827	60.0586	83.2145	60.0586	82.5599	60.0586	83.243	60.0586	82.4358	60.0586	83.2485	60.0586	82.3134	60.0586	83.2299	60.0586	82.1956	60.0586	83.1864	60.0586	82.085	60.0586	83.1181	60.0586	81.9839	60.0586	83.0261	60.0586	81.8945	60.0586	82.9129	60.0586	81.8188	60.0586	82.7819	60.0586	81.7588	60.0586	82.6376	60.0586	81.7163	60.0586	82.4859	60.0586	81.6935	60.0586	82.333	60.0586	81.6923	60.0586	82.1855	60.0586	81.7147	60.0586	82.0498	60.0586	81.7619	60.0586	81.9313	60.0586	81.8345
62.9883	82.7848	62.9883	82.6938	62.9883	82.8682	62.9883	82.5981	62.9883	82.9413	62.9883	82.5005	62.9883	83.0018	62.9883	82.4039	62.9883	83.0472	62.9883	82.3112	62.9883	83.0755	62.9883	82.225	62.9883	83.0851	62.9883	82.1475	62.9883	83.0748	62.9883	82.0807	62.9883	83.0445	62.9883	82.0257	62.9883	82.9947	62.9883	81.9836	62.9883	82.9272	62.9883	81.955	62.9883	82.8443	62.9883	81.9402	62.9883	82.7496	62.9883	81.9394	62.9883	82.6468	62.9883	81.9528	62.9883	82.5399	62.9883	81.9808	62.9883	82.4333	62.9883	82.0234	62.9883	82.3308	62.9883	82.0806	62.9883	82.236	62.9883	82.1519
64.4531	82.7043	64.4531	82.6127	64.4531	82.7894	64.4531	82.5175	64.4531	82.8654	64.4531	82.4215	64.4531	82.9295	64.4531	82.3275	64.4531	82.9793	64.4531	82.2382	64.4531	83.0125	64.4531	82.1562	64.4531	83.027	64.4531	82.0838	64.4531	83.0219	64.4531	82.0227	64.4531	82.9969	64.4531	81.9741	64.4531	82.9527	64.4531	81.939	64.4531	82.891	64.4531	81.9178	64.4531	82.8144	64.4531	81.9106	64.4531	82.7262	64.4531	81.9174	64.4531	82.6301	64.4531	81.9382	64.4531	82.5297	64.4531	81.9728	64.4531	82.4287	64.4531	82.0208	64.4531	82.3306	64.4531	82.0818	64.4531	82.2384	64.4531	82.1548
67.3828	82.6216	67.3828	82.5239	67.3828	82.7138	67.3828	82.4242	67.3828	82.797	67.3828	82.326	67.3828	82.868	67.3828	82.2324	67.3828	82.9235	67.3828	82.1464	67.3828	82.961	67.3828	82.0706	67.3828	82.9788	67.3828	82.007	67.3828	82.976	67.3828	81.957	67.3828	82.953	67.3828	81.9216	67.3828	82.9112	67.3828	81.901	67.3828	82.8533	67.3828	81.895	67.3828	82.7823	67.3828	81.903	67.3828	82.702	67.3828	81.9241	67.3828	82.6156	67.3828	81.9573	67.3828	82.5266	67.3828	82.0016	67.3828	82.4375	67.3828	82.0559	67.3828	82.3506	67.3828	82.119	67.3828	82.2676	67.3828	82.19
