"SPL Vertical"
"On-Axis"		"10°"		"-10°"		"20°"		"-20°"		"30°"		"-30°"		"40°"		"-40°"		"50°"		"-50°"		"60°"		"-60°"		"70°"		"-70°"		"80°"		"-80°"		"90°"		"-90°"		"100°"		"-100°"		"110°"		"-110°"		"120°"		"-120°"		"130°"		"-130°"		"140°"		"-140°"		"150°"		"-150°"		"160°"		"-160°"		"170°"		"-170°"		"180°"
"Frequency / Hz"	"Sound Pressure Level / dB (re 20 µPa/V)  [2.83  V @ 1. m]"	"Frequency / Hz"	"Sound Pressure Level / dB (re 20 µPa/V)  [2.83  V @ 1. m]"	"Frequency / Hz"	"Sound Pressure Level / dB (re 20 µPa/V)  [2.83  V @ 1. m]"	"Frequency / Hz"	"Sound Pressure Level / dB (re 20 µPa/V)  [2.83  V @ 1. m]"	"Frequency / Hz"	"Sound Pressure Level / dB (re 20 µPa/V)  [2.83  V @ 1. m]"	"Frequency / Hz"	"Sound Pressure Level / dB (re 20 µPa/V)  [2.83  V @ 1. m]"	"Frequency / Hz"	"Sound Pressure Level / dB (re 20 µPa/V)  [2.83  V @ 1. m]"	"Frequency / Hz"	"Sound Pressure Level / dB (re 20 µPa/V)  [2.83  V @ 1. m]"	"Frequency / Hz"	"Sound Pressure Level / dB (re 20 µPa/V)  [2.83  V @ 1. m]"	"Frequency / Hz"	"Sound Pressure Level / dB (re 20 µPa/V)  [2.83  V @ 1. m]"	"Frequency / Hz"	"Sound Pressure Level / dB (re 20 µPa/V)  [2.83  V @ 1. m]"	"Frequency / Hz"	"Sound Pressure Level / dB (re 20 µPa/V)  [2.83  V @ 1. m]"	"Frequency / Hz"	"Sound Pressure Level / dB (re 20 µPa/V)  [2.83  V @ 1. m]"	"Frequency / Hz"	"Sound Pressure Level / dB (re 20 µPa/V)  [2.83  V @ 1. m]"	"Frequency / Hz"	"Sound Pressure Level / dB (re 20 µPa/V)  [2.83  V @ 1. m]"	"Frequency / Hz"	"Sound Pressure Level / dB (re 20 µPa/V)  [2.83  V @ 1. m]"	"Frequency / Hz"	"Sound Pressure Level / dB (re 20 µPa/V)  [2.83  V @ 1. m]"	"Frequency / Hz"	"Sound Pressure Level / dB (re 20 µPa/V)  [2.83  V @ 1. m]"	"Frequency / Hz"	"Sound Pressure Level / dB (re 20 µPa/V)  [2.83  V @ 1. m]"	"Frequency / Hz"	"Sound Pressure Level / dB (re 20 µPa/V)  [2.83  V @ 1. m]"	"Frequency / Hz"	"Sound Pressure Level / dB (re 20 µPa/V)  [2.83  V @ 1. m]"	"Frequency / Hz"	"Sound Pressure Level / dB (re 20 µPa/V)  [2.83  V @ 1. m]"	"Frequency / Hz"	"Sound Pressure Level / dB (re 20 µPa/V)  [2.83  V @ 1. m]"	"Frequency / Hz"	"Sound Pressure Level / dB (re 20 µPa/V)  [2.83  V @ 1. m]"	"Frequency / Hz"	"Sound Pressure Level / dB (re 20 µPa/V)  [2.83  V @ 1. m]"	"Frequency / Hz"	"Sound Pressure Level / dB (re 20 µPa/V)  [2.83  V @ 1. m]"	"Frequency / Hz"	"Sound Pressure Level / dB (re 20 µPa/V)  [2.83  V @ 1. m]"	"Frequency / Hz"	"Sound Pressure Level / dB (re 20 µPa/V)  [2.83  V @ 1. m]"	"Frequency / Hz"	"Sound Pressure Level / dB (re 20 µPa/V)  [2.83  V @ 1. m]"	"Frequency / Hz"	"Sound Pressure Level / dB (re 20 µPa/V)  [2.83  V @ 1. m]"	"Frequency / Hz"	"Sound Pressure Level / dB (re 20 µPa/V)  [2.83  V @ 1. m]"	"Frequency / Hz"	"Sound Pressure Level / dB (re 20 µPa/V)  [2.83  V @ 1. m]"	"Frequency / Hz"	"Sound Pressure Level / dB (re 20 µPa/V)  [2.83  V @ 1. m]"	"Frequency / Hz"	"Sound Pressure Level / dB (re 20 µPa/V)  [2.83  V @ 1. m]"	"Frequency / Hz"	"Sound Pressure Level / dB (re 20 µPa/V)  [2.83  V @ 1. m]"	"Frequency / Hz"	"Sound Pressure Level / dB (re 20 µPa/V)  [2.83  V @ 1. m]"
20.5078	55.6955	20.5078	56.9982	20.5078	54.144	20.5078	57.9408	20.5078	53.2097	20.5078	58.5783	20.5078	54.4956	20.5078	58.9733	20.5078	57.4149	20.5078	59.1715	20.5078	60.382	20.5078	59.2012	20.5078	62.8785	20.5078	59.0769	20.5078	64.8469	20.5078	58.8011	20.5078	66.3072	20.5078	58.3661	20.5078	67.2791	20.5078	57.7536	20.5078	67.7752	20.5078	56.9327	20.5078	67.8053	20.5078	55.8586	20.5078	67.3799	20.5078	54.4791	20.5078	66.512	20.5078	52.7894	20.5078	65.2164	20.5078	51.1169	20.5078	63.5054	20.5078	50.7808	20.5078	61.3832	20.5078	52.8363	20.5078	58.8443	20.5078	55.908
21.9727	60.0796	21.9727	60.1724	21.9727	60.3938	21.9727	60.4507	21.9727	61.284	21.9727	60.7623	21.9727	62.7009	21.9727	61.0311	21.9727	64.4062	21.9727	61.2264	21.9727	66.1468	21.9727	61.3383	21.9727	67.746	21.9727	61.3646	21.9727	69.097	21.9727	61.3062	21.9727	70.1362	21.9727	61.1658	21.9727	70.8256	21.9727	60.9495	21.9727	71.1454	21.9727	60.6709	21.9727	71.0907	21.9727	60.36	21.9727	70.6711	21.9727	60.0756	21.9727	69.9104	21.9727	59.9207	21.9727	68.8466	21.9727	60.0403	21.9727	67.5326	21.9727	60.5724	21.9727	66.038	21.9727	61.5593	21.9727	64.4552	21.9727	62.9087
23.4375	65.6744	23.4375	65.221	23.4375	66.3921	23.4375	64.9676	23.4375	67.3951	23.4375	64.8413	23.4375	68.6384	23.4375	64.7832	23.4375	70.0224	23.4375	64.7543	23.4375	71.4256	23.4375	64.7323	23.4375	72.7319	23.4375	64.7063	23.4375	73.8438	23.4375	64.6733	23.4375	74.6861	23.4375	64.6363	23.4375	75.2071	23.4375	64.6038	23.4375	75.3786	23.4375	64.5913	23.4375	75.1967	23.4375	64.6227	23.4375	74.6808	23.4375	64.7327	23.4375	73.8725	23.4375	64.9666	23.4375	72.8323	23.4375	65.3736	23.4375	71.6337	23.4375	65.9935	23.4375	70.3566	23.4375	66.8385	23.4375	69.0814	23.4375	67.8855
24.9023	68.6688	24.9023	68.2106	24.9023	69.3266	24.9023	67.9089	24.9023	70.2027	24.9023	67.716	24.9023	71.275	24.9023	67.592	24.9023	72.4781	24.9023	67.5084	24.9023	73.7178	24.9023	67.4477	24.9023	74.8907	24.9023	67.4003	24.9023	75.9008	24.9023	67.3627	24.9023	76.6685	24.9023	67.3364	24.9023	77.1367	24.9023	67.3271	24.9023	77.2732	24.9023	67.3454	24.9023	77.0716	24.9023	67.408	24.9023	76.5517	24.9023	67.5383	24.9023	75.7583	24.9023	67.7674	24.9023	74.7569	24.9023	68.1305	24.9023	73.6265	24.9023	68.6597	24.9023	72.4508	24.9023	69.3729	24.9023	71.3082	24.9023	70.2655
26.3672	70.9253	26.3672	70.4452	26.3672	71.5899	26.3672	70.1148	26.3672	72.4517	26.3672	69.8933	26.3672	73.4883	26.3672	69.7447	26.3672	74.6403	26.3672	69.642	26.3672	75.8215	26.3672	69.5671	26.3672	76.9357	26.3672	69.5094	26.3672	77.8908	26.3672	69.4637	26.3672	78.6095	26.3672	69.4298	26.3672	79.0352	26.3672	69.4115	26.3672	79.1354	26.3672	69.4176	26.3672	78.904	26.3672	69.4629	26.3672	78.3608	26.3672	69.57	26.3672	77.5515	26.3672	69.7695	26.3672	76.5426	26.3672	70.0975	26.3672	75.4146	26.3672	70.5882	26.3672	74.2517	26.3672	71.2626	26.3672	73.1315	26.3672	72.1192
27.832	72.9949	27.832	72.5597	27.832	73.5838	27.832	72.2454	27.832	74.3459	27.832	72.0182	27.832	75.2728	27.832	71.8497	27.832	76.321	27.832	71.7195	27.832	77.4157	27.832	71.6137	27.832	78.4651	27.832	71.5242	27.832	79.3761	27.832	71.4473	27.832	80.0674	27.832	71.3827	27.832	80.4774	27.832	71.3339	27.832	80.5692	27.832	71.3086	27.832	80.3327	27.832	71.3199	27.832	79.7857	27.832	71.3881	27.832	78.9731	27.832	71.5416	27.832	77.9635	27.832	71.8153	27.832	76.8417	27.832	72.2441	27.832	75.6969	27.832	72.8533	27.832	74.6109	27.832	73.6486
29.2969	75.8072	29.2969	75.2791	29.2969	76.4673	29.2969	74.8674	29.2969	77.2632	29.2969	74.5524	29.2969	78.1797	29.2969	74.3152	29.2969	79.1786	29.2969	74.1405	29.2969	80.201	29.2969	74.0169	29.2969	81.1734	29.2969	73.9373	29.2969	82.0189	29.2969	73.8978	29.2969	82.6674	29.2969	73.898	29.2969	83.0646	29.2969	73.941	29.2969	83.178	29.2969	74.0335	29.2969	83	29.2969	74.1859	29.2969	82.5488	29.2969	74.4126	29.2969	81.8657	29.2969	74.7311	29.2969	81.0103	29.2969	75.1588	29.2969	80.0515	29.2969	75.7093	29.2969	79.0576	29.2969	76.3876	29.2969	78.0875	29.2969	77.1868
30.7617	79.0819	30.7617	78.6535	30.7617	79.6192	30.7617	78.3188	30.7617	80.2726	30.7617	78.0609	30.7617	81.0352	30.7617	77.8642	30.7617	81.88	30.7617	77.7169	30.7617	82.7585	30.7617	77.6104	30.7617	83.6051	30.7617	77.5396	30.7617	84.3465	30.7617	77.5019	30.7617	84.9135	30.7617	77.4974	30.7617	85.2513	30.7617	77.5278	30.7617	85.3275	30.7617	77.5975	30.7617	85.1358	30.7617	77.7134	30.7617	84.6971	30.7617	77.8854	30.7617	84.0569	30.7617	78.1263	30.7617	83.2781	30.7617	78.4505	30.7617	82.4298	30.7617	78.8717	30.7617	81.5756	30.7617	79.3988	30.7617	80.7654	30.7617	80.033
32.2266	80.122	32.2266	79.6773	32.2266	80.6634	32.2266	79.3183	32.2266	81.3069	32.2266	79.0321	32.2266	82.046	32.2266	78.8072	32.2266	82.8572	32.2266	78.6341	32.2266	83.6969	32.2266	78.5058	32.2266	84.5039	32.2266	78.4173	32.2266	85.208	32.2266	78.3661	32.2266	85.7412	32.2266	78.3512	32.2266	86.0487	32.2266	78.3734	32.2266	86.0974	32.2266	78.4359	32.2266	85.8803	32.2266	78.544	32.2266	85.4184	32.2266	78.7059	32.2266	84.7582	32.2266	78.933	32.2266	83.9646	32.2266	79.2387	32.2266	83.109	32.2266	79.6369	32.2266	82.2572	32.2266	80.1383	32.2266	81.4593	32.2266	80.7473
33.6914	81.6219	33.6914	81.1826	33.6914	82.1446	33.6914	80.8191	33.6914	82.7536	33.6914	80.5228	33.6914	83.4428	33.6914	80.2854	33.6914	84.192	33.6914	80.1001	33.6914	84.9637	33.6914	79.9618	33.6914	85.7043	33.6914	79.8671	33.6914	86.3501	33.6914	79.8136	33.6914	86.8379	33.6914	79.8007	33.6914	87.1157	33.6914	79.8288	33.6914	87.1516	33.6914	79.8999	33.6914	86.9393	33.6914	80.0179	33.6914	86.4997	33.6914	80.1887	33.6914	85.8785	33.6914	80.421	33.6914	85.1376	33.6914	80.7249	33.6914	84.344	33.6914	81.111	33.6914	83.5568	33.6914	81.5878	33.6914	82.8194	33.6914	82.1585
35.1562	82.5614	35.1562	82.1447	35.1562	83.0512	35.1562	81.795	35.1562	83.6167	35.1562	81.5056	35.1562	84.2534	35.1562	81.2707	35.1562	84.9447	35.1562	81.0855	35.1562	85.658	35.1562	80.9463	35.1562	86.3447	35.1562	80.8507	35.1562	86.9452	35.1562	80.797	35.1562	87.3987	35.1562	80.7844	35.1562	87.6543	35.1562	80.8131	35.1562	87.6806	35.1562	80.884	35.1562	87.4716	35.1562	80.9997	35.1562	87.0485	35.1562	81.1645	35.1562	86.4565	35.1562	81.3848	35.1562	85.7564	35.1562	81.6691	35.1562	85.0126	35.1562	82.0267	35.1562	84.2802	35.1562	82.4656	35.1562	83.5984	35.1562	82.9901
36.6211	82.9176	36.6211	82.5035	36.6211	83.3987	36.6211	82.1524	36.6211	83.9482	36.6211	81.8593	36.6211	84.5608	36.6211	81.6198	36.6211	85.221	36.6211	81.4303	36.6211	85.8983	36.6211	81.2881	36.6211	86.5475	36.6211	81.1909	36.6211	87.1126	36.6211	81.1375	36.6211	87.5357	36.6211	81.1267	36.6211	87.7684	36.6211	81.1581	36.6211	87.781	36.6211	81.2322	36.6211	87.5683	36.6211	81.3504	36.6211	87.1523	36.6211	81.5159	36.6211	86.5778	36.6211	81.7338	36.6211	85.9045	36.6211	82.0112	36.6211	85.1939	36.6211	82.356	36.6211	84.4977	36.6211	82.7757	36.6211	83.8512	36.6211	83.2743
38.0859	83.5658	38.0859	83.1353	38.0859	84.0591	38.0859	82.765	38.0859	84.6164	38.0859	82.452	38.0859	85.2339	38.0859	82.1941	38.0859	85.8981	38.0859	81.989	38.0859	86.58	38.0859	81.8347	38.0859	87.2336	38.0859	81.7294	38.0859	87.7996	38.0859	81.6713	38.0859	88.2156	38.0859	81.659	38.0859	88.4297	38.0859	81.6914	38.0859	88.4115	38.0859	81.7677	38.0859	88.1593	38.0859	81.8879	38.0859	87.7005	38.0859	82.0531	38.0859	87.0865	38.0859	82.2659	38.0859	86.3817	38.0859	82.5314	38.0859	85.6499	38.0859	82.8578	38.0859	84.9435	38.0859	83.2554	38.0859	84.2985	38.0859	83.734
39.5508	83.6383	39.5508	83.2148	39.5508	84.1193	39.5508	82.8472	39.5508	84.6578	39.5508	82.5339	39.5508	85.2499	39.5508	82.2737	39.5508	85.8825	39.5508	82.0653	39.5508	86.529	39.5508	81.9077	39.5508	87.1463	39.5508	81.7997	39.5508	87.6788	39.5508	81.7402	39.5508	88.0673	39.5508	81.7279	39.5508	88.2622	39.5508	81.7616	39.5508	88.2349	39.5508	81.8404	39.5508	87.9844	39.5508	81.9638	39.5508	87.5387	39.5508	82.1319	39.5508	86.9482	39.5508	82.346	39.5508	86.2755	39.5508	82.6097	39.5508	85.581	39.5508	82.9292	39.5508	84.9133	39.5508	83.313	39.5508	84.3042	39.5508	83.7696
41.0156	83.7003	41.0156	83.2799	41.0156	84.172	41.0156	82.911	41.0156	84.6938	41.0156	82.5936	41.0156	85.2613	41.0156	82.3279	41.0156	85.8623	41.0156	82.114	41.0156	86.4727	41.0156	81.9514	41.0156	87.0534	41.0156	81.8398	41.0156	87.5524	41.0156	81.778	41.0156	87.9143	41.0156	81.7651	41.0156	88.0915	41.0156	81.7995	41.0156	88.0568	41.0156	81.8799	41.0156	87.8096	41.0156	82.0052	41.0156	87.3772	41.0156	82.1746	41.0156	86.809	41.0156	82.3886	41.0156	86.1647	41.0156	82.6495	41.0156	85.5018	41.0156	82.9623	41.0156	84.8654	41.0156	83.3342	41.0156	84.2845	41.0156	83.7733
42.4805	83.5892	42.4805	83.1693	42.4805	84.0555	42.4805	82.7974	42.4805	84.5659	42.4805	82.4748	42.4805	85.1156	42.4805	82.2031	42.4805	85.6929	42.4805	81.9836	42.4805	86.2753	42.4805	81.8168	42.4805	86.8264	42.4805	81.7026	42.4805	87.2972	42.4805	81.6403	42.4805	87.6348	42.4805	81.6287	42.4805	87.7938	42.4805	81.6661	42.4805	87.7483	42.4805	81.7505	42.4805	87.4988	42.4805	81.88	42.4805	87.0732	42.4805	82.053	42.4805	86.5206	42.4805	82.2687	42.4805	85.8994	42.4805	82.5282	42.4805	85.2644	42.4805	82.8351	42.4805	84.6575	42.4805	83.1955	42.4805	84.1045	42.4805	83.6169
43.9453	83.7393	43.9453	83.3289	43.9453	84.1898	43.9453	82.9607	43.9453	84.6775	43.9453	82.6373	43.9453	85.1976	43.9453	82.3611	43.9453	85.7398	43.9453	82.1343	43.9453	86.2838	43.9453	81.9585	43.9453	86.7965	43.9453	81.8345	43.9453	87.2328	43.9453	81.7624	43.9453	87.5432	43.9453	81.7414	43.9453	87.6845	43.9453	81.7703	43.9453	87.6319	43.9453	81.8473	43.9453	87.386	43.9453	81.9702	43.9453	86.9738	43.9453	82.1372	43.9453	86.4423	43.9453	82.3471	43.9453	85.847	43.9453	82.6002	43.9453	85.2392	43.9453	82.8993	43.9453	84.6579	43.9453	83.2494	43.9453	84.1269	43.9453	83.6571
45.4102	83.7925	45.4102	83.3935	45.4102	84.2277	45.4102	83.0336	45.4102	84.6961	45.4102	82.7159	45.4102	85.1929	45.4102	82.4434	45.4102	85.7087	45.4102	82.2191	45.4102	86.2247	45.4102	82.0452	45.4102	86.71	45.4102	81.9231	45.4102	87.1221	45.4102	81.8532	45.4102	87.4135	45.4102	81.8349	45.4102	87.5431	45.4102	81.8669	45.4102	87.4871	45.4102	81.9472	45.4102	87.2467	45.4102	82.073	45.4102	86.8489	45.4102	82.2417	45.4102	86.3399	45.4102	82.4509	45.4102	85.7737	45.4102	82.6997	45.4102	85.1991	45.4102	82.9894	45.4102	84.6518	45.4102	83.3244	45.4102	84.1529	45.4102	83.7105
46.875	83.7968	46.875	83.401	46.875	84.2258	46.875	83.0418	46.875	84.6843	46.875	82.7233	46.875	85.1669	46.875	82.4492	46.875	85.6644	46.875	82.2228	46.875	86.159	46.875	82.0468	46.875	86.6218	46.875	81.9229	46.875	87.0127	46.875	81.8518	46.875	87.2868	46.875	81.8331	46.875	87.4047	46.875	81.8654	46.875	87.3438	46.875	81.9464	46.875	87.1058	46.875	82.0731	46.875	86.7173	46.875	82.2423	46.875	86.2235	46.875	82.4512	46.875	85.6765	46.875	82.698	46.875	85.1227	46.875	82.9835	46.875	84.5957	46.875	83.3113	46.875	84.1146	46.875	83.6867
48.3398	83.7988	48.3398	83.4024	48.3398	84.2257	48.3398	83.041	48.3398	84.6786	48.3398	82.7194	48.3398	85.152	48.3398	82.4422	48.3398	85.6365	48.3398	82.2135	48.3398	86.1155	48.3398	82.0365	48.3398	86.5617	48.3398	81.9132	48.3398	86.9372	48.3398	81.8445	48.3398	87.1994	48.3398	81.8297	48.3398	87.3104	48.3398	81.8672	48.3398	87.2489	48.3398	81.9542	48.3398	87.0167	48.3398	82.0873	48.3398	86.6402	48.3398	82.2627	48.3398	86.1634	48.3398	82.4767	48.3398	85.6362	48.3398	82.7271	48.3398	85.1026	48.3398	83.014	48.3398	84.5938	48.3398	83.34	48.3398	84.1273	48.3398	83.7097
51.2695	83.9702	51.2695	83.5801	51.2695	84.3849	51.2695	83.2205	51.2695	84.8184	51.2695	82.8975	51.2695	85.264	51.2695	82.6171	51.2695	85.7124	51.2695	82.3845	51.2695	86.1482	51.2695	82.204	51.2695	86.5476	51.2695	82.0783	51.2695	86.8772	51.2695	82.0089	51.2695	87.0995	51.2695	81.9954	51.2695	87.1817	51.2695	82.036	51.2695	87.1059	51.2695	82.1278	51.2695	86.8764	51.2695	82.2664	51.2695	86.52	51.2695	82.4469	51.2695	86.0784	51.2695	82.6644	51.2695	85.5974	51.2695	82.9146	51.2695	85.115	51.2695	83.1951	51.2695	84.6564	51.2695	83.5065	51.2695	84.2341	51.2695	83.8515
52.7344	84.0985	52.7344	83.7239	52.7344	84.4922	52.7344	83.3741	52.7344	84.8993	52.7344	83.0556	52.7344	85.314	52.7344	82.7745	52.7344	85.7281	52.7344	82.5366	52.7344	86.1284	52.7344	82.3465	52.7344	86.4932	52.7344	82.208	52.7344	86.7918	52.7344	82.123	52.7344	86.9886	52.7344	82.092	52.7344	87.0519	52.7344	82.1139	52.7344	86.9643	52.7344	82.1862	52.7344	86.7298	52.7344	82.3053	52.7344	86.3745	52.7344	82.4665	52.7344	85.9393	52.7344	82.6649	52.7344	85.4683	52.7344	82.8966	52.7344	84.9983	52.7344	83.159	52.7344	84.5538	52.7344	83.4527	52.7344	84.1469	52.7344	83.7807
54.1992	84.0442	54.1992	83.6645	54.1992	84.4428	54.1992	83.3102	54.1992	84.8539	54.1992	82.9884	54.1992	85.2708	54.1992	82.7057	54.1992	85.685	54.1992	82.4681	54.1992	86.0826	54.1992	82.2806	54.1992	86.4421	54.1992	82.1466	54.1992	86.7331	54.1992	82.068	54.1992	86.9211	54.1992	82.045	54.1992	86.9757	54.1992	82.076	54.1992	86.8811	54.1992	82.1579	54.1992	86.6434	54.1992	82.2864	54.1992	86.2898	54.1992	82.4559	54.1992	85.8617	54.1992	82.6608	54.1992	85.4026	54.1992	82.8961	54.1992	84.9474	54.1992	83.1589	54.1992	84.5181	54.1992	83.4491	54.1992	84.125	54.1992	83.7697
55.6641	84.1354	55.6641	83.7506	55.6641	84.542	55.6641	83.3937	55.6641	84.9642	55.6641	83.0706	55.6641	85.3953	55.6641	82.7871	55.6641	85.827	55.6641	82.5485	55.6641	86.2467	55.6641	82.3596	55.6641	86.6336	55.6641	82.2243	55.6641	86.9575	55.6641	82.1452	55.6641	87.1811	55.6641	82.1236	55.6641	87.2696	55.6641	82.159	55.6641	87.2031	55.6641	82.2497	55.6641	86.9846	55.6641	82.3924	55.6641	86.642	55.6641	82.5829	55.6641	86.2184	55.6641	82.8161	55.6641	85.7598	55.6641	83.0864	55.6641	85.3016	55.6641	83.3885	55.6641	84.8643	55.6641	83.7183	55.6641	84.455	55.6641	84.0737
58.5938	84.4492	58.5938	84.0788	58.5938	84.8385	58.5938	83.734	58.5938	85.2395	58.5938	83.4212	58.5938	85.6447	58.5938	83.1459	58.5938	86.0452	58.5938	82.9133	58.5938	86.4291	58.5938	82.7281	58.5938	86.7784	58.5938	82.594	58.5938	87.0668	58.5938	82.5135	58.5938	87.2617	58.5938	82.4879	58.5938	87.3322	58.5938	82.517	58.5938	87.2607	58.5938	82.5991	58.5938	87.0509	58.5938	82.7312	58.5938	86.7291	58.5938	82.9094	58.5938	86.3353	58.5938	83.1292	58.5938	85.9103	58.5938	83.3854	58.5938	85.4849	58.5938	83.6732	58.5938	85.076	58.5938	83.9881	58.5938	84.6899	58.5938	84.3273
60.0586	84.485	60.0586	84.1025	60.0586	84.8836	60.0586	83.7445	60.0586	85.2901	60.0586	83.4188	60.0586	85.696	60.0586	83.1325	60.0586	86.0924	60.0586	82.892	60.0586	86.4681	60.0586	82.7027	60.0586	86.8066	60.0586	82.5687	60.0586	87.0838	60.0586	82.4924	60.0586	87.2695	60.0586	82.4748	60.0586	87.3351	60.0586	82.515	60.0586	87.2643	60.0586	82.6106	60.0586	87.0615	60.0586	82.758	60.0586	86.7524	60.0586	82.9521	60.0586	86.3752	60.0586	83.1876	60.0586	85.9683	60.0586	83.4583	60.0586	85.5595	60.0586	83.7581	60.0586	85.1635	60.0586	84.0815	60.0586	84.785	60.0586	84.4244
62.9883	84.5837	62.9883	84.2053	62.9883	84.9739	62.9883	83.8478	62.9883	85.3671	62.9883	83.5196	62.9883	85.7543	62.9883	83.2289	62.9883	86.1268	62.9883	82.9829	62.9883	86.4737	62.9883	82.7879	62.9883	86.7801	62.9883	82.6487	62.9883	87.0246	62.9883	82.5683	62.9883	87.1802	62.9883	82.5478	62.9883	87.2218	62.9883	82.5864	62.9883	87.136	62.9883	82.6814	62.9883	86.9293	62.9883	82.8284	62.9883	86.6281	62.9883	83.022	62.9883	86.2694	62.9883	83.2554	62.9883	85.8885	62.9883	83.5216	62.9883	85.5092	62.9883	83.8136	62.9883	85.1424	62.9883	84.125	62.9883	84.7901	62.9883	84.4512
64.4531	84.6033	64.4531	84.2214	64.4531	84.9946	64.4531	83.8585	64.4531	85.386	64.4531	83.5237	64.4531	85.7681	64.4531	83.2256	64.4531	86.1318	64.4531	82.9722	64.4531	86.4665	64.4531	82.77	64.4531	86.758	64.4531	82.6244	64.4531	86.9863	64.4531	82.5388	64.4531	87.1265	64.4531	82.5145	64.4531	87.1551	64.4531	82.5508	64.4531	87.0603	64.4531	82.6449	64.4531	86.8495	64.4531	82.7921	64.4531	86.549	64.4531	82.9865	64.4531	86.1952	64.4531	83.2209	64.4531	85.8219	64.4531	83.488	64.4531	85.4513	64.4531	83.7799	64.4531	85.0928	64.4531	84.09	64.4531	84.7473	64.4531	84.4132
67.3828	84.7042	67.3828	84.3197	67.3828	85.0941	67.3828	83.9509	67.3828	85.4792	67.3828	83.6079	67.3828	85.8497	67.3828	83.3002	67.3828	86.1963	67.3828	83.0365	67.3828	86.5093	67.3828	82.8244	67.3828	86.7764	67.3828	82.6701	67.3828	86.9806	67.3828	82.5776	67.3828	87.1003	67.3828	82.5487	67.3828	87.1156	67.3828	82.5828	67.3828	87.0166	67.3828	82.6772	67.3828	86.8112	67.3828	82.827	67.3828	86.5244	67.3828	83.0257	67.3828	86.1897	67.3828	83.2658	67.3828	85.8371	67.3828	83.5388	67.3828	85.4852	67.3828	83.8361	67.3828	85.141	67.3828	84.1499	67.3828	84.8043	67.3828	84.4738
