"SPL Horizontal"
"On-Axis"		"10°"		"-10°"		"20°"		"-20°"		"30°"		"-30°"		"40°"		"-40°"		"50°"		"-50°"		"60°"		"-60°"		"70°"		"-70°"		"80°"		"-80°"		"90°"		"-90°"		"100°"		"-100°"		"110°"		"-110°"		"120°"		"-120°"		"130°"		"-130°"		"140°"		"-140°"		"150°"		"-150°"		"160°"		"-160°"		"170°"		"-170°"		"180°"
"Frequency [Hz]"	"Sound Pessure Level [dB]   [0.3V at 1m]"	"Frequency [Hz]"	"Sound Pessure Level [dB]   [0.3V at 1m]"	"Frequency [Hz]"	"Sound Pessure Level [dB]   [0.3V at 1m]"	"Frequency [Hz]"	"Sound Pessure Level [dB]   [0.3V at 1m]"	"Frequency [Hz]"	"Sound Pessure Level [dB]   [0.3V at 1m]"	"Frequency [Hz]"	"Sound Pessure Level [dB]   [0.3V at 1m]"	"Frequency [Hz]"	"Sound Pessure Level [dB]   [0.3V at 1m]"	"Frequency [Hz]"	"Sound Pessure Level [dB]   [0.3V at 1m]"	"Frequency [Hz]"	"Sound Pessure Level [dB]   [0.3V at 1m]"	"Frequency [Hz]"	"Sound Pessure Level [dB]   [0.3V at 1m]"	"Frequency [Hz]"	"Sound Pessure Level [dB]   [0.3V at 1m]"	"Frequency [Hz]"	"Sound Pessure Level [dB]   [0.3V at 1m]"	"Frequency [Hz]"	"Sound Pessure Level [dB]   [0.3V at 1m]"	"Frequency [Hz]"	"Sound Pessure Level [dB]   [0.3V at 1m]"	"Frequency [Hz]"	"Sound Pessure Level [dB]   [0.3V at 1m]"	"Frequency [Hz]"	"Sound Pessure Level [dB]   [0.3V at 1m]"	"Frequency [Hz]"	"Sound Pessure Level [dB]   [0.3V at 1m]"	"Frequency [Hz]"	"Sound Pessure Level [dB]   [0.3V at 1m]"	"Frequency [Hz]"	"Sound Pessure Level [dB]   [0.3V at 1m]"	"Frequency [Hz]"	"Sound Pessure Level [dB]   [0.3V at 1m]"	"Frequency [Hz]"	"Sound Pessure Level [dB]   [0.3V at 1m]"	"Frequency [Hz]"	"Sound Pessure Level [dB]   [0.3V at 1m]"	"Frequency [Hz]"	"Sound Pessure Level [dB]   [0.3V at 1m]"	"Frequency [Hz]"	"Sound Pessure Level [dB]   [0.3V at 1m]"	"Frequency [Hz]"	"Sound Pessure Level [dB]   [0.3V at 1m]"	"Frequency [Hz]"	"Sound Pessure Level [dB]   [0.3V at 1m]"	"Frequency [Hz]"	"Sound Pessure Level [dB]   [0.3V at 1m]"	"Frequency [Hz]"	"Sound Pessure Level [dB]   [0.3V at 1m]"	"Frequency [Hz]"	"Sound Pessure Level [dB]   [0.3V at 1m]"	"Frequency [Hz]"	"Sound Pessure Level [dB]   [0.3V at 1m]"	"Frequency [Hz]"	"Sound Pessure Level [dB]   [0.3V at 1m]"	"Frequency [Hz]"	"Sound Pessure Level [dB]   [0.3V at 1m]"	"Frequency [Hz]"	"Sound Pessure Level [dB]   [0.3V at 1m]"	"Frequency [Hz]"	"Sound Pessure Level [dB]   [0.3V at 1m]"	"Frequency [Hz]"	"Sound Pessure Level [dB]   [0.3V at 1m]"	"Frequency [Hz]"	"Sound Pessure Level [dB]   [0.3V at 1m]"
20.5078	56.5782	20.5078	56.5869	20.5078	56.5602	20.5078	56.5866	20.5078	56.5333	20.5078	56.5775	20.5078	56.4982	20.5078	56.5605	20.5078	56.4558	20.5078	56.5365	20.5078	56.4074	20.5078	56.5071	20.5078	56.355	20.5078	56.4735	20.5078	56.3007	20.5078	56.4374	20.5078	56.2467	20.5078	56.3998	20.5078	56.1956	20.5078	56.3619	20.5078	56.1495	20.5078	56.3239	20.5078	56.1102	20.5078	56.2861	20.5078	56.0789	20.5078	56.2484	20.5078	56.0563	20.5078	56.2107	20.5078	56.0428	20.5078	56.1735	20.5078	56.0384	20.5078	56.1379	20.5078	56.043	20.5078	56.1052	20.5078	56.0563	20.5078	56.0775
21.9727	58.4695	21.9727	58.4484	21.9727	58.4766	21.9727	58.4139	21.9727	58.4697	21.9727	58.3664	21.9727	58.4489	21.9727	58.3071	21.9727	58.4144	21.9727	58.2371	21.9727	58.3666	21.9727	58.1581	21.9727	58.3061	21.9727	58.0724	21.9727	58.2339	21.9727	57.982	21.9727	58.1512	21.9727	57.8896	21.9727	58.0597	21.9727	57.7976	21.9727	57.9618	21.9727	57.7082	21.9727	57.8601	21.9727	57.624	21.9727	57.7581	21.9727	57.5472	21.9727	57.6598	21.9727	57.4803	21.9727	57.5695	21.9727	57.426	21.9727	57.4915	21.9727	57.3872	21.9727	57.4298	21.9727	57.3666	21.9727	57.3875	21.9727	57.3663
23.4375	60.0731	23.4375	60.0514	23.4375	60.0907	23.4375	60.0256	23.4375	60.1046	23.4375	59.9964	23.4375	60.1156	23.4375	59.9647	23.4375	60.1248	23.4375	59.9324	23.4375	60.1335	23.4375	59.9016	23.4375	60.1432	23.4375	59.875	23.4375	60.1555	23.4375	59.8553	23.4375	60.1715	23.4375	59.8454	23.4375	60.1919	23.4375	59.8478	23.4375	60.2169	23.4375	59.8641	23.4375	60.2452	23.4375	59.8952	23.4375	60.2744	23.4375	59.9405	23.4375	60.301	23.4375	59.9979	23.4375	60.3204	23.4375	60.0635	23.4375	60.3282	23.4375	60.132	23.4375	60.3205	23.4375	60.1974	23.4375	60.2955	23.4375	60.2535
24.9023	61.78	24.9023	61.7906	24.9023	61.7552	24.9023	61.7867	24.9023	61.7166	24.9023	61.7686	24.9023	61.6649	24.9023	61.7366	24.9023	61.6012	24.9023	61.6915	24.9023	61.527	24.9023	61.6342	24.9023	61.4441	24.9023	61.566	24.9023	61.3546	24.9023	61.4884	24.9023	61.2609	24.9023	61.403	24.9023	61.1656	24.9023	61.3117	24.9023	61.0713	24.9023	61.2165	24.9023	60.9809	24.9023	61.1199	24.9023	60.8969	24.9023	61.0246	24.9023	60.8223	24.9023	60.9337	24.9023	60.7601	24.9023	60.851	24.9023	60.7133	24.9023	60.7805	24.9023	60.6849	24.9023	60.7261	24.9023	60.6771	24.9023	60.6909
26.3672	62.8915	26.3672	62.8887	26.3672	62.8773	26.3672	62.8693	26.3672	62.8461	26.3672	62.8339	26.3672	62.7984	26.3672	62.7834	26.3672	62.735	26.3672	62.719	26.3672	62.657	26.3672	62.6424	26.3672	62.5663	26.3672	62.5556	26.3672	62.465	26.3672	62.4606	26.3672	62.3558	26.3672	62.3602	26.3672	62.2418	26.3672	62.2567	26.3672	62.1268	26.3672	62.1529	26.3672	62.0145	26.3672	62.0514	26.3672	61.9092	26.3672	61.9546	26.3672	61.8153	26.3672	61.8651	26.3672	61.737	26.3672	61.7856	26.3672	61.678	26.3672	61.7189	26.3672	61.641	26.3672	61.6684	26.3672	61.6273	26.3672	61.637
27.832	64.6757	27.832	64.6691	27.832	64.6677	27.832	64.6478	27.832	64.6454	27.832	64.6118	27.832	64.6096	27.832	64.5615	27.832	64.5612	27.832	64.4977	27.832	64.5012	27.832	64.4218	27.832	64.431	27.832	64.3356	27.832	64.3524	27.832	64.2417	27.832	64.2672	27.832	64.143	27.832	64.1779	27.832	64.0433	27.832	64.087	27.832	63.9465	27.832	63.9973	27.832	63.8566	27.832	63.9117	27.832	63.7773	27.832	63.8329	27.832	63.7115	27.832	63.7633	27.832	63.6613	27.832	63.7049	27.832	63.6278	27.832	63.6594	27.832	63.6114	27.832	63.6279	27.832	63.6117
29.2969	66.4236	29.2969	66.4045	29.2969	66.4263	29.2969	66.3692	29.2969	66.4126	29.2969	66.3182	29.2969	66.3828	29.2969	66.2522	29.2969	66.3373	29.2969	66.1725	29.2969	66.2768	29.2969	66.0806	29.2969	66.2023	29.2969	65.9786	29.2969	66.1151	29.2969	65.8689	29.2969	66.017	29.2969	65.7546	29.2969	65.9102	29.2969	65.639	29.2969	65.7974	29.2969	65.5259	29.2969	65.6819	29.2969	65.4195	29.2969	65.5675	29.2969	65.3238	29.2969	65.458	29.2969	65.2428	29.2969	65.3579	29.2969	65.18	29.2969	65.271	29.2969	65.1381	29.2969	65.2011	29.2969	65.119	29.2969	65.1512	29.2969	65.1234
30.7617	67.1313	30.7617	67.1182	30.7617	67.1322	30.7617	67.0932	30.7617	67.1204	30.7617	67.0574	30.7617	67.0961	30.7617	67.0117	30.7617	67.0596	30.7617	66.9575	30.7617	67.0118	30.7617	66.8959	30.7617	66.9537	30.7617	66.8285	30.7617	66.8868	30.7617	66.7566	30.7617	66.8128	30.7617	66.6815	30.7617	66.7336	30.7617	66.6049	30.7617	66.6515	30.7617	66.5285	30.7617	66.5687	30.7617	66.4543	30.7617	66.488	30.7617	66.3847	30.7617	66.4119	30.7617	66.3223	30.7617	66.3434	30.7617	66.2701	30.7617	66.2856	30.7617	66.231	30.7617	66.2411	30.7617	66.2074	30.7617	66.2124	30.7617	66.2009
32.2266	68.242	32.2266	68.2337	32.2266	68.2397	32.2266	68.2152	32.2266	68.2268	32.2266	68.1871	32.2266	68.2034	32.2266	68.1503	32.2266	68.1701	32.2266	68.1056	32.2266	68.1278	32.2266	68.0542	32.2266	68.0777	32.2266	67.9974	32.2266	68.0212	32.2266	67.9365	32.2266	67.9603	32.2266	67.8731	32.2266	67.8967	32.2266	67.8089	32.2266	67.8323	32.2266	67.7456	32.2266	67.7691	32.2266	67.6851	32.2266	67.7088	32.2266	67.6297	32.2266	67.6529	32.2266	67.5813	32.2266	67.6032	32.2266	67.5423	32.2266	67.5611	32.2266	67.5143	32.2266	67.5282	32.2266	67.4986	32.2266	67.5061	32.2266	67.4959
33.6914	69.3325	33.6914	69.337	33.6914	69.3153	33.6914	69.3288	33.6914	69.2858	33.6914	69.3082	33.6914	69.2446	33.6914	69.2756	33.6914	69.1928	33.6914	69.2319	33.6914	69.1318	33.6914	69.1781	33.6914	69.0631	33.6914	69.1153	33.6914	68.9887	33.6914	69.0449	33.6914	68.9107	33.6914	68.9688	33.6914	68.8313	33.6914	68.8889	33.6914	68.7528	33.6914	68.8075	33.6914	68.6775	33.6914	68.727	33.6914	68.6075	33.6914	68.6502	33.6914	68.5452	33.6914	68.5799	33.6914	68.4926	33.6914	68.5191	33.6914	68.4518	33.6914	68.4701	33.6914	68.4245	33.6914	68.4352	33.6914	68.4122	33.6914	68.4157
35.1562	70.4109	35.1562	70.416	35.1562	70.3902	35.1562	70.4057	35.1562	70.3543	35.1562	70.3801	35.1562	70.3039	35.1562	70.3399	35.1562	70.2402	35.1562	70.2861	35.1562	70.1647	35.1562	70.2198	35.1562	70.0795	35.1562	70.1426	35.1562	69.987	35.1562	70.0563	35.1562	69.8902	35.1562	69.9632	35.1562	69.7922	35.1562	69.8657	35.1562	69.6962	35.1562	69.767	35.1562	69.6054	35.1562	69.6703	35.1562	69.5228	35.1562	69.579	35.1562	69.4508	35.1562	69.4967	35.1562	69.3915	35.1562	69.4264	35.1562	69.3466	35.1562	69.3706	35.1562	69.3173	35.1562	69.3312	35.1562	69.3046	35.1562	69.3092
36.6211	71.4307	36.6211	71.4359	36.6211	71.4073	36.6211	71.4225	36.6211	71.3659	36.6211	71.3909	36.6211	71.3073	36.6211	71.3416	36.6211	71.2326	36.6211	71.2755	36.6211	71.1431	36.6211	71.1937	36.6211	71.0404	36.6211	71.0977	36.6211	70.9266	36.6211	70.9894	36.6211	70.8038	36.6211	70.8709	36.6211	70.6749	36.6211	70.7447	36.6211	70.5428	36.6211	70.6136	36.6211	70.4114	36.6211	70.481	36.6211	70.285	36.6211	70.3511	36.6211	70.1686	36.6211	70.2285	36.6211	70.0677	36.6211	70.1186	36.6211	69.9881	36.6211	70.027	36.6211	69.9347	36.6211	69.9592	36.6211	69.9113	36.6211	69.9197
38.0859	71.1858	38.0859	71.1708	38.0859	71.1946	38.0859	71.1497	38.0859	71.1969	38.0859	71.1234	38.0859	71.1929	38.0859	71.0927	38.0859	71.1832	38.0859	71.0588	38.0859	71.1683	38.0859	71.0231	38.0859	71.149	38.0859	70.9869	38.0859	71.126	38.0859	70.9517	38.0859	71.1003	38.0859	70.9188	38.0859	71.0728	38.0859	70.8894	38.0859	71.0442	38.0859	70.8644	38.0859	71.0153	38.0859	70.8446	38.0859	70.9866	38.0859	70.8305	38.0859	70.9587	38.0859	70.8224	38.0859	70.932	38.0859	70.8203	38.0859	70.9068	38.0859	70.8238	38.0859	70.8837	38.0859	70.8326	38.0859	70.8632	38.0859	70.8459
39.5508	72.7184	39.5508	72.7171	39.5508	72.7077	39.5508	72.704	39.5508	72.6853	39.5508	72.6793	39.5508	72.6519	39.5508	72.644	39.5508	72.6084	39.5508	72.5989	39.5508	72.5562	39.5508	72.5456	39.5508	72.497	39.5508	72.4854	39.5508	72.4326	39.5508	72.4202	39.5508	72.365	39.5508	72.3517	39.5508	72.2962	39.5508	72.2821	39.5508	72.2283	39.5508	72.2132	39.5508	72.1631	39.5508	72.1473	39.5508	72.1025	39.5508	72.0864	39.5508	72.0481	39.5508	72.0324	39.5508	72.0015	39.5508	71.9872	39.5508	71.9641	39.5508	71.9526	39.5508	71.9372	39.5508	71.9297	39.5508	71.9221	39.5508	71.9195
41.0156	73.5207	41.0156	73.5164	41.0156	73.5125	41.0156	73.4996	41.0156	73.4918	41.0156	73.471	41.0156	73.4592	41.0156	73.4312	41.0156	73.4158	41.0156	73.3816	41.0156	73.3628	41.0156	73.3236	41.0156	73.3018	41.0156	73.2588	41.0156	73.2346	41.0156	73.1892	41.0156	73.1635	41.0156	73.1167	41.0156	73.0904	41.0156	73.0435	41.0156	73.0176	41.0156	72.9718	41.0156	72.9473	41.0156	72.9036	41.0156	72.8814	41.0156	72.8411	41.0156	72.8221	41.0156	72.7863	41.0156	72.7709	41.0156	72.7411	41.0156	72.7295	41.0156	72.707	41.0156	72.6993	41.0156	72.6853	41.0156	72.6815	41.0156	72.6767
42.4805	74.3502	42.4805	74.3464	42.4805	74.3409	42.4805	74.3297	42.4805	74.3187	42.4805	74.3006	42.4805	74.2842	42.4805	74.26	42.4805	74.2383	42.4805	74.209	42.4805	74.1824	42.4805	74.149	42.4805	74.1181	42.4805	74.0819	42.4805	74.0473	42.4805	74.0094	42.4805	73.972	42.4805	73.9335	42.4805	73.8946	42.4805	73.8566	42.4805	73.8174	42.4805	73.7807	42.4805	73.7426	42.4805	73.7081	42.4805	73.6726	42.4805	73.6411	42.4805	73.6095	42.4805	73.5819	42.4805	73.5552	42.4805	73.5324	42.4805	73.5117	42.4805	73.4946	42.4805	73.4804	42.4805	73.4698	42.4805	73.4626	42.4805	73.459
43.9453	75.026	43.9453	75.0204	43.9453	75.0185	43.9453	75.0018	43.9453	74.9979	43.9453	74.9708	43.9453	74.9649	43.9453	74.9284	43.9453	74.9203	43.9453	74.8757	43.9453	74.8656	43.9453	74.8144	43.9453	74.8024	43.9453	74.7462	43.9453	74.7328	43.9453	74.6732	43.9453	74.6589	43.9453	74.5976	43.9453	74.5833	43.9453	74.5217	43.9453	74.5081	43.9453	74.4477	43.9453	74.4357	43.9453	74.3779	43.9453	74.3681	43.9453	74.3146	43.9453	74.3072	43.9453	74.2597	43.9453	74.2547	43.9453	74.2151	43.9453	74.2121	43.9453	74.1821	43.9453	74.1805	43.9453	74.1618	43.9453	74.1612	43.9453	74.1548
45.4102	75.9213	45.4102	75.9158	45.4102	75.9132	45.4102	75.8968	45.4102	75.8915	45.4102	75.8647	45.4102	75.8568	45.4102	75.8205	45.4102	75.81	45.4102	75.7653	45.4102	75.7521	45.4102	75.7006	45.4102	75.6849	45.4102	75.628	45.4102	75.6102	45.4102	75.5497	45.4102	75.5303	45.4102	75.4679	45.4102	75.4476	45.4102	75.3851	45.4102	75.3647	45.4102	75.3038	45.4102	75.2842	45.4102	75.2266	45.4102	75.2087	45.4102	75.156	45.4102	75.1405	45.4102	75.0943	45.4102	75.0817	45.4102	75.0437	45.4102	75.0342	45.4102	75.0058	45.4102	74.9996	45.4102	74.982	45.4102	74.9789	45.4102	74.9729
46.875	76.4797	46.875	76.4681	46.875	76.4794	46.875	76.4448	46.875	76.4672	46.875	76.4104	46.875	76.4432	46.875	76.3656	46.875	76.4081	46.875	76.3116	46.875	76.3627	46.875	76.2497	46.875	76.308	46.875	76.1815	46.875	76.2456	46.875	76.109	46.875	76.1771	46.875	76.0344	46.875	76.1045	46.875	75.96	46.875	76.0301	46.875	75.8881	46.875	75.9562	46.875	75.8213	46.875	75.885	46.875	75.7617	46.875	75.8191	46.875	75.7114	46.875	75.7603	46.875	75.6722	46.875	75.7108	46.875	75.6454	46.875	75.672	46.875	75.6318	46.875	75.6454	46.875	75.6318
48.3398	77.0221	48.3398	77.0183	48.3398	77.0156	48.3398	77.0045	48.3398	76.9993	48.3398	76.9808	48.3398	76.9737	48.3398	76.9481	48.3398	76.9399	48.3398	76.9076	48.3398	76.8991	48.3398	76.8606	48.3398	76.8527	48.3398	76.8088	48.3398	76.8022	48.3398	76.7542	48.3398	76.7493	48.3398	76.6986	48.3398	76.6957	48.3398	76.644	48.3398	76.6431	48.3398	76.5922	48.3398	76.5929	48.3398	76.5447	48.3398	76.5466	48.3398	76.5029	48.3398	76.5053	48.3398	76.4677	48.3398	76.4702	48.3398	76.4398	48.3398	76.4419	48.3398	76.4197	48.3398	76.4212	48.3398	76.4077	48.3398	76.4084	48.3398	76.4039
51.2695	78.6033	51.2695	78.5934	51.2695	78.5939	51.2695	78.5644	51.2695	78.5658	51.2695	78.5173	51.2695	78.5198	51.2695	78.4536	51.2695	78.4577	51.2695	78.3756	51.2695	78.3817	51.2695	78.286	51.2695	78.2946	51.2695	78.1881	51.2695	78.1993	51.2695	78.0855	51.2695	78.0993	51.2695	77.9818	51.2695	77.9977	51.2695	77.8806	51.2695	77.8979	51.2695	77.7851	51.2695	77.8027	51.2695	77.6981	51.2695	77.715	51.2695	77.6219	51.2695	77.637	51.2695	77.5581	51.2695	77.5706	51.2695	77.5078	51.2695	77.5172	51.2695	77.4719	51.2695	77.4781	51.2695	77.4507	51.2695	77.4538	51.2695	77.4446
52.7344	79.2225	52.7344	79.2186	52.7344	79.2069	52.7344	79.1953	52.7344	79.1722	52.7344	79.153	52.7344	79.1191	52.7344	79.0928	52.7344	79.0489	52.7344	79.0159	52.7344	78.9632	52.7344	78.9243	52.7344	78.864	52.7344	78.8202	52.7344	78.754	52.7344	78.7066	52.7344	78.6362	52.7344	78.5866	52.7344	78.5139	52.7344	78.4638	52.7344	78.3908	52.7344	78.342	52.7344	78.2707	52.7344	78.225	52.7344	78.1577	52.7344	78.1167	52.7344	78.0555	52.7344	78.0206	52.7344	77.968	52.7344	77.9401	52.7344	77.8981	52.7344	77.878	52.7344	77.8487	52.7344	77.8365	52.7344	77.8215	52.7344	77.8174
54.1992	79.6598	54.1992	79.6566	54.1992	79.6462	54.1992	79.6369	54.1992	79.6161	54.1992	79.6009	54.1992	79.5701	54.1992	79.5493	54.1992	79.5089	54.1992	79.4832	54.1992	79.4339	54.1992	79.4039	54.1992	79.3465	54.1992	79.3132	54.1992	79.2488	54.1992	79.2132	54.1992	79.1434	54.1992	79.1065	54.1992	79.0331	54.1992	78.9961	54.1992	78.9213	54.1992	78.8853	54.1992	78.8115	54.1992	78.7776	54.1992	78.7075	54.1992	78.6769	54.1992	78.6132	54.1992	78.5867	54.1992	78.532	54.1992	78.5105	54.1992	78.4672	54.1992	78.4514	54.1992	78.4213	54.1992	78.4116	54.1992	78.3963	54.1992	78.393
55.6641	79.9085	55.6641	79.9086	55.6641	79.8973	55.6641	79.8979	55.6641	79.8752	55.6641	79.8767	55.6641	79.8427	55.6641	79.8456	55.6641	79.8006	55.6641	79.8057	55.6641	79.75	55.6641	79.758	55.6641	79.6923	55.6641	79.7038	55.6641	79.6291	55.6641	79.6447	55.6641	79.5624	55.6641	79.5824	55.6641	79.4943	55.6641	79.5185	55.6641	79.4272	55.6641	79.4548	55.6641	79.3633	55.6641	79.3933	55.6641	79.305	55.6641	79.3356	55.6641	79.2543	55.6641	79.2836	55.6641	79.2128	55.6641	79.2387	55.6641	79.1821	55.6641	79.2024	55.6641	79.1628	55.6641	79.1758	55.6641	79.1555	55.6641	79.1599
58.5938	81.197	58.5938	81.1828	58.5938	81.1944	58.5938	81.1524	58.5938	81.175	58.5938	81.1066	58.5938	81.139	58.5938	81.0468	58.5938	81.0872	58.5938	80.9747	58.5938	81.0211	58.5938	80.8923	58.5938	80.9425	58.5938	80.8019	58.5938	80.8535	58.5938	80.7063	58.5938	80.7569	58.5938	80.6082	58.5938	80.6559	58.5938	80.5106	58.5938	80.5538	58.5938	80.4166	58.5938	80.454	58.5938	80.3289	58.5938	80.3599	58.5938	80.2503	58.5938	80.2748	58.5938	80.183	58.5938	80.2013	58.5938	80.1291	58.5938	80.1418	58.5938	80.0899	58.5938	80.0978	58.5938	80.0666	58.5938	80.0704	58.5938	80.06
60.0586	81.4278	60.0586	81.407	60.0586	81.4351	60.0586	81.3732	60.0586	81.4286	60.0586	81.3272	60.0586	81.4087	60.0586	81.2703	60.0586	81.3759	60.0586	81.204	60.0586	81.3311	60.0586	81.1301	60.0586	81.2758	60.0586	81.0509	60.0586	81.2114	60.0586	80.9686	60.0586	81.1401	60.0586	80.8858	60.0586	81.0638	60.0586	80.8053	60.0586	80.985	60.0586	80.7297	60.0586	80.9058	60.0586	80.6617	60.0586	80.8285	60.0586	80.6036	60.0586	80.7553	60.0586	80.5575	60.0586	80.6881	60.0586	80.5249	60.0586	80.6288	60.0586	80.507	60.0586	80.5793	60.0586	80.5039	60.0586	80.541	60.0586	80.5155
62.9883	82.2566	62.9883	82.2433	62.9883	82.2572	62.9883	82.2176	62.9883	82.2453	62.9883	82.1803	62.9883	82.2215	62.9883	82.1327	62.9883	82.1869	62.9883	82.0766	62.9883	82.1429	62.9883	82.014	62.9883	82.0914	62.9883	81.9475	62.9883	82.0342	62.9883	81.8797	62.9883	81.9734	62.9883	81.8132	62.9883	81.9114	62.9883	81.7506	62.9883	81.8502	62.9883	81.6941	62.9883	81.7918	62.9883	81.6453	62.9883	81.7378	62.9883	81.6057	62.9883	81.6894	62.9883	81.5757	62.9883	81.6474	62.9883	81.5556	62.9883	81.6122	62.9883	81.5448	62.9883	81.5841	62.9883	81.5429	62.9883	81.563	62.9883	81.5491
64.4531	82.7685	64.4531	82.7524	64.4531	82.7706	64.4531	82.7225	64.4531	82.7587	64.4531	82.6797	64.4531	82.7338	64.4531	82.6255	64.4531	82.6971	64.4531	82.5619	64.4531	82.6502	64.4531	82.4915	64.4531	82.5953	64.4531	82.4172	64.4531	82.5345	64.4531	82.3422	64.4531	82.4704	64.4531	82.2696	64.4531	82.4051	64.4531	82.2025	64.4531	82.3411	64.4531	82.1433	64.4531	82.2804	64.4531	82.0941	64.4531	82.2244	64.4531	82.0558	64.4531	82.1743	64.4531	82.0289	64.4531	82.1306	64.4531	82.0129	64.4531	82.0935	64.4531	82.007	64.4531	82.0628	64.4531	82.01	64.4531	82.0386	64.4531	82.0208
67.3828	83.5784	67.3828	83.5754	67.3828	83.565	67.3828	83.5558	67.3828	83.5356	67.3828	83.5201	67.3828	83.4912	67.3828	83.4694	67.3828	83.4333	67.3828	83.4051	67.3828	83.3636	67.3828	83.3294	67.3828	83.2846	67.3828	83.2445	67.3828	83.1985	67.3828	83.1533	67.3828	83.1081	67.3828	83.0589	67.3828	83.0162	67.3828	82.9644	67.3828	82.9255	67.3828	82.873	67.3828	82.8389	67.3828	82.7877	67.3828	82.7587	67.3828	82.7111	67.3828	82.6873	67.3828	82.6453	67.3828	82.6267	67.3828	82.5921	67.3828	82.5784	67.3828	82.5527	67.3828	82.5437	67.3828	82.5279	67.3828	82.5234	67.3828	82.5181
68.8477	83.9126	68.8477	83.909	68.8477	83.9014	68.8477	83.8907	68.8477	83.8757	68.8477	83.8584	68.8477	83.8363	68.8477	83.8131	68.8477	83.7844	68.8477	83.7562	68.8477	83.7216	68.8477	83.6897	68.8477	83.6499	68.8477	83.6157	68.8477	83.5717	68.8477	83.5365	68.8477	83.4894	68.8477	83.4549	68.8477	83.4058	68.8477	83.3733	68.8477	83.3235	68.8477	83.2943	68.8477	83.2452	68.8477	83.2202	68.8477	83.1735	68.8477	83.1532	68.8477	83.1104	68.8477	83.095	68.8477	83.0579	68.8477	83.0469	68.8477	83.0172	68.8477	83.0101	68.8477	82.9893	68.8477	82.9854	68.8477	82.9747	68.8477	82.9735
