"SPL Horizontal"
"On-Axis"		"10°"		"-10°"		"20°"		"-20°"		"30°"		"-30°"		"40°"		"-40°"		"50°"		"-50°"		"60°"		"-60°"		"70°"		"-70°"		"80°"		"-80°"		"90°"		"-90°"		"100°"		"-100°"		"110°"		"-110°"		"120°"		"-120°"		"130°"		"-130°"		"140°"		"-140°"		"150°"		"-150°"		"160°"		"-160°"		"170°"		"-170°"		"180°"
"Frequency / Hz"	"Sound Pressure Level / dB (re 20 µPa/V)  [2.83V at 1m]"	"Frequency / Hz"	"Sound Pressure Level / dB (re 20 µPa/V)  [2.83V at 1m]"	"Frequency / Hz"	"Sound Pressure Level / dB (re 20 µPa/V)  [2.83V at 1m]"	"Frequency / Hz"	"Sound Pressure Level / dB (re 20 µPa/V)  [2.83V at 1m]"	"Frequency / Hz"	"Sound Pressure Level / dB (re 20 µPa/V)  [2.83V at 1m]"	"Frequency / Hz"	"Sound Pressure Level / dB (re 20 µPa/V)  [2.83V at 1m]"	"Frequency / Hz"	"Sound Pressure Level / dB (re 20 µPa/V)  [2.83V at 1m]"	"Frequency / Hz"	"Sound Pressure Level / dB (re 20 µPa/V)  [2.83V at 1m]"	"Frequency / Hz"	"Sound Pressure Level / dB (re 20 µPa/V)  [2.83V at 1m]"	"Frequency / Hz"	"Sound Pressure Level / dB (re 20 µPa/V)  [2.83V at 1m]"	"Frequency / Hz"	"Sound Pressure Level / dB (re 20 µPa/V)  [2.83V at 1m]"	"Frequency / Hz"	"Sound Pressure Level / dB (re 20 µPa/V)  [2.83V at 1m]"	"Frequency / Hz"	"Sound Pressure Level / dB (re 20 µPa/V)  [2.83V at 1m]"	"Frequency / Hz"	"Sound Pressure Level / dB (re 20 µPa/V)  [2.83V at 1m]"	"Frequency / Hz"	"Sound Pressure Level / dB (re 20 µPa/V)  [2.83V at 1m]"	"Frequency / Hz"	"Sound Pressure Level / dB (re 20 µPa/V)  [2.83V at 1m]"	"Frequency / Hz"	"Sound Pressure Level / dB (re 20 µPa/V)  [2.83V at 1m]"	"Frequency / Hz"	"Sound Pressure Level / dB (re 20 µPa/V)  [2.83V at 1m]"	"Frequency / Hz"	"Sound Pressure Level / dB (re 20 µPa/V)  [2.83V at 1m]"	"Frequency / Hz"	"Sound Pressure Level / dB (re 20 µPa/V)  [2.83V at 1m]"	"Frequency / Hz"	"Sound Pressure Level / dB (re 20 µPa/V)  [2.83V at 1m]"	"Frequency / Hz"	"Sound Pressure Level / dB (re 20 µPa/V)  [2.83V at 1m]"	"Frequency / Hz"	"Sound Pressure Level / dB (re 20 µPa/V)  [2.83V at 1m]"	"Frequency / Hz"	"Sound Pressure Level / dB (re 20 µPa/V)  [2.83V at 1m]"	"Frequency / Hz"	"Sound Pressure Level / dB (re 20 µPa/V)  [2.83V at 1m]"	"Frequency / Hz"	"Sound Pressure Level / dB (re 20 µPa/V)  [2.83V at 1m]"	"Frequency / Hz"	"Sound Pressure Level / dB (re 20 µPa/V)  [2.83V at 1m]"	"Frequency / Hz"	"Sound Pressure Level / dB (re 20 µPa/V)  [2.83V at 1m]"	"Frequency / Hz"	"Sound Pressure Level / dB (re 20 µPa/V)  [2.83V at 1m]"	"Frequency / Hz"	"Sound Pressure Level / dB (re 20 µPa/V)  [2.83V at 1m]"	"Frequency / Hz"	"Sound Pressure Level / dB (re 20 µPa/V)  [2.83V at 1m]"	"Frequency / Hz"	"Sound Pressure Level / dB (re 20 µPa/V)  [2.83V at 1m]"	"Frequency / Hz"	"Sound Pressure Level / dB (re 20 µPa/V)  [2.83V at 1m]"	"Frequency / Hz"	"Sound Pressure Level / dB (re 20 µPa/V)  [2.83V at 1m]"	"Frequency / Hz"	"Sound Pressure Level / dB (re 20 µPa/V)  [2.83V at 1m]"	"Frequency / Hz"	"Sound Pressure Level / dB (re 20 µPa/V)  [2.83V at 1m]"
20.5078	53.6421	20.5078	53.5204	20.5078	53.6639	20.5078	53.317	20.5078	53.5934	20.5078	53.084	20.5078	53.4646	20.5078	52.9187	20.5078	53.3433	20.5078	52.9607	20.5078	53.3315	20.5078	53.3448	20.5078	53.5499	20.5078	54.1147	20.5078	54.0867	20.5078	55.1876	20.5078	54.9402	20.5078	56.4148	20.5078	56.0185	20.5078	57.6614	20.5078	57.1955	20.5078	58.8378	20.5078	58.3638	20.5078	59.8929	20.5078	59.4504	20.5078	60.7996	20.5078	60.4119	20.5078	61.544	20.5078	61.2241	20.5078	62.1184	20.5078	61.8737	20.5078	62.5187	20.5078	62.3535	20.5078	62.7427	20.5078	62.6596	20.5078	62.7897
21.9727	56.4684	21.9727	56.4321	21.9727	56.4455	21.9727	56.3499	21.9727	56.3706	21.9727	56.2585	21.9727	56.2734	21.9727	56.2191	21.9727	56.208	21.9727	56.3131	21.9727	56.2515	21.9727	56.6188	21.9727	56.488	21.9727	57.176	21.9727	56.9739	21.9727	57.9616	21.9727	57.7064	21.9727	58.9016	21.9727	58.6223	21.9727	59.9066	21.9727	59.6305	21.9727	60.8994	21.9727	60.6457	21.9727	61.8244	21.9727	61.6036	21.9727	62.6444	21.9727	62.461	21.9727	63.3356	21.9727	63.1904	21.9727	63.8824	21.9727	63.7747	21.9727	64.2744	21.9727	64.2033	21.9727	64.5051	21.9727	64.4697	21.9727	64.5706
23.4375	58.7032	23.4375	58.6401	23.4375	58.7114	23.4375	58.5313	23.4375	58.6711	23.4375	58.4036	23.4375	58.6044	23.4375	58.3035	23.4375	58.5504	23.4375	58.2964	23.4375	58.5643	23.4375	58.4537	23.4375	58.7094	23.4375	58.8276	23.4375	59.0376	23.4375	59.424	23.4375	59.5669	23.4375	60.1977	23.4375	60.2703	23.4375	61.0738	23.4375	61.0876	23.4375	61.9755	23.4375	61.948	23.4375	62.8399	23.4375	62.7886	23.4375	63.6221	23.4375	63.5611	23.4375	64.2909	23.4375	64.2309	23.4375	64.8259	23.4375	64.7746	23.4375	65.2134	23.4375	65.1763	23.4375	65.4448	23.4375	65.4254	23.4375	65.5158
24.9023	60.2111	24.9023	60.1719	24.9023	60.2077	24.9023	60.0997	24.9023	60.1653	24.9023	60.019	24.9023	60.102	24.9023	59.9696	24.9023	60.0506	24.9023	60.0037	24.9023	60.0581	24.9023	60.1758	24.9023	60.1792	24.9023	60.525	24.9023	60.4617	24.9023	61.0567	24.9023	60.9269	24.9023	61.7389	24.9023	61.5581	24.9023	62.5145	24.9023	62.3064	24.9023	63.3206	24.9023	63.1085	24.9023	64.1021	24.9023	63.904	24.9023	64.816	24.9023	64.6435	24.9023	65.4312	24.9023	65.2906	24.9023	65.9256	24.9023	65.8196	24.9023	66.2838	24.9023	66.2134	24.9023	66.4957	24.9023	66.4606	24.9023	66.5553
26.3672	60.9834	26.3672	60.9252	26.3672	60.9971	26.3672	60.8311	26.3672	60.971	26.3672	60.7248	26.3672	60.9236	26.3672	60.6454	26.3672	60.8876	26.3672	60.6466	26.3672	60.9087	26.3672	60.7861	26.3672	61.0389	26.3672	61.108	26.3672	61.3228	26.3672	61.6223	26.3672	61.7795	26.3672	62.2986	26.3672	62.393	26.3672	63.0786	26.3672	63.1177	26.3672	63.8964	26.3672	63.8943	26.3672	64.6936	26.3672	64.6653	26.3672	65.4248	26.3672	65.3836	26.3672	66.0572	26.3672	66.0132	26.3672	66.5675	26.3672	66.5284	26.3672	66.9397	26.3672	66.9109	26.3672	67.1637	26.3672	67.1484	26.3672	67.2337
27.832	61.703	27.832	61.685	27.832	61.6907	27.832	61.6451	27.832	61.6523	27.832	61.6051	27.832	61.6054	27.832	61.599	27.832	61.5816	27.832	61.6703	27.832	61.624	27.832	61.8633	27.832	61.7803	27.832	62.2096	27.832	62.0888	27.832	62.7152	27.832	62.5627	27.832	63.356	27.832	63.1829	27.832	64.0858	27.832	63.9046	27.832	64.8506	27.832	64.6719	27.832	65.5993	27.832	65.4314	27.832	66.2899	27.832	66.1389	27.832	66.8895	27.832	66.7607	27.832	67.3738	27.832	67.2719	27.832	67.7256	27.832	67.6548	27.832	67.9333	27.832	67.897	27.832	67.9909
29.2969	64.2364	29.2969	64.2471	29.2969	64.2244	29.2969	64.2621	29.2969	64.2144	29.2969	64.295	29.2969	64.2176	29.2969	64.366	29.2969	64.2536	29.2969	64.4991	29.2969	64.3468	29.2969	64.7172	29.2969	64.5229	29.2969	65.0355	29.2969	64.8018	29.2969	65.456	29.2969	65.1904	29.2969	65.9649	29.2969	65.6794	29.2969	66.5357	29.2969	66.2444	29.2969	67.1346	29.2969	66.8513	29.2969	67.726	29.2969	67.4631	29.2969	68.2773	29.2969	68.0446	29.2969	68.7607	29.2969	68.5659	29.2969	69.1534	29.2969	69.0024	29.2969	69.4383	29.2969	69.3353	29.2969	69.6033	29.2969	69.5511	29.2969	69.6415
30.7617	65.2331	30.7617	65.2556	30.7617	65.2035	30.7617	65.2738	30.7617	65.1712	30.7617	65.2976	30.7617	65.1479	30.7617	65.3431	30.7617	65.1524	30.7617	65.4313	30.7617	65.2082	30.7617	65.5843	30.7617	65.3403	30.7617	65.8204	30.7617	65.5689	30.7617	66.1489	30.7617	65.9032	30.7617	66.5654	30.7617	66.3373	30.7617	67.0523	30.7617	66.8498	30.7617	67.5814	30.7617	67.4089	30.7617	68.1199	30.7617	67.9783	30.7617	68.6347	30.7617	68.5227	30.7617	69.0962	30.7617	69.0114	30.7617	69.4795	30.7617	69.4189	30.7617	69.7648	30.7617	69.726	30.7617	69.9381	30.7617	69.9192	30.7617	69.9906
32.2266	66.9839	32.2266	66.9996	32.2266	66.9703	32.2266	67.0184	32.2266	66.9629	32.2266	67.0469	32.2266	66.9714	32.2266	67.0963	32.2266	67.0096	32.2266	67.1818	32.2266	67.0941	32.2266	67.3197	32.2266	67.2415	32.2266	67.5244	32.2266	67.4651	32.2266	67.8041	32.2266	67.77	32.2266	68.1576	32.2266	68.1515	32.2266	68.5735	32.2266	68.5939	32.2266	69.0311	32.2266	69.0736	32.2266	69.5042	32.2266	69.562	32.2266	69.9646	32.2266	70.0299	32.2266	70.3853	32.2266	70.45	32.2266	70.7424	32.2266	70.7988	32.2266	71.0161	32.2266	71.0577	32.2266	71.1914	32.2266	71.2135	32.2266	71.2586
33.6914	68.785	33.6914	68.7666	33.6914	68.8015	33.6914	68.7475	33.6914	68.8193	33.6914	68.7335	33.6914	68.8458	33.6914	68.7345	33.6914	68.8917	33.6914	68.7643	33.6914	68.9702	33.6914	68.8392	33.6914	69.0946	33.6914	68.9746	33.6914	69.2762	33.6914	69.1819	33.6914	69.521	33.6914	69.4649	33.6914	69.8274	33.6914	69.8168	33.6914	70.1856	33.6914	70.2209	33.6914	70.578	33.6914	70.6527	33.6914	70.9819	33.6914	71.0839	33.6914	71.3724	33.6914	71.4863	33.6914	71.7249	33.6914	71.8344	33.6914	72.0171	33.6914	72.1074	33.6914	72.2306	33.6914	72.2899	33.6914	72.3519	33.6914	72.3725
35.1562	69.1752	35.1562	69.1507	35.1562	69.1972	35.1562	69.1265	35.1562	69.2186	35.1562	69.1104	35.1562	69.2461	35.1562	69.1145	35.1562	69.2904	35.1562	69.1548	35.1562	69.365	35.1562	69.2482	35.1562	69.4845	35.1562	69.4097	35.1562	69.6616	35.1562	69.6483	35.1562	69.9041	35.1562	69.9638	35.1562	70.2122	35.1562	70.3455	35.1562	70.5769	35.1562	70.7735	35.1562	70.9811	35.1562	71.2216	35.1562	71.4016	35.1562	71.6617	35.1562	71.8123	35.1562	72.0664	35.1562	72.187	35.1562	72.4116	35.1562	72.5022	35.1562	72.6775	35.1562	72.738	35.1562	72.8491	35.1562	72.8794	35.1562	72.9175
36.6211	70.3624	36.6211	70.3573	36.6211	70.3849	36.6211	70.3718	36.6211	70.4256	36.6211	70.4101	36.6211	70.4872	36.6211	70.4782	36.6211	70.5746	36.6211	70.5834	36.6211	70.6937	36.6211	70.7325	36.6211	70.8508	36.6211	70.9305	36.6211	71.0506	36.6211	71.1789	36.6211	71.2949	36.6211	71.4745	36.6211	71.5814	36.6211	71.8084	36.6211	71.9027	36.6211	72.167	36.6211	72.2467	36.6211	72.5328	36.6211	72.5975	36.6211	72.8865	36.6211	72.9367	36.6211	73.2085	36.6211	73.2455	36.6211	73.4806	36.6211	73.5062	36.6211	73.6875	36.6211	73.7035	36.6211	73.8178	36.6211	73.8254	36.6211	73.8644
38.0859	71.9164	38.0859	71.9222	38.0859	71.9196	38.0859	71.9382	38.0859	71.9326	38.0859	71.9677	38.0859	71.9584	38.0859	72.0155	38.0859	72.0015	38.0859	72.0876	38.0859	72.0681	38.0859	72.1901	38.0859	72.1648	38.0859	72.3285	38.0859	72.2976	38.0859	72.5062	38.0859	72.4705	38.0859	72.723	38.0859	72.6841	38.0859	72.9748	38.0859	72.9344	38.0859	73.2526	38.0859	73.2128	38.0859	73.5434	38.0859	73.506	38.0859	73.831	38.0859	73.7976	38.0859	74.0978	38.0859	74.0696	38.0859	74.3264	38.0859	74.3044	38.0859	74.5011	38.0859	74.486	38.0859	74.6096	38.0859	74.6019	38.0859	74.644
39.5508	72.7864	39.5508	72.7908	39.5508	72.7911	39.5508	72.8048	39.5508	72.806	39.5508	72.8311	39.5508	72.8339	39.5508	72.8739	39.5508	72.8795	39.5508	72.9384	39.5508	72.9482	39.5508	73.0305	39.5508	73.046	39.5508	73.1558	39.5508	73.1779	39.5508	73.318	39.5508	73.3471	39.5508	73.5179	39.5508	73.5537	39.5508	73.7524	39.5508	73.7937	39.5508	74.014	39.5508	74.0586	39.5508	74.2906	39.5508	74.3358	39.5508	74.567	39.5508	74.6101	39.5508	74.8261	39.5508	74.8642	39.5508	75.0508	39.5508	75.0816	39.5508	75.2255	39.5508	75.2471	39.5508	75.3379	39.5508	75.349	39.5508	75.3801
41.0156	73.6228	41.0156	73.6257	41.0156	73.6297	41.0156	73.6391	41.0156	73.6473	41.0156	73.6649	41.0156	73.6778	41.0156	73.7066	41.0156	73.7246	41.0156	73.7684	41.0156	73.7919	41.0156	73.8548	41.0156	73.8843	41.0156	73.9703	41.0156	74.0056	41.0156	74.1178	41.0156	74.1585	41.0156	74.2979	41.0156	74.3428	41.0156	74.5081	41.0156	74.5556	41.0156	74.7419	41.0156	74.79	41.0156	74.9891	41.0156	75.0357	41.0156	75.2365	41.0156	75.2793	41.0156	75.469	41.0156	75.5061	41.0156	75.6711	41.0156	75.7007	41.0156	75.8287	41.0156	75.8493	41.0156	75.9304	41.0156	75.941	41.0156	75.9687
42.4805	74.4336	42.4805	74.4378	42.4805	74.4402	42.4805	74.4532	42.4805	74.4581	42.4805	74.4816	42.4805	74.4892	42.4805	74.5254	42.4805	74.536	42.4805	74.5881	42.4805	74.6018	42.4805	74.673	42.4805	74.6901	42.4805	74.7836	42.4805	74.8041	42.4805	74.9218	42.4805	74.9455	42.4805	75.088	42.4805	75.1145	42.4805	75.2798	42.4805	75.3082	42.4805	75.4917	42.4805	75.5209	42.4805	75.7149	42.4805	75.7437	42.4805	75.938	42.4805	75.9648	42.4805	76.1474	42.4805	76.1711	42.4805	76.3296	42.4805	76.3487	42.4805	76.4715	42.4805	76.4849	42.4805	76.5627	42.4805	76.5696	42.4805	76.5962
43.9453	75.1581	43.9453	75.1636	43.9453	75.1641	43.9453	75.1807	43.9453	75.1819	43.9453	75.2107	43.9453	75.213	43.9453	75.2555	43.9453	75.2593	43.9453	75.3175	43.9453	75.3234	43.9453	75.3993	43.9453	75.4079	43.9453	75.5034	43.9453	75.5152	43.9453	75.6313	43.9453	75.6466	43.9453	75.7831	43.9453	75.802	43.9453	75.9569	43.9453	75.9787	43.9453	76.1479	43.9453	76.1719	43.9453	76.3487	43.9453	76.3737	43.9453	76.5494	43.9453	76.5738	43.9453	76.7382	43.9453	76.7604	43.9453	76.9028	43.9453	76.9212	43.9453	77.0314	43.9453	77.0445	43.9453	77.1143	43.9453	77.1211	43.9453	77.145
45.4102	75.7343	45.4102	75.7384	45.4102	75.7433	45.4102	75.756	45.4102	75.7655	45.4102	75.7879	45.4102	75.8018	45.4102	75.8358	45.4102	75.8536	45.4102	75.9013	45.4102	75.9224	45.4102	75.9862	45.4102	76.0101	45.4102	76.0922	45.4102	76.1181	45.4102	76.2199	45.4102	76.2471	45.4102	76.3688	45.4102	76.3966	45.4102	76.5367	45.4102	76.564	45.4102	76.7188	45.4102	76.745	45.4102	76.9083	45.4102	76.9325	45.4102	77.0963	45.4102	77.1177	45.4102	77.2721	45.4102	77.29	45.4102	77.4245	45.4102	77.4384	45.4102	77.543	45.4102	77.5525	45.4102	77.619	45.4102	77.6238	45.4102	77.6466
46.875	76.4091	46.875	76.4174	46.875	76.4133	46.875	76.4384	46.875	76.4303	46.875	76.4725	46.875	76.4609	46.875	76.5206	46.875	76.5061	46.875	76.5838	46.875	76.5671	46.875	76.663	46.875	76.6452	46.875	76.7593	46.875	76.7413	46.875	76.873	46.875	76.856	46.875	77.0037	46.875	76.9885	46.875	77.1496	46.875	77.1367	46.875	77.3069	46.875	77.2969	46.875	77.4702	46.875	77.463	46.875	77.6321	46.875	77.6274	46.875	77.7836	46.875	77.7809	46.875	77.915	46.875	77.9138	46.875	78.0171	46.875	78.0167	46.875	78.0819	46.875	78.0818	46.875	78.1041
48.3398	76.9676	48.3398	76.9758	48.3398	76.9721	48.3398	76.9966	48.3398	76.9895	48.3398	77.0304	48.3398	77.0201	48.3398	77.0775	48.3398	77.0645	48.3398	77.1384	48.3398	77.1232	48.3398	77.2134	48.3398	77.1968	48.3398	77.3029	48.3398	77.2856	48.3398	77.4069	48.3398	77.3897	48.3398	77.5245	48.3398	77.5081	48.3398	77.6541	48.3398	77.639	48.3398	77.7926	48.3398	77.7792	48.3398	77.9352	48.3398	77.9239	48.3398	78.076	48.3398	78.0668	48.3398	78.2073	48.3398	78.2002	48.3398	78.321	48.3398	78.3158	48.3398	78.4091	48.3398	78.4057	48.3398	78.4646	48.3398	78.463	48.3398	78.4832
51.2695	77.9297	51.2695	77.9373	51.2695	77.9343	51.2695	77.957	51.2695	77.9511	51.2695	77.9887	51.2695	77.9801	51.2695	78.0325	51.2695	78.0214	51.2695	78.0882	51.2695	78.0751	51.2695	78.1559	51.2695	78.1411	51.2695	78.2354	51.2695	78.2195	51.2695	78.3264	51.2695	78.31	51.2695	78.4282	51.2695	78.412	51.2695	78.5394	51.2695	78.524	51.2695	78.6578	51.2695	78.6437	51.2695	78.7798	51.2695	78.7674	51.2695	78.9003	51.2695	78.89	51.2695	79.013	51.2695	79.0049	51.2695	79.1111	51.2695	79.1051	51.2695	79.1872	51.2695	79.1834	51.2695	79.2353	51.2695	79.2335	51.2695	79.2513
52.7344	78.2603	52.7344	78.269	52.7344	78.2664	52.7344	78.2922	52.7344	78.2871	52.7344	78.3296	52.7344	78.3222	52.7344	78.3807	52.7344	78.3714	52.7344	78.4449	52.7344	78.4341	52.7344	78.5214	52.7344	78.5097	52.7344	78.6095	52.7344	78.5974	52.7344	78.7079	52.7344	78.6962	52.7344	78.8155	52.7344	78.8048	52.7344	78.9305	52.7344	78.9211	52.7344	79.0501	52.7344	79.0424	52.7344	79.171	52.7344	79.1651	52.7344	79.2885	52.7344	79.2844	52.7344	79.3972	52.7344	79.3944	52.7344	79.4907	52.7344	79.489	52.7344	79.563	52.7344	79.5621	52.7344	79.6087	52.7344	79.6083	52.7344	79.6243
54.1992	78.6666	54.1992	78.6742	54.1992	78.6734	54.1992	78.696	54.1992	78.6945	54.1992	78.7315	54.1992	78.7294	54.1992	78.7801	54.1992	78.7775	54.1992	78.8409	54.1992	78.8377	54.1992	78.9126	54.1992	78.9092	54.1992	78.9942	54.1992	78.9907	54.1992	79.0842	54.1992	79.0809	54.1992	79.1812	54.1992	79.1782	54.1992	79.2834	54.1992	79.2809	54.1992	79.3884	54.1992	79.3865	54.1992	79.4932	54.1992	79.4919	54.1992	79.5943	54.1992	79.5935	54.1992	79.687	54.1992	79.6866	54.1992	79.7665	54.1992	79.7664	54.1992	79.8278	54.1992	79.8277	54.1992	79.8665	54.1992	79.8665	54.1992	79.8798
55.6641	79.0436	55.6641	79.0498	55.6641	79.0509	55.6641	79.0696	55.6641	79.0717	55.6641	79.1022	55.6641	79.1053	55.6641	79.147	55.6641	79.1509	55.6641	79.2028	55.6641	79.2074	55.6641	79.2684	55.6641	79.2736	55.6641	79.3423	55.6641	79.3481	55.6641	79.4233	55.6641	79.4295	55.6641	79.5097	55.6641	79.5163	55.6641	79.6	55.6641	79.6068	55.6641	79.6921	55.6641	79.6989	55.6641	79.7837	55.6641	79.7903	55.6641	79.8717	55.6641	79.8778	55.6641	79.9524	55.6641	79.9577	55.6641	80.0216	55.6641	80.0258	55.6641	80.0751	55.6641	80.0781	55.6641	80.1093	55.6641	80.1108	55.6641	80.1215
58.5938	79.6695	58.5938	79.6761	58.5938	79.6762	58.5938	79.6957	58.5938	79.696	58.5938	79.7277	58.5938	79.7281	58.5938	79.7709	58.5938	79.7713	58.5938	79.8238	58.5938	79.8242	58.5938	79.8848	58.5938	79.8851	58.5938	79.952	58.5938	79.9522	58.5938	80.0238	58.5938	80.0237	58.5938	80.0983	58.5938	80.0979	58.5938	80.1739	58.5938	80.1731	58.5938	80.249	58.5938	80.2477	58.5938	80.3218	58.5938	80.3201	58.5938	80.3901	58.5938	80.3881	58.5938	80.4516	58.5938	80.4494	58.5938	80.5035	58.5938	80.5014	58.5938	80.5429	58.5938	80.5413	58.5938	80.5675	58.5938	80.5667	58.5938	80.5756
60.0586	79.9649	60.0586	79.9718	60.0586	79.971	60.0586	79.9914	60.0586	79.9898	60.0586	80.0229	60.0586	80.0206	60.0586	80.0651	60.0586	80.0621	60.0586	80.1163	60.0586	80.1127	60.0586	80.1747	60.0586	80.1705	60.0586	80.2384	60.0586	80.2336	60.0586	80.3054	60.0586	80.3002	60.0586	80.374	60.0586	80.3685	60.0586	80.4426	60.0586	80.4367	60.0586	80.5096	60.0586	80.5035	60.0586	80.5734	60.0586	80.5674	60.0586	80.6326	60.0586	80.6268	60.0586	80.6851	60.0586	80.6799	60.0586	80.729	60.0586	80.7247	60.0586	80.7621	60.0586	80.759	60.0586	80.7825	60.0586	80.7809	60.0586	80.7889
62.9883	80.49	62.9883	80.4959	62.9883	80.4967	62.9883	80.514	62.9883	80.5157	62.9883	80.5436	62.9883	80.546	62.9883	80.5832	62.9883	80.5861	62.9883	80.631	62.9883	80.6342	62.9883	80.6848	62.9883	80.6882	62.9883	80.7424	62.9883	80.7458	62.9883	80.8017	62.9883	80.805	62.9883	80.8606	62.9883	80.8637	62.9883	80.9176	62.9883	80.9203	62.9883	80.9712	62.9883	80.9736	62.9883	81.0205	62.9883	81.0225	62.9883	81.0646	62.9883	81.0662	62.9883	81.1026	62.9883	81.1038	62.9883	81.1336	62.9883	81.1346	62.9883	81.1568	62.9883	81.1574	62.9883	81.1712	62.9883	81.1715	62.9883	81.1762
64.4531	80.7368	64.4531	80.742	64.4531	80.7436	64.4531	80.7588	64.4531	80.7619	64.4531	80.7862	64.4531	80.7909	64.4531	80.8229	64.4531	80.8289	64.4531	80.867	64.4531	80.8741	64.4531	80.9163	64.4531	80.9243	64.4531	80.9684	64.4531	80.9772	64.4531	81.0213	64.4531	81.0305	64.4531	81.073	64.4531	81.0824	64.4531	81.1218	64.4531	81.1311	64.4531	81.1666	64.4531	81.1756	64.4531	81.2066	64.4531	81.215	64.4531	81.2414	64.4531	81.249	64.4531	81.2707	64.4531	81.2771	64.4531	81.2943	64.4531	81.2992	64.4531	81.3117	64.4531	81.3151	64.4531	81.3227	64.4531	81.3245	64.4531	81.327
67.3828	81.2646	67.3828	81.2693	67.3828	81.2711	67.3828	81.2848	67.3828	81.2882	67.3828	81.31	67.3828	81.3149	67.3828	81.3434	67.3828	81.3495	67.3828	81.3829	67.3828	81.3899	67.3828	81.4261	67.3828	81.4337	67.3828	81.4705	67.3828	81.4782	67.3828	81.5137	67.3828	81.5212	67.3828	81.5536	67.3828	81.5605	67.3828	81.5887	67.3828	81.5947	67.3828	81.6179	67.3828	81.6229	67.3828	81.6412	67.3828	81.6451	67.3828	81.6587	67.3828	81.6616	67.3828	81.6712	67.3828	81.6732	67.3828	81.6797	67.3828	81.6809	67.3828	81.6851	67.3828	81.6857	67.3828	81.688	67.3828	81.6883	67.3828	81.689
