"SPL Horizontal"
"On-Axis"		"10°"		"-10°"		"20°"		"-20°"		"30°"		"-30°"		"40°"		"-40°"		"50°"		"-50°"		"60°"		"-60°"		"70°"		"-70°"		"80°"		"-80°"		"90°"		"-90°"		"100°"		"-100°"		"110°"		"-110°"		"120°"		"-120°"		"130°"		"-130°"		"140°"		"-140°"		"150°"		"-150°"		"160°"		"-160°"		"170°"		"-170°"		"180°"
"Frequency / Hz"	"Sound Pressure Level / dB (re 20 µPa/V)  [2.83V at 1m]"	"Frequency / Hz"	"Sound Pressure Level / dB (re 20 µPa/V)  [2.83V at 1m]"	"Frequency / Hz"	"Sound Pressure Level / dB (re 20 µPa/V)  [2.83V at 1m]"	"Frequency / Hz"	"Sound Pressure Level / dB (re 20 µPa/V)  [2.83V at 1m]"	"Frequency / Hz"	"Sound Pressure Level / dB (re 20 µPa/V)  [2.83V at 1m]"	"Frequency / Hz"	"Sound Pressure Level / dB (re 20 µPa/V)  [2.83V at 1m]"	"Frequency / Hz"	"Sound Pressure Level / dB (re 20 µPa/V)  [2.83V at 1m]"	"Frequency / Hz"	"Sound Pressure Level / dB (re 20 µPa/V)  [2.83V at 1m]"	"Frequency / Hz"	"Sound Pressure Level / dB (re 20 µPa/V)  [2.83V at 1m]"	"Frequency / Hz"	"Sound Pressure Level / dB (re 20 µPa/V)  [2.83V at 1m]"	"Frequency / Hz"	"Sound Pressure Level / dB (re 20 µPa/V)  [2.83V at 1m]"	"Frequency / Hz"	"Sound Pressure Level / dB (re 20 µPa/V)  [2.83V at 1m]"	"Frequency / Hz"	"Sound Pressure Level / dB (re 20 µPa/V)  [2.83V at 1m]"	"Frequency / Hz"	"Sound Pressure Level / dB (re 20 µPa/V)  [2.83V at 1m]"	"Frequency / Hz"	"Sound Pressure Level / dB (re 20 µPa/V)  [2.83V at 1m]"	"Frequency / Hz"	"Sound Pressure Level / dB (re 20 µPa/V)  [2.83V at 1m]"	"Frequency / Hz"	"Sound Pressure Level / dB (re 20 µPa/V)  [2.83V at 1m]"	"Frequency / Hz"	"Sound Pressure Level / dB (re 20 µPa/V)  [2.83V at 1m]"	"Frequency / Hz"	"Sound Pressure Level / dB (re 20 µPa/V)  [2.83V at 1m]"	"Frequency / Hz"	"Sound Pressure Level / dB (re 20 µPa/V)  [2.83V at 1m]"	"Frequency / Hz"	"Sound Pressure Level / dB (re 20 µPa/V)  [2.83V at 1m]"	"Frequency / Hz"	"Sound Pressure Level / dB (re 20 µPa/V)  [2.83V at 1m]"	"Frequency / Hz"	"Sound Pressure Level / dB (re 20 µPa/V)  [2.83V at 1m]"	"Frequency / Hz"	"Sound Pressure Level / dB (re 20 µPa/V)  [2.83V at 1m]"	"Frequency / Hz"	"Sound Pressure Level / dB (re 20 µPa/V)  [2.83V at 1m]"	"Frequency / Hz"	"Sound Pressure Level / dB (re 20 µPa/V)  [2.83V at 1m]"	"Frequency / Hz"	"Sound Pressure Level / dB (re 20 µPa/V)  [2.83V at 1m]"	"Frequency / Hz"	"Sound Pressure Level / dB (re 20 µPa/V)  [2.83V at 1m]"	"Frequency / Hz"	"Sound Pressure Level / dB (re 20 µPa/V)  [2.83V at 1m]"	"Frequency / Hz"	"Sound Pressure Level / dB (re 20 µPa/V)  [2.83V at 1m]"	"Frequency / Hz"	"Sound Pressure Level / dB (re 20 µPa/V)  [2.83V at 1m]"	"Frequency / Hz"	"Sound Pressure Level / dB (re 20 µPa/V)  [2.83V at 1m]"	"Frequency / Hz"	"Sound Pressure Level / dB (re 20 µPa/V)  [2.83V at 1m]"	"Frequency / Hz"	"Sound Pressure Level / dB (re 20 µPa/V)  [2.83V at 1m]"	"Frequency / Hz"	"Sound Pressure Level / dB (re 20 µPa/V)  [2.83V at 1m]"	"Frequency / Hz"	"Sound Pressure Level / dB (re 20 µPa/V)  [2.83V at 1m]"
20.5078	57.7493	20.5078	57.7327	20.5078	57.7626	20.5078	57.7133	20.5078	57.7715	20.5078	57.692	20.5078	57.7749	20.5078	57.6691	20.5078	57.7718	20.5078	57.645	20.5078	57.7612	20.5078	57.6197	20.5078	57.7422	20.5078	57.5934	20.5078	57.7145	20.5078	57.5663	20.5078	57.6783	20.5078	57.5388	20.5078	57.6348	20.5078	57.5115	20.5078	57.5865	20.5078	57.4853	20.5078	57.5366	20.5078	57.4611	20.5078	57.489	20.5078	57.4397	20.5078	57.4474	20.5078	57.4214	20.5078	57.4147	20.5078	57.4063	20.5078	57.3922	20.5078	57.3939	20.5078	57.3796	20.5078	57.3843	20.5078	57.3755	20.5078	57.3777
21.9727	57.7284	21.9727	57.7093	21.9727	57.7431	21.9727	57.687	21.9727	57.7525	21.9727	57.6622	21.9727	57.7554	21.9727	57.6357	21.9727	57.7509	21.9727	57.608	21.9727	57.7378	21.9727	57.5797	21.9727	57.7156	21.9727	57.5508	21.9727	57.684	21.9727	57.5218	21.9727	57.6434	21.9727	57.493	21.9727	57.5952	21.9727	57.4649	21.9727	57.5419	21.9727	57.4381	21.9727	57.4869	21.9727	57.4131	21.9727	57.4342	21.9727	57.3906	21.9727	57.3879	21.9727	57.3704	21.9727	57.3513	21.9727	57.3526	21.9727	57.3261	21.9727	57.3369	21.9727	57.3126	21.9727	57.3236	21.9727	57.3093	21.9727	57.3137
23.4375	57.7259	23.4375	57.7066	23.4375	57.7352	23.4375	57.6782	23.4375	57.7337	23.4375	57.6415	23.4375	57.7206	23.4375	57.5971	23.4375	57.695	23.4375	57.5457	23.4375	57.6562	23.4375	57.4878	23.4375	57.6041	23.4375	57.4239	23.4375	57.5388	23.4375	57.3547	23.4375	57.4611	23.4375	57.2811	23.4375	57.3731	23.4375	57.2045	23.4375	57.2776	23.4375	57.1268	23.4375	57.1789	23.4375	57.0506	23.4375	57.0819	23.4375	56.9787	23.4375	56.9919	23.4375	56.914	23.4375	56.9138	23.4375	56.8592	23.4375	56.8514	23.4375	56.8167	23.4375	56.8074	23.4375	56.7885	23.4375	56.7826	23.4375	56.7766
24.9023	59.202	24.9023	59.1798	24.9023	59.2157	24.9023	59.1496	24.9023	59.2207	24.9023	59.1119	24.9023	59.2166	24.9023	59.0677	24.9023	59.2034	24.9023	59.0176	24.9023	59.1812	24.9023	58.9628	24.9023	59.1503	24.9023	58.9043	24.9023	59.1112	24.9023	58.8436	24.9023	59.0647	24.9023	58.7825	24.9023	59.0119	24.9023	58.7231	24.9023	58.9545	24.9023	58.6677	24.9023	58.8944	24.9023	58.6189	24.9023	58.8337	24.9023	58.5792	24.9023	58.7747	24.9023	58.5506	24.9023	58.719	24.9023	58.5343	24.9023	58.6684	24.9023	58.5305	24.9023	58.624	24.9023	58.5388	24.9023	58.5869	24.9023	58.558
26.3672	60.0681	26.3672	60.0584	26.3672	60.0675	26.3672	60.0389	26.3672	60.0563	26.3672	60.0103	26.3672	60.0344	26.3672	59.9732	26.3672	60.0018	26.3672	59.9285	26.3672	59.959	26.3672	59.877	26.3672	59.9066	26.3672	59.8198	26.3672	59.8456	26.3672	59.7579	26.3672	59.7776	26.3672	59.6927	26.3672	59.7047	26.3672	59.6258	26.3672	59.6292	26.3672	59.5591	26.3672	59.5542	26.3672	59.4945	26.3672	59.4828	26.3672	59.4343	26.3672	59.4179	26.3672	59.3807	26.3672	59.3625	26.3672	59.3356	26.3672	59.3185	26.3672	59.3008	26.3672	59.2876	26.3672	59.2776	26.3672	59.2705	26.3672	59.2673
27.832	60.6889	27.832	60.6808	27.832	60.6865	27.832	60.6625	27.832	60.6735	27.832	60.6343	27.832	60.6501	27.832	60.597	27.832	60.6165	27.832	60.5514	27.832	60.5731	27.832	60.4985	27.832	60.5207	27.832	60.4397	27.832	60.4602	27.832	60.3763	27.832	60.393	27.832	60.31	27.832	60.3211	27.832	60.2425	27.832	60.2467	27.832	60.1759	27.832	60.1726	27.832	60.1121	27.832	60.102	27.832	60.053	27.832	60.0379	27.832	60.0007	27.832	59.9831	27.832	59.9567	27.832	59.9398	27.832	59.9228	27.832	59.9094	27.832	59.9001	27.832	59.8928	27.832	59.8898
29.2969	61.5341	29.2969	61.5273	29.2969	61.5305	29.2969	61.5101	29.2969	61.5162	29.2969	61.483	29.2969	61.4914	29.2969	61.4465	29.2969	61.4562	29.2969	61.4013	29.2969	61.411	29.2969	61.3484	29.2969	61.3566	29.2969	61.2891	29.2969	61.2938	29.2969	61.2247	29.2969	61.2241	29.2969	61.1571	29.2969	61.1492	29.2969	61.0881	29.2969	61.0716	29.2969	61.0198	29.2969	60.9942	29.2969	60.9542	29.2969	60.9205	29.2969	60.8931	29.2969	60.8537	29.2969	60.8382	29.2969	60.7973	29.2969	60.791	29.2969	60.7536	29.2969	60.7531	29.2969	60.7245	29.2969	60.7261	29.2969	60.7106	29.2969	60.7114
30.7617	62.3509	30.7617	62.3482	30.7617	62.3448	30.7617	62.3369	30.7617	62.33	30.7617	62.3172	30.7617	62.3066	30.7617	62.2895	30.7617	62.275	30.7617	62.2544	30.7617	62.2358	30.7617	62.2128	30.7617	62.1896	30.7617	62.1657	30.7617	62.1375	30.7617	62.1142	30.7617	62.0808	30.7617	62.0599	30.7617	62.021	30.7617	62.0042	30.7617	61.9602	30.7617	61.9489	30.7617	61.9007	30.7617	61.8956	30.7617	61.8448	30.7617	61.8459	30.7617	61.7951	30.7617	61.8011	30.7617	61.7538	30.7617	61.7627	30.7617	61.7225	30.7617	61.7316	30.7617	61.7023	30.7617	61.7091	30.7617	61.6936	30.7617	61.6961
32.2266	62.999	32.2266	63.0034	32.2266	62.9852	32.2266	62.9984	32.2266	62.9621	32.2266	62.9843	32.2266	62.9302	32.2266	62.9615	32.2266	62.8901	32.2266	62.9305	32.2266	62.8426	32.2266	62.8921	32.2266	62.789	32.2266	62.8473	32.2266	62.7306	32.2266	62.7973	32.2266	62.6694	32.2266	62.7434	32.2266	62.6073	32.2266	62.6873	32.2266	62.5467	32.2266	62.6305	32.2266	62.4899	32.2266	62.5749	32.2266	62.4393	32.2266	62.5221	32.2266	62.397	32.2266	62.4735	32.2266	62.3646	32.2266	62.4304	32.2266	62.3432	32.2266	62.3939	32.2266	62.3329	32.2266	62.365	32.2266	62.3336	32.2266	62.3446
33.6914	63.6781	33.6914	63.6804	33.6914	63.6648	33.6914	63.6721	33.6914	63.6407	33.6914	63.6532	33.6914	63.6062	33.6914	63.6244	33.6914	63.5619	33.6914	63.5864	33.6914	63.5086	33.6914	63.5401	33.6914	63.4476	33.6914	63.4866	33.6914	63.3806	33.6914	63.4272	33.6914	63.3094	33.6914	63.3636	33.6914	63.2365	33.6914	63.2974	33.6914	63.1644	33.6914	63.2307	33.6914	63.096	33.6914	63.1653	33.6914	63.0341	33.6914	63.1033	33.6914	62.9812	33.6914	63.0464	33.6914	62.9394	33.6914	62.9963	33.6914	62.9101	33.6914	62.9545	33.6914	62.894	33.6914	62.9223	33.6914	62.8911	33.6914	62.9008
35.1562	64.4222	35.1562	64.4202	35.1562	64.4141	35.1562	64.4083	35.1562	64.3958	35.1562	64.387	35.1562	64.3675	35.1562	64.3569	35.1562	64.3297	35.1562	64.3189	35.1562	64.2832	35.1562	64.2738	35.1562	64.2292	35.1562	64.2228	35.1562	64.1692	35.1562	64.1671	35.1562	64.1048	35.1562	64.108	35.1562	64.0384	35.1562	64.0471	35.1562	63.9723	35.1562	63.9862	35.1562	63.909	35.1562	63.927	35.1562	63.8509	35.1562	63.8715	35.1562	63.8003	35.1562	63.8215	35.1562	63.759	35.1562	63.7785	35.1562	63.7283	35.1562	63.744	35.1562	63.7088	35.1562	63.719	35.1562	63.7009	35.1562	63.7045
36.6211	64.9383	36.6211	64.9249	36.6211	64.9408	36.6211	64.9009	36.6211	64.9323	36.6211	64.8671	36.6211	64.913	36.6211	64.8244	36.6211	64.8835	36.6211	64.774	36.6211	64.8445	36.6211	64.7175	36.6211	64.7971	36.6211	64.6565	36.6211	64.7428	36.6211	64.5928	36.6211	64.6831	36.6211	64.5286	36.6211	64.6199	36.6211	64.4656	36.6211	64.5551	36.6211	64.406	36.6211	64.4909	36.6211	64.3515	36.6211	64.4293	36.6211	64.3038	36.6211	64.3722	36.6211	64.2644	36.6211	64.3215	36.6211	64.2344	36.6211	64.2786	36.6211	64.2146	36.6211	64.2448	36.6211	64.2057	36.6211	64.221	36.6211	64.2078
38.0859	65.8231	38.0859	65.8187	38.0859	65.8164	38.0859	65.8034	38.0859	65.7988	38.0859	65.7777	38.0859	65.7707	38.0859	65.7423	38.0859	65.7329	38.0859	65.6981	38.0859	65.6863	38.0859	65.6464	38.0859	65.6322	38.0859	65.5887	38.0859	65.5721	38.0859	65.5266	38.0859	65.5079	38.0859	65.4621	38.0859	65.4416	38.0859	65.397	38.0859	65.3753	38.0859	65.3333	38.0859	65.311	38.0859	65.2731	38.0859	65.2511	38.0859	65.2181	38.0859	65.1974	38.0859	65.17	38.0859	65.1516	38.0859	65.1303	38.0859	65.1154	38.0859	65.1002	38.0859	65.0896	38.0859	65.0805	38.0859	65.075	38.0859	65.072
39.5508	66.3633	39.5508	66.3579	39.5508	66.3572	39.5508	66.3412	39.5508	66.3398	39.5508	66.3139	39.5508	66.3114	39.5508	66.2767	39.5508	66.2729	39.5508	66.2308	39.5508	66.2252	39.5508	66.1775	39.5508	66.1699	39.5508	66.1184	39.5508	66.1085	39.5508	66.0553	39.5508	66.043	39.5508	65.9902	39.5508	65.9755	39.5508	65.9249	39.5508	65.9081	39.5508	65.8614	39.5508	65.8431	39.5508	65.8015	39.5508	65.7826	39.5508	65.7469	39.5508	65.7286	39.5508	65.6993	39.5508	65.6827	39.5508	65.66	39.5508	65.6463	39.5508	65.6303	39.5508	65.6204	39.5508	65.6109	39.5508	65.6058	39.5508	65.6026
41.0156	66.9592	41.0156	66.953	41.0156	66.9534	41.0156	66.9351	41.0156	66.9356	41.0156	66.906	41.0156	66.9065	41.0156	66.8666	41.0156	66.8667	41.0156	66.8181	41.0156	66.8175	41.0156	66.7621	41.0156	66.7603	41.0156	66.7001	41.0156	66.6969	41.0156	66.6342	41.0156	66.6292	41.0156	66.5664	41.0156	66.5594	41.0156	66.4986	41.0156	66.4899	41.0156	66.4329	41.0156	66.4227	41.0156	66.3712	41.0156	66.3601	41.0156	66.3153	41.0156	66.304	41.0156	66.2668	41.0156	66.2562	41.0156	66.2269	41.0156	66.218	41.0156	66.197	41.0156	66.1906	41.0156	66.178	41.0156	66.1746	41.0156	66.1704
42.4805	67.5861	42.4805	67.5795	42.4805	67.5802	42.4805	67.5606	42.4805	67.5619	42.4805	67.53	42.4805	67.5317	42.4805	67.4887	42.4805	67.4906	42.4805	67.4379	42.4805	67.4397	42.4805	67.3793	42.4805	67.3807	42.4805	67.3146	42.4805	67.3153	42.4805	67.2458	42.4805	67.2457	42.4805	67.1751	42.4805	67.174	42.4805	67.1045	42.4805	67.1024	42.4805	67.0363	42.4805	67.0333	42.4805	66.9724	42.4805	66.9688	42.4805	66.9145	42.4805	66.9107	42.4805	66.8645	42.4805	66.8608	42.4805	66.8238	42.4805	66.8206	42.4805	66.7936	42.4805	66.7913	42.4805	66.7748	42.4805	66.7736	42.4805	66.768
43.9453	68.1774	43.9453	68.1701	43.9453	68.1713	43.9453	68.1498	43.9453	68.1522	43.9453	68.1171	43.9453	68.1205	43.9453	68.073	43.9453	68.0771	43.9453	68.0187	43.9453	68.0234	43.9453	67.956	43.9453	67.961	43.9453	67.8867	43.9453	67.8918	43.9453	67.8131	43.9453	67.818	43.9453	67.7373	43.9453	67.7419	43.9453	67.6617	43.9453	67.6657	43.9453	67.5886	43.9453	67.592	43.9453	67.5202	43.9453	67.5228	43.9453	67.4584	43.9453	67.4603	43.9453	67.4051	43.9453	67.4064	43.9453	67.3619	43.9453	67.3627	43.9453	67.3301	43.9453	67.3305	43.9453	67.3106	43.9453	67.3108	43.9453	67.3041
45.4102	68.6731	45.4102	68.6674	45.4102	68.6657	45.4102	68.6488	45.4102	68.6454	45.4102	68.6179	45.4102	68.6126	45.4102	68.5757	45.4102	68.5683	45.4102	68.5234	45.4102	68.5137	45.4102	68.4626	45.4102	68.4505	45.4102	68.3951	45.4102	68.3806	45.4102	68.3229	45.4102	68.3061	45.4102	68.2482	45.4102	68.2293	45.4102	68.1731	45.4102	68.1526	45.4102	68.0998	45.4102	68.0785	45.4102	68.0304	45.4102	68.0092	45.4102	67.9671	45.4102	67.9469	45.4102	67.9115	45.4102	67.8936	45.4102	67.8655	45.4102	67.8509	45.4102	67.8306	45.4102	67.8203	45.4102	67.808	45.4102	67.8027	45.4102	67.7986
46.875	69.229	46.875	69.2191	46.875	69.2257	46.875	69.1963	46.875	69.2092	46.875	69.1615	46.875	69.18	46.875	69.1157	46.875	69.1389	46.875	69.0606	46.875	69.0871	46.875	68.9977	46.875	69.0263	46.875	68.9291	46.875	68.9583	46.875	68.8568	46.875	68.8853	46.875	68.7831	46.875	68.8096	46.875	68.71	46.875	68.7335	46.875	68.6396	46.875	68.6596	46.875	68.574	46.875	68.5899	46.875	68.5147	46.875	68.5268	46.875	68.4636	46.875	68.4721	46.875	68.4221	46.875	68.4277	46.875	68.3915	46.875	68.3948	46.875	68.3729	46.875	68.3744	46.875	68.3671
48.3398	69.6032	48.3398	69.587	48.3398	69.6075	48.3398	69.5594	48.3398	69.6	48.3398	69.5212	48.3398	69.581	48.3398	69.4736	48.3398	69.5514	48.3398	69.418	48.3398	69.5123	48.3398	69.3563	48.3398	69.4652	48.3398	69.2906	48.3398	69.4117	48.3398	69.2231	48.3398	69.3536	48.3398	69.1561	48.3398	69.2927	48.3398	69.0919	48.3398	69.2308	48.3398	69.0325	48.3398	69.1696	48.3398	68.9799	48.3398	69.1104	48.3398	68.9357	48.3398	69.0547	48.3398	68.9011	48.3398	69.0039	48.3398	68.8772	48.3398	68.959	48.3398	68.8644	48.3398	68.9213	48.3398	68.8629	48.3398	68.8921	48.3398	68.8723
51.2695	70.9084	51.2695	70.9127	51.2695	70.8903	51.2695	70.9031	51.2695	70.8587	51.2695	70.8803	51.2695	70.8147	51.2695	70.8451	51.2695	70.7594	51.2695	70.799	51.2695	70.6949	51.2695	70.7437	51.2695	70.6232	51.2695	70.6811	51.2695	70.5468	51.2695	70.6135	51.2695	70.4685	51.2695	70.5431	51.2695	70.3911	51.2695	70.4721	51.2695	70.3174	51.2695	70.4025	51.2695	70.2499	51.2695	70.3362	51.2695	70.1908	51.2695	70.2746	51.2695	70.1421	51.2695	70.2191	51.2695	70.1049	51.2695	70.1707	51.2695	70.0798	51.2695	70.1304	51.2695	70.0672	51.2695	70.0991	51.2695	70.0666	51.2695	70.0775
52.7344	71.4277	52.7344	71.4311	52.7344	71.4099	52.7344	71.4201	52.7344	71.3779	52.7344	71.3954	52.7344	71.3327	52.7344	71.3579	52.7344	71.2756	52.7344	71.3091	52.7344	71.2084	52.7344	71.2506	52.7344	71.1331	52.7344	71.1845	52.7344	71.0524	52.7344	71.1127	52.7344	70.9689	52.7344	71.0375	52.7344	70.8854	52.7344	70.961	52.7344	70.8047	52.7344	70.8851	52.7344	70.7297	52.7344	70.8118	52.7344	70.6626	52.7344	70.7429	52.7344	70.6059	52.7344	70.68	52.7344	70.5611	52.7344	70.6247	52.7344	70.5296	52.7344	70.5785	52.7344	70.5121	52.7344	70.5429	52.7344	70.5087	52.7344	70.5193
54.1992	71.8682	54.1992	71.8599	54.1992	71.8626	54.1992	71.8384	54.1992	71.8432	54.1992	71.8047	54.1992	71.8102	54.1992	71.7602	54.1992	71.7644	54.1992	71.7065	54.1992	71.7073	54.1992	71.6455	54.1992	71.6406	54.1992	71.5792	54.1992	71.5666	54.1992	71.5096	54.1992	71.4878	54.1992	71.4386	54.1992	71.407	54.1992	71.3682	54.1992	71.3271	54.1992	71.3	54.1992	71.2511	54.1992	71.2354	54.1992	71.1814	54.1992	71.1758	54.1992	71.1206	54.1992	71.1226	54.1992	71.0707	54.1992	71.0771	54.1992	71.033	54.1992	71.0405	54.1992	71.0084	54.1992	71.0143	54.1992	70.9973	54.1992	70.9995
55.6641	72.2733	55.6641	72.2574	55.6641	72.2758	55.6641	72.2284	55.6641	72.2648	55.6641	72.1875	55.6641	72.2406	55.6641	72.136	55.6641	72.2043	55.6641	72.0757	55.6641	72.1571	55.6641	72.009	55.6641	72.1008	55.6641	71.938	55.6641	72.0374	55.6641	71.8653	55.6641	71.9692	55.6641	71.7935	55.6641	71.8985	55.6641	71.7247	55.6641	71.8276	55.6641	71.6612	55.6641	71.7588	55.6641	71.6047	55.6641	71.6941	55.6641	71.5565	55.6641	71.6351	55.6641	71.5178	55.6641	71.5833	55.6641	71.4891	55.6641	71.5399	55.6641	71.471	55.6641	71.5056	55.6641	71.4637	55.6641	71.4812	55.6641	71.4672
58.5938	73.1844	58.5938	73.1726	58.5938	73.182	58.5938	73.1472	58.5938	73.1657	58.5938	73.109	58.5938	73.136	58.5938	73.0594	58.5938	73.0939	58.5938	73.0003	58.5938	73.0411	58.5938	72.9338	58.5938	72.9795	58.5938	72.8623	58.5938	72.9113	58.5938	72.7883	58.5938	72.8389	58.5938	72.7145	58.5938	72.765	58.5938	72.6431	58.5938	72.6919	58.5938	72.5765	58.5938	72.622	58.5938	72.5165	58.5938	72.5574	58.5938	72.4644	58.5938	72.4998	58.5938	72.4215	58.5938	72.4505	58.5938	72.3884	58.5938	72.4105	58.5938	72.3657	58.5938	72.3805	58.5938	72.3534	58.5938	72.3609	58.5938	72.3518
60.0586	73.6167	60.0586	73.6045	60.0586	73.6144	60.0586	73.5785	60.0586	73.598	60.0586	73.5395	60.0586	73.5678	60.0586	73.4892	60.0586	73.5252	60.0586	73.4293	60.0586	73.4716	60.0586	73.3622	60.0586	73.4091	60.0586	73.2903	60.0586	73.3401	60.0586	73.2163	60.0586	73.2671	60.0586	73.1428	60.0586	73.1927	60.0586	73.0722	60.0586	73.1195	60.0586	73.0066	60.0586	73.0499	60.0586	72.9479	60.0586	72.986	60.0586	72.8972	60.0586	72.9294	60.0586	72.8556	60.0586	72.8814	60.0586	72.8235	60.0586	72.8428	60.0586	72.8014	60.0586	72.8142	60.0586	72.7894	60.0586	72.7957	60.0586	72.7874
62.9883	74.406	62.9883	74.3918	62.9883	74.4052	62.9883	74.3633	62.9883	74.3897	62.9883	74.3213	62.9883	74.3601	62.9883	74.2674	62.9883	74.3177	62.9883	74.2038	62.9883	74.2641	62.9883	74.1328	62.9883	74.2016	62.9883	74.0572	62.9883	74.1325	62.9883	73.9799	62.9883	74.0596	62.9883	73.9038	62.9883	73.9855	62.9883	73.8316	62.9883	73.9127	62.9883	73.7657	62.9883	73.8437	62.9883	73.7078	62.9883	73.7802	62.9883	73.6593	62.9883	73.7238	62.9883	73.6211	62.9883	73.6754	62.9883	73.5933	62.9883	73.6357	62.9883	73.5759	62.9883	73.6051	62.9883	73.5687	62.9883	73.5836	62.9883	73.5714
64.4531	74.7841	64.4531	74.771	64.4531	74.7818	64.4531	74.7429	64.4531	74.7644	64.4531	74.7009	64.4531	74.7324	64.4531	74.6465	64.4531	74.6873	64.4531	74.5818	64.4531	74.6308	64.4531	74.5093	64.4531	74.5651	64.4531	74.4316	64.4531	74.4928	64.4531	74.3518	64.4531	74.4165	64.4531	74.2727	64.4531	74.3391	64.4531	74.1973	64.4531	74.2632	64.4531	74.1278	64.4531	74.1913	64.4531	74.0663	64.4531	74.1253	64.4531	74.0142	64.4531	74.0669	64.4531	73.9725	64.4531	74.0171	64.4531	73.9416	64.4531	73.9766	64.4531	73.9216	64.4531	73.9457	64.4531	73.9123	64.4531	73.9245	64.4531	73.9133
67.3828	75.6298	67.3828	75.6181	67.3828	75.6262	67.3828	75.5915	67.3828	75.6073	67.3828	75.5509	67.3828	75.5739	67.3828	75.498	67.3828	75.5275	67.3828	75.4347	67.3828	75.4696	67.3828	75.3636	67.3828	75.4027	67.3828	75.2872	67.3828	75.3293	67.3828	75.2086	67.3828	75.2522	67.3828	75.1307	67.3828	75.1742	67.3828	75.056	67.3828	75.0981	67.3828	74.9869	67.3828	75.0263	67.3828	74.9255	67.3828	74.9609	67.3828	74.8729	67.3828	74.9035	67.3828	74.8302	67.3828	74.8552	67.3828	74.7976	67.3828	74.8166	67.3828	74.7754	67.3828	74.7882	67.3828	74.7634	67.3828	74.7699	67.3828	74.7616
