"SPL Vertical"
"On-Axis"		"10°"		"-10°"		"20°"		"-20°"		"30°"		"-30°"		"40°"		"-40°"		"50°"		"-50°"		"60°"		"-60°"		"70°"		"-70°"		"80°"		"-80°"		"90°"		"-90°"		"100°"		"-100°"		"110°"		"-110°"		"120°"		"-120°"		"130°"		"-130°"		"140°"		"-140°"		"150°"		"-150°"		"160°"		"-160°"		"170°"		"-170°"		"180°"
"Frequency / Hz"	"Sound Pressure Level / dB (re 20 µPa/V)  [2.83V at 1m]"	"Frequency / Hz"	"Sound Pressure Level / dB (re 20 µPa/V)  [2.83V at 1m]"	"Frequency / Hz"	"Sound Pressure Level / dB (re 20 µPa/V)  [2.83V at 1m]"	"Frequency / Hz"	"Sound Pressure Level / dB (re 20 µPa/V)  [2.83V at 1m]"	"Frequency / Hz"	"Sound Pressure Level / dB (re 20 µPa/V)  [2.83V at 1m]"	"Frequency / Hz"	"Sound Pressure Level / dB (re 20 µPa/V)  [2.83V at 1m]"	"Frequency / Hz"	"Sound Pressure Level / dB (re 20 µPa/V)  [2.83V at 1m]"	"Frequency / Hz"	"Sound Pressure Level / dB (re 20 µPa/V)  [2.83V at 1m]"	"Frequency / Hz"	"Sound Pressure Level / dB (re 20 µPa/V)  [2.83V at 1m]"	"Frequency / Hz"	"Sound Pressure Level / dB (re 20 µPa/V)  [2.83V at 1m]"	"Frequency / Hz"	"Sound Pressure Level / dB (re 20 µPa/V)  [2.83V at 1m]"	"Frequency / Hz"	"Sound Pressure Level / dB (re 20 µPa/V)  [2.83V at 1m]"	"Frequency / Hz"	"Sound Pressure Level / dB (re 20 µPa/V)  [2.83V at 1m]"	"Frequency / Hz"	"Sound Pressure Level / dB (re 20 µPa/V)  [2.83V at 1m]"	"Frequency / Hz"	"Sound Pressure Level / dB (re 20 µPa/V)  [2.83V at 1m]"	"Frequency / Hz"	"Sound Pressure Level / dB (re 20 µPa/V)  [2.83V at 1m]"	"Frequency / Hz"	"Sound Pressure Level / dB (re 20 µPa/V)  [2.83V at 1m]"	"Frequency / Hz"	"Sound Pressure Level / dB (re 20 µPa/V)  [2.83V at 1m]"	"Frequency / Hz"	"Sound Pressure Level / dB (re 20 µPa/V)  [2.83V at 1m]"	"Frequency / Hz"	"Sound Pressure Level / dB (re 20 µPa/V)  [2.83V at 1m]"	"Frequency / Hz"	"Sound Pressure Level / dB (re 20 µPa/V)  [2.83V at 1m]"	"Frequency / Hz"	"Sound Pressure Level / dB (re 20 µPa/V)  [2.83V at 1m]"	"Frequency / Hz"	"Sound Pressure Level / dB (re 20 µPa/V)  [2.83V at 1m]"	"Frequency / Hz"	"Sound Pressure Level / dB (re 20 µPa/V)  [2.83V at 1m]"	"Frequency / Hz"	"Sound Pressure Level / dB (re 20 µPa/V)  [2.83V at 1m]"	"Frequency / Hz"	"Sound Pressure Level / dB (re 20 µPa/V)  [2.83V at 1m]"	"Frequency / Hz"	"Sound Pressure Level / dB (re 20 µPa/V)  [2.83V at 1m]"	"Frequency / Hz"	"Sound Pressure Level / dB (re 20 µPa/V)  [2.83V at 1m]"	"Frequency / Hz"	"Sound Pressure Level / dB (re 20 µPa/V)  [2.83V at 1m]"	"Frequency / Hz"	"Sound Pressure Level / dB (re 20 µPa/V)  [2.83V at 1m]"	"Frequency / Hz"	"Sound Pressure Level / dB (re 20 µPa/V)  [2.83V at 1m]"	"Frequency / Hz"	"Sound Pressure Level / dB (re 20 µPa/V)  [2.83V at 1m]"	"Frequency / Hz"	"Sound Pressure Level / dB (re 20 µPa/V)  [2.83V at 1m]"	"Frequency / Hz"	"Sound Pressure Level / dB (re 20 µPa/V)  [2.83V at 1m]"	"Frequency / Hz"	"Sound Pressure Level / dB (re 20 µPa/V)  [2.83V at 1m]"	"Frequency / Hz"	"Sound Pressure Level / dB (re 20 µPa/V)  [2.83V at 1m]"
20.5078	57.7493	20.5078	57.574	20.5078	57.9247	20.5078	57.4027	20.5078	58.0955	20.5078	57.2394	20.5078	58.2569	20.5078	57.0874	20.5078	58.4038	20.5078	56.95	20.5078	58.5308	20.5078	56.8298	20.5078	58.6328	20.5078	56.7297	20.5078	58.7049	20.5078	56.6518	20.5078	58.743	20.5078	56.5983	20.5078	58.7441	20.5078	56.5711	20.5078	58.7064	20.5078	56.5718	20.5078	58.63	20.5078	56.6015	20.5078	58.5164	20.5078	56.6611	20.5078	58.3694	20.5078	56.7507	20.5078	58.1946	20.5078	56.8696	20.5078	57.9993	20.5078	57.016	20.5078	57.7921	20.5078	57.187	20.5078	57.582	20.5078	57.3777
21.9727	57.7284	21.9727	57.5868	21.9727	57.8683	21.9727	57.4472	21.9727	58.0027	21.9727	57.3128	21.9727	58.1275	21.9727	57.1867	21.9727	58.2382	21.9727	57.0715	21.9727	58.3306	21.9727	56.9698	21.9727	58.4006	21.9727	56.8836	21.9727	58.4446	21.9727	56.8151	21.9727	58.4599	21.9727	56.7659	21.9727	58.4448	21.9727	56.7375	21.9727	58.399	21.9727	56.7311	21.9727	58.3235	21.9727	56.7476	21.9727	58.2208	21.9727	56.7874	21.9727	58.0946	21.9727	56.8505	21.9727	57.9501	21.9727	56.9365	21.9727	57.7933	21.9727	57.0439	21.9727	57.6307	21.9727	57.1707	21.9727	57.4688	21.9727	57.3137
23.4375	57.7259	23.4375	57.5771	23.4375	57.8669	23.4375	57.4238	23.4375	57.9966	23.4375	57.2693	23.4375	58.1113	23.4375	57.1166	23.4375	58.2074	23.4375	56.9688	23.4375	58.281	23.4375	56.8288	23.4375	58.3286	23.4375	56.6994	23.4375	58.3469	23.4375	56.5837	23.4375	58.3332	23.4375	56.4845	23.4375	58.2855	23.4375	56.4049	23.4375	58.2032	23.4375	56.3477	23.4375	58.0869	23.4375	56.3161	23.4375	57.9391	23.4375	56.3127	23.4375	57.7646	23.4375	56.3402	23.4375	57.57	23.4375	56.4004	23.4375	57.364	23.4375	56.494	23.4375	57.1567	23.4375	56.6204	23.4375	56.9578	23.4375	56.7766
24.9023	59.202	24.9023	59.0784	24.9023	59.32	24.9023	58.9525	24.9023	59.429	24.9023	58.8273	24.9023	59.5257	24.9023	58.7056	24.9023	59.6067	24.9023	58.5901	24.9023	59.6689	24.9023	58.4834	24.9023	59.7094	24.9023	58.3878	24.9023	59.726	24.9023	58.3054	24.9023	59.717	24.9023	58.2383	24.9023	59.6816	24.9023	58.1884	24.9023	59.6199	24.9023	58.1574	24.9023	59.5331	24.9023	58.147	24.9023	59.4235	24.9023	58.1586	24.9023	59.2947	24.9023	58.193	24.9023	59.1515	24.9023	58.2509	24.9023	58.9997	24.9023	58.3321	24.9023	58.8458	24.9023	58.4353	24.9023	58.6966	24.9023	58.558
26.3672	60.0681	26.3672	59.9544	26.3672	60.1737	26.3672	59.836	26.3672	60.2681	26.3672	59.7158	26.3672	60.3479	26.3672	59.5967	26.3672	60.41	26.3672	59.4816	26.3672	60.4515	26.3672	59.3729	26.3672	60.4701	26.3672	59.2731	26.3672	60.464	26.3672	59.1843	26.3672	60.4325	26.3672	59.1087	26.3672	60.3758	26.3672	59.0482	26.3672	60.2953	26.3672	59.0045	26.3672	60.1935	26.3672	58.9792	26.3672	60.0739	26.3672	58.9738	26.3672	59.9411	26.3672	58.9895	26.3672	59.8001	26.3672	59.0268	26.3672	59.6566	26.3672	59.0861	26.3672	59.5165	26.3672	59.1667	26.3672	59.3851	26.3672	59.2673
27.832	60.6889	27.832	60.5783	27.832	60.7913	27.832	60.4627	27.832	60.882	27.832	60.3454	27.832	60.9577	27.832	60.2294	27.832	61.0151	27.832	60.1176	27.832	61.0515	27.832	60.0124	27.832	61.0646	27.832	59.9163	27.832	61.0528	27.832	59.8313	27.832	61.0158	27.832	59.7593	27.832	60.9542	27.832	59.702	27.832	60.8698	27.832	59.6607	27.832	60.7658	27.832	59.6366	27.832	60.6463	27.832	59.6308	27.832	60.5161	27.832	59.644	27.832	60.3807	27.832	59.6766	27.832	60.2455	27.832	59.7288	27.832	60.1157	27.832	59.8002	27.832	59.9959	27.832	59.8898
29.2969	61.5341	29.2969	61.4206	29.2969	61.6392	29.2969	61.302	29.2969	61.7324	29.2969	61.1815	29.2969	61.8105	29.2969	61.0621	29.2969	61.8701	29.2969	60.9466	29.2969	61.9084	29.2969	60.8378	29.2969	61.9232	29.2969	60.7379	29.2969	61.9128	29.2969	60.6492	29.2969	61.8767	29.2969	60.5736	29.2969	61.8154	29.2969	60.5131	29.2969	61.7305	29.2969	60.4691	29.2969	61.6251	29.2969	60.4431	29.2969	61.503	29.2969	60.4364	29.2969	61.369	29.2969	60.4499	29.2969	61.2286	29.2969	60.4843	29.2969	61.0874	29.2969	60.5398	29.2969	60.9509	29.2969	60.6159	29.2969	60.8242	29.2969	60.7114
30.7617	62.3509	30.7617	62.2447	30.7617	62.4502	30.7617	62.1346	30.7617	62.5393	30.7617	62.0237	30.7617	62.6151	30.7617	61.9151	30.7617	62.6746	30.7617	61.8112	30.7617	62.7153	30.7617	61.7148	30.7617	62.7351	30.7617	61.6278	30.7617	62.7327	30.7617	61.5525	30.7617	62.7075	30.7617	61.4905	30.7617	62.66	30.7617	61.4433	30.7617	62.5915	30.7617	61.4123	30.7617	62.5043	30.7617	61.3985	30.7617	62.4017	30.7617	61.4028	30.7617	62.2873	30.7617	61.4255	30.7617	62.1655	30.7617	61.4668	30.7617	62.041	30.7617	61.5264	30.7617	61.9185	30.7617	61.6034	30.7617	61.8022	30.7617	61.6961
32.2266	62.999	32.2266	62.8957	32.2266	63.0946	32.2266	62.788	32.2266	63.1794	32.2266	62.679	32.2266	63.2502	32.2266	62.5718	32.2266	63.3043	32.2266	62.4691	32.2266	63.3393	32.2266	62.3736	32.2266	63.3535	32.2266	62.2875	32.2266	63.3459	32.2266	62.2129	32.2266	63.3164	32.2266	62.1516	32.2266	63.266	32.2266	62.1052	32.2266	63.1964	32.2266	62.0747	32.2266	63.1102	32.2266	62.0612	32.2266	63.0106	32.2266	62.0653	32.2266	62.9011	32.2266	62.0873	32.2266	62.7858	32.2266	62.127	32.2266	62.6686	32.2266	62.1839	32.2266	62.5535	32.2266	62.257	32.2266	62.4444	32.2266	62.3446
33.6914	63.6781	33.6914	63.5765	33.6914	63.7704	33.6914	63.4691	33.6914	63.8504	33.6914	63.3589	33.6914	63.915	33.6914	63.249	33.6914	63.9615	33.6914	63.1423	33.6914	63.9876	33.6914	63.0414	33.6914	63.9918	33.6914	62.9488	33.6914	63.9733	33.6914	62.8665	33.6914	63.9323	33.6914	62.7966	33.6914	63.8701	33.6914	62.7406	33.6914	63.7886	33.6914	62.6998	33.6914	63.6911	33.6914	62.6755	33.6914	63.5811	33.6914	62.6685	33.6914	63.4629	33.6914	62.6794	33.6914	63.341	33.6914	62.7084	33.6914	63.2198	33.6914	62.7555	33.6914	63.1036	33.6914	62.82	33.6914	62.9962	33.6914	62.9008
35.1562	64.4222	35.1562	64.3223	35.1562	64.5136	35.1562	64.2169	35.1562	64.5932	35.1562	64.1095	35.1562	64.6581	35.1562	64.0029	35.1562	64.7054	35.1562	63.9	35.1562	64.733	35.1562	63.8035	35.1562	64.7393	35.1562	63.7156	35.1562	64.7236	35.1562	63.6385	35.1562	64.6862	35.1562	63.5739	35.1562	64.6281	35.1562	63.5233	35.1562	64.5514	35.1562	63.4879	35.1562	64.4592	35.1562	63.4686	35.1562	64.355	35.1562	63.466	35.1562	64.2429	35.1562	63.4805	35.1562	64.127	35.1562	63.5122	35.1562	64.0115	35.1562	63.5606	35.1562	63.9003	35.1562	63.6251	35.1562	63.797	35.1562	63.7045
36.6211	64.9383	36.6211	64.8409	36.6211	65.0264	36.6211	64.7376	36.6211	65.1021	36.6211	64.6315	36.6211	65.1623	36.6211	64.5259	36.6211	65.2045	36.6211	64.4237	36.6211	65.2267	36.6211	64.3276	36.6211	65.2276	36.6211	64.24	36.6211	65.2067	36.6211	64.1631	36.6211	65.1646	36.6211	64.0986	36.6211	65.1029	36.6211	64.0479	36.6211	65.024	36.6211	64.0122	36.6211	64.931	36.6211	63.9922	36.6211	64.8277	36.6211	63.9884	36.6211	64.7181	36.6211	64.001	36.6211	64.6063	36.6211	64.0298	36.6211	64.4961	36.6211	64.0744	36.6211	64.3911	36.6211	64.1341	36.6211	64.2942	36.6211	64.2078
38.0859	65.8231	38.0859	65.728	38.0859	65.9086	38.0859	65.6266	38.0859	65.9816	38.0859	65.5222	38.0859	66.0389	38.0859	65.4178	38.0859	66.0781	38.0859	65.3163	38.0859	66.0973	38.0859	65.2205	38.0859	66.0952	38.0859	65.1326	38.0859	66.0715	38.0859	65.0548	38.0859	66.0269	38.0859	64.9889	38.0859	65.9629	38.0859	64.9363	38.0859	65.8822	38.0859	64.8982	38.0859	65.788	38.0859	64.8754	38.0859	65.6841	38.0859	64.8685	38.0859	65.5745	38.0859	64.8778	38.0859	65.4633	38.0859	64.9032	38.0859	65.3542	38.0859	64.9445	38.0859	65.2507	38.0859	65.0011	38.0859	65.1559	38.0859	65.072
39.5508	66.3633	39.5508	66.2691	39.5508	66.4477	39.5508	66.1683	39.5508	66.519	39.5508	66.0642	39.5508	66.5744	39.5508	65.9599	39.5508	66.6114	39.5508	65.8583	39.5508	66.6281	39.5508	65.7623	39.5508	66.6234	39.5508	65.6741	39.5508	66.5971	39.5508	65.596	39.5508	66.5501	39.5508	65.5296	39.5508	66.4841	39.5508	65.4766	39.5508	66.402	39.5508	65.4379	39.5508	66.3071	39.5508	65.4145	39.5508	66.2033	39.5508	65.4068	39.5508	66.0946	39.5508	65.415	39.5508	65.9849	39.5508	65.4392	39.5508	65.8778	39.5508	65.479	39.5508	65.7767	39.5508	65.5338	39.5508	65.6842	39.5508	65.6026
41.0156	66.9592	41.0156	66.8667	41.0156	67.0413	41.0156	66.767	41.0156	67.1098	41.0156	66.6634	41.0156	67.1619	41.0156	66.5592	41.0156	67.1951	41.0156	66.4573	41.0156	67.2077	41.0156	66.3605	41.0156	67.1986	41.0156	66.2712	41.0156	67.1681	41.0156	66.1916	41.0156	67.1169	41.0156	66.1236	41.0156	67.0474	41.0156	66.0685	41.0156	66.9622	41.0156	66.0276	41.0156	66.8651	41.0156	66.0017	41.0156	66.76	41.0156	65.9912	41.0156	66.651	41.0156	65.9965	41.0156	66.5421	41.0156	66.0175	41.0156	66.4367	41.0156	66.0538	41.0156	66.338	41.0156	66.1051	41.0156	66.2485	41.0156	66.1704
42.4805	67.5861	42.4805	67.4929	42.4805	67.6684	42.4805	67.3922	42.4805	67.7367	42.4805	67.2873	42.4805	67.7879	42.4805	67.1815	42.4805	67.8198	42.4805	67.0778	42.4805	67.8304	42.4805	66.9792	42.4805	67.8189	42.4805	66.8881	42.4805	67.7854	42.4805	66.8067	42.4805	67.7311	42.4805	66.7368	42.4805	67.6581	42.4805	66.68	42.4805	67.5695	42.4805	66.6374	42.4805	67.4691	42.4805	66.6097	42.4805	67.3611	42.4805	66.5975	42.4805	67.2498	42.4805	66.6009	42.4805	67.1391	42.4805	66.6201	42.4805	67.0328	42.4805	66.6547	42.4805	66.934	42.4805	66.7042	42.4805	66.8451	42.4805	66.768
43.9453	68.1774	43.9453	68.0842	43.9453	68.2588	43.9453	67.9828	43.9453	68.3253	43.9453	67.8764	43.9453	68.374	43.9453	67.7685	43.9453	68.4024	43.9453	67.6621	43.9453	68.4089	43.9453	67.5601	43.9453	68.3926	43.9453	67.4653	43.9453	68.3538	43.9453	67.3798	43.9453	68.2939	43.9453	67.3056	43.9453	68.2152	43.9453	67.2443	43.9453	68.1213	43.9453	67.1971	43.9453	68.016	43.9453	67.165	43.9453	67.9037	43.9453	67.1486	43.9453	67.789	43.9453	67.1481	43.9453	67.6759	43.9453	67.1636	43.9453	67.568	43.9453	67.1951	43.9453	67.4686	43.9453	67.2421	43.9453	67.38	43.9453	67.3041
45.4102	68.6731	45.4102	68.5815	45.4102	68.7532	45.4102	68.4816	45.4102	68.8185	45.4102	68.3768	45.4102	68.8662	45.4102	68.2702	45.4102	68.894	45.4102	68.1651	45.4102	68.9001	45.4102	68.0641	45.4102	68.8838	45.4102	67.9699	45.4102	68.8452	45.4102	67.8848	45.4102	68.7855	45.4102	67.8106	45.4102	68.7071	45.4102	67.749	45.4102	68.6133	45.4102	67.7012	45.4102	68.5081	45.4102	67.6681	45.4102	68.3958	45.4102	67.6504	45.4102	68.281	45.4102	67.6485	45.4102	68.1679	45.4102	67.6625	45.4102	68.0603	45.4102	67.6924	45.4102	67.9613	45.4102	67.7379	45.4102	67.8734	45.4102	67.7986
46.875	69.229	46.875	69.1389	46.875	69.3076	46.875	69.0406	46.875	69.3716	46.875	68.9375	46.875	69.4182	46.875	68.8326	46.875	69.4452	46.875	68.729	46.875	69.4509	46.875	68.6297	46.875	69.4347	46.875	68.537	46.875	69.3966	46.875	68.4533	46.875	69.3381	46.875	68.3803	46.875	69.2614	46.875	68.3197	46.875	69.1696	46.875	68.2726	46.875	69.0665	46.875	68.2399	46.875	68.9563	46.875	68.2223	46.875	68.8433	46.875	68.2202	46.875	68.7317	46.875	68.2337	46.875	68.6255	46.875	68.2628	46.875	68.5277	46.875	68.3075	46.875	68.4409	46.875	68.3671
48.3398	69.6032	48.3398	69.5166	48.3398	69.6793	48.3398	69.4229	48.3398	69.7421	48.3398	69.3251	48.3398	69.789	48.3398	69.2266	48.3398	69.8178	48.3398	69.1302	48.3398	69.8272	48.3398	69.0389	48.3398	69.8166	48.3398	68.9549	48.3398	69.7864	48.3398	68.8806	48.3398	69.7377	48.3398	68.8175	48.3398	69.6728	48.3398	68.7671	48.3398	69.5944	48.3398	68.7304	48.3398	69.5057	48.3398	68.7079	48.3398	69.4101	48.3398	68.7001	48.3398	69.3113	48.3398	68.7068	48.3398	69.2124	48.3398	68.7279	48.3398	69.1166	48.3398	68.763	48.3398	69.0265	48.3398	68.8114	48.3398	68.9445	48.3398	68.8723
51.2695	70.9084	51.2695	70.8199	51.2695	70.9845	51.2695	70.7222	51.2695	71.0451	51.2695	70.6189	51.2695	71.0877	51.2695	70.5135	51.2695	71.1101	51.2695	70.4091	51.2695	71.1114	51.2695	70.3091	51.2695	71.0912	51.2695	70.2161	51.2695	71.0504	51.2695	70.1327	51.2695	70.9908	51.2695	70.061	51.2695	70.915	51.2695	70.0026	51.2695	70.8265	51.2695	69.9586	51.2695	70.729	51.2695	69.9301	51.2695	70.6263	51.2695	69.9171	51.2695	70.5221	51.2695	69.9199	51.2695	70.4197	51.2695	69.938	51.2695	70.322	51.2695	69.9709	51.2695	70.2311	51.2695	70.0177	51.2695	70.1491	51.2695	70.0775
52.7344	71.4277	52.7344	71.3397	52.7344	71.5028	52.7344	71.2421	52.7344	71.5619	52.7344	71.1382	52.7344	71.6024	52.7344	71.0316	52.7344	71.6222	52.7344	70.9254	52.7344	71.6202	52.7344	70.8228	52.7344	71.5961	52.7344	70.7264	52.7344	71.5506	52.7344	70.6387	52.7344	71.4854	52.7344	70.5618	52.7344	71.4033	52.7344	70.4973	52.7344	71.3077	52.7344	70.4465	52.7344	71.2025	52.7344	70.4104	52.7344	71.0919	52.7344	70.3897	52.7344	70.98	52.7344	70.3845	52.7344	70.8706	52.7344	70.3951	52.7344	70.7673	52.7344	70.4213	52.7344	70.6729	52.7344	70.4629	52.7344	70.5897	52.7344	70.5193
54.1992	71.8682	54.1992	71.7788	54.1992	71.9453	54.1992	71.6806	54.1992	72.0071	54.1992	71.5769	54.1992	72.0509	54.1992	71.4712	54.1992	72.0746	54.1992	71.3666	54.1992	72.0768	54.1992	71.2662	54.1992	72.0571	54.1992	71.1726	54.1992	72.016	54.1992	71.0881	54.1992	71.9552	54.1992	71.0147	54.1992	71.8771	54.1992	70.9539	54.1992	71.7849	54.1992	70.9069	54.1992	71.6825	54.1992	70.8745	54.1992	71.5739	54.1992	70.8572	54.1992	71.4632	54.1992	70.8552	54.1992	71.3544	54.1992	70.8687	54.1992	71.251	54.1992	70.8975	54.1992	71.1559	54.1992	70.9413	54.1992	71.0715	54.1992	70.9995
55.6641	72.2733	55.6641	72.1845	55.6641	72.3503	55.6641	72.0871	55.6641	72.4121	55.6641	71.9846	55.6641	72.4564	55.6641	71.8804	55.6641	72.4809	55.6641	71.7779	55.6641	72.4845	55.6641	71.68	55.6641	72.4669	55.6641	71.5896	55.6641	72.4286	55.6641	71.509	55.6641	72.3715	55.6641	71.4401	55.6641	72.298	55.6641	71.3845	55.6641	72.2114	55.6641	71.3431	55.6641	72.1155	55.6641	71.3167	55.6641	72.014	55.6641	71.3054	55.6641	71.9105	55.6641	71.3093	55.6641	71.8085	55.6641	71.328	55.6641	71.711	55.6641	71.361	55.6641	71.6202	55.6641	71.4077	55.6641	71.5385	55.6641	71.4672
58.5938	73.1844	58.5938	73.0942	58.5938	73.2621	58.5938	72.9951	58.5938	73.3243	58.5938	72.8905	58.5938	73.3683	58.5938	72.7839	58.5938	73.3921	58.5938	72.6788	58.5938	73.3946	58.5938	72.5783	58.5938	73.3754	58.5938	72.4852	58.5938	73.3352	58.5938	72.402	58.5938	73.2759	58.5938	72.3307	58.5938	73.2001	58.5938	72.273	58.5938	73.111	58.5938	72.2299	58.5938	73.0125	58.5938	72.202	58.5938	72.9085	58.5938	72.1898	58.5938	72.8028	58.5938	72.193	58.5938	72.6987	58.5938	72.2115	58.5938	72.5993	58.5938	72.2446	58.5938	72.5071	58.5938	72.2917	58.5938	72.424	58.5938	72.3518
60.0586	73.6167	60.0586	73.5264	60.0586	73.6943	60.0586	73.427	60.0586	73.7563	60.0586	73.322	60.0586	73.8001	60.0586	73.2148	60.0586	73.8237	60.0586	73.109	60.0586	73.8259	60.0586	73.0077	60.0586	73.8067	60.0586	72.9138	60.0586	73.7668	60.0586	72.8299	60.0586	73.708	60.0586	72.758	60.0586	73.633	60.0586	72.6998	60.0586	73.5452	60.0586	72.6565	60.0586	73.4482	60.0586	72.6288	60.0586	73.3457	60.0586	72.6171	60.0586	73.2412	60.0586	72.6213	60.0586	73.138	60.0586	72.6412	60.0586	73.0387	60.0586	72.6761	60.0586	72.9459	60.0586	72.7252	60.0586	72.8615	60.0586	72.7874
62.9883	74.406	62.9883	74.3166	62.9883	74.4821	62.9883	74.2173	62.9883	74.5418	62.9883	74.1118	62.9883	74.5828	62.9883	74.0035	62.9883	74.6032	62.9883	73.8962	62.9883	74.6021	62.9883	73.7932	62.9883	74.5798	62.9883	73.6976	62.9883	74.5372	62.9883	73.6121	62.9883	74.4765	62.9883	73.5389	62.9883	74.4007	62.9883	73.4799	62.9883	74.313	62.9883	73.4362	62.9883	74.2172	62.9883	73.4087	62.9883	74.1168	62.9883	73.3977	62.9883	74.015	62.9883	73.4028	62.9883	73.9146	62.9883	73.4238	62.9883	73.8181	62.9883	73.4596	62.9883	73.7275	62.9883	73.5092	62.9883	73.6447	62.9883	73.5714
64.4531	74.7841	64.4531	74.6971	64.4531	74.8571	64.4531	74.5996	64.4531	74.9132	64.4531	74.495	64.4531	74.95	64.4531	74.3871	64.4531	74.9657	64.4531	74.2795	64.4531	74.9598	64.4531	74.1755	64.4531	74.9323	64.4531	74.0784	64.4531	74.8847	64.4531	73.9907	64.4531	74.8192	64.4531	73.915	64.4531	74.7391	64.4531	73.8529	64.4531	74.6479	64.4531	73.8059	64.4531	74.5495	64.4531	73.7747	64.4531	74.4475	64.4531	73.7598	64.4531	74.3453	64.4531	73.7609	64.4531	74.2456	64.4531	73.7777	64.4531	74.1508	64.4531	73.8095	64.4531	74.0627	64.4531	73.855	64.4531	73.983	64.4531	73.9133
67.3828	75.6298	67.3828	75.5422	67.3828	75.704	67.3828	75.4445	67.3828	75.7616	67.3828	75.3402	67.3828	75.8001	67.3828	75.2331	67.3828	75.8178	67.3828	75.1265	67.3828	75.8138	67.3828	75.0239	67.3828	75.7881	67.3828	74.9282	67.3828	75.742	67.3828	74.842	67.3828	75.6775	67.3828	74.7675	67.3828	75.5978	67.3828	74.7063	67.3828	75.5063	67.3828	74.6597	67.3828	75.407	67.3828	74.6285	67.3828	75.3035	67.3828	74.6129	67.3828	75.1994	67.3828	74.6132	67.3828	75.0977	67.3828	74.6288	67.3828	75.0011	67.3828	74.6593	67.3828	74.9116	67.3828	74.7039	67.3828	74.8313	67.3828	74.7616
