"SPL Horizontal"
"On-Axis"		"10°"		"-10°"		"20°"		"-20°"		"30°"		"-30°"		"40°"		"-40°"		"50°"		"-50°"		"60°"		"-60°"		"70°"		"-70°"		"80°"		"-80°"		"90°"		"-90°"		"100°"		"-100°"		"110°"		"-110°"		"120°"		"-120°"		"130°"		"-130°"		"140°"		"-140°"		"150°"		"-150°"		"160°"		"-160°"		"170°"		"-170°"		"180°"
"Frequency / Hz"	"Sound Pressure Level / dB (re 20 µPa/V)  [2.83  V @ 1. m]"	"Frequency / Hz"	"Sound Pressure Level / dB (re 20 µPa/V)  [2.83  V @ 1. m]"	"Frequency / Hz"	"Sound Pressure Level / dB (re 20 µPa/V)  [2.83  V @ 1. m]"	"Frequency / Hz"	"Sound Pressure Level / dB (re 20 µPa/V)  [2.83  V @ 1. m]"	"Frequency / Hz"	"Sound Pressure Level / dB (re 20 µPa/V)  [2.83  V @ 1. m]"	"Frequency / Hz"	"Sound Pressure Level / dB (re 20 µPa/V)  [2.83  V @ 1. m]"	"Frequency / Hz"	"Sound Pressure Level / dB (re 20 µPa/V)  [2.83  V @ 1. m]"	"Frequency / Hz"	"Sound Pressure Level / dB (re 20 µPa/V)  [2.83  V @ 1. m]"	"Frequency / Hz"	"Sound Pressure Level / dB (re 20 µPa/V)  [2.83  V @ 1. m]"	"Frequency / Hz"	"Sound Pressure Level / dB (re 20 µPa/V)  [2.83  V @ 1. m]"	"Frequency / Hz"	"Sound Pressure Level / dB (re 20 µPa/V)  [2.83  V @ 1. m]"	"Frequency / Hz"	"Sound Pressure Level / dB (re 20 µPa/V)  [2.83  V @ 1. m]"	"Frequency / Hz"	"Sound Pressure Level / dB (re 20 µPa/V)  [2.83  V @ 1. m]"	"Frequency / Hz"	"Sound Pressure Level / dB (re 20 µPa/V)  [2.83  V @ 1. m]"	"Frequency / Hz"	"Sound Pressure Level / dB (re 20 µPa/V)  [2.83  V @ 1. m]"	"Frequency / Hz"	"Sound Pressure Level / dB (re 20 µPa/V)  [2.83  V @ 1. m]"	"Frequency / Hz"	"Sound Pressure Level / dB (re 20 µPa/V)  [2.83  V @ 1. m]"	"Frequency / Hz"	"Sound Pressure Level / dB (re 20 µPa/V)  [2.83  V @ 1. m]"	"Frequency / Hz"	"Sound Pressure Level / dB (re 20 µPa/V)  [2.83  V @ 1. m]"	"Frequency / Hz"	"Sound Pressure Level / dB (re 20 µPa/V)  [2.83  V @ 1. m]"	"Frequency / Hz"	"Sound Pressure Level / dB (re 20 µPa/V)  [2.83  V @ 1. m]"	"Frequency / Hz"	"Sound Pressure Level / dB (re 20 µPa/V)  [2.83  V @ 1. m]"	"Frequency / Hz"	"Sound Pressure Level / dB (re 20 µPa/V)  [2.83  V @ 1. m]"	"Frequency / Hz"	"Sound Pressure Level / dB (re 20 µPa/V)  [2.83  V @ 1. m]"	"Frequency / Hz"	"Sound Pressure Level / dB (re 20 µPa/V)  [2.83  V @ 1. m]"	"Frequency / Hz"	"Sound Pressure Level / dB (re 20 µPa/V)  [2.83  V @ 1. m]"	"Frequency / Hz"	"Sound Pressure Level / dB (re 20 µPa/V)  [2.83  V @ 1. m]"	"Frequency / Hz"	"Sound Pressure Level / dB (re 20 µPa/V)  [2.83  V @ 1. m]"	"Frequency / Hz"	"Sound Pressure Level / dB (re 20 µPa/V)  [2.83  V @ 1. m]"	"Frequency / Hz"	"Sound Pressure Level / dB (re 20 µPa/V)  [2.83  V @ 1. m]"	"Frequency / Hz"	"Sound Pressure Level / dB (re 20 µPa/V)  [2.83  V @ 1. m]"	"Frequency / Hz"	"Sound Pressure Level / dB (re 20 µPa/V)  [2.83  V @ 1. m]"	"Frequency / Hz"	"Sound Pressure Level / dB (re 20 µPa/V)  [2.83  V @ 1. m]"	"Frequency / Hz"	"Sound Pressure Level / dB (re 20 µPa/V)  [2.83  V @ 1. m]"	"Frequency / Hz"	"Sound Pressure Level / dB (re 20 µPa/V)  [2.83  V @ 1. m]"	"Frequency / Hz"	"Sound Pressure Level / dB (re 20 µPa/V)  [2.83  V @ 1. m]"
20.5078	68.4932	20.5078	68.5127	20.5078	68.4816	20.5078	68.539	20.5078	68.4792	20.5078	68.5715	20.5078	68.4878	20.5078	68.6098	20.5078	68.5089	20.5078	68.6538	20.5078	68.5441	20.5078	68.7034	20.5078	68.5939	20.5078	68.7584	20.5078	68.6582	20.5078	68.8186	20.5078	68.7357	20.5078	68.8837	20.5078	68.824	20.5078	68.953	20.5078	68.9197	20.5078	69.0257	20.5078	69.0188	20.5078	69.1006	20.5078	69.1168	20.5078	69.1758	20.5078	69.2089	20.5078	69.2485	20.5078	69.2905	20.5078	69.3149	20.5078	69.3568	20.5078	69.3703	20.5078	69.4038	20.5078	69.4103	20.5078	69.4288	20.5078	69.4306
21.9727	65.5969	21.9727	65.646	21.9727	65.5445	21.9727	65.6917	21.9727	65.4894	21.9727	65.7336	21.9727	65.4322	21.9727	65.7712	21.9727	65.3746	21.9727	65.8034	21.9727	65.3187	21.9727	65.829	21.9727	65.2671	21.9727	65.8465	21.9727	65.2225	21.9727	65.8543	21.9727	65.1872	21.9727	65.8511	21.9727	65.1629	21.9727	65.8359	21.9727	65.1502	21.9727	65.8082	21.9727	65.1492	21.9727	65.7684	21.9727	65.159	21.9727	65.7179	21.9727	65.1786	21.9727	65.6588	21.9727	65.2071	21.9727	65.5941	21.9727	65.2437	21.9727	65.527	21.9727	65.288	21.9727	65.4606	21.9727	65.3395	21.9727	65.3974
23.4375	67.7307	23.4375	67.7534	23.4375	67.705	23.4375	67.7738	23.4375	67.6758	23.4375	67.7921	23.4375	67.6428	23.4375	67.8082	23.4375	67.6061	23.4375	67.8211	23.4375	67.5664	23.4375	67.8296	23.4375	67.5248	23.4375	67.8322	23.4375	67.4826	23.4375	67.8273	23.4375	67.4413	23.4375	67.8138	23.4375	67.4026	23.4375	67.7907	23.4375	67.3681	23.4375	67.7582	23.4375	67.3392	23.4375	67.717	23.4375	67.3176	23.4375	67.6684	23.4375	67.3048	23.4375	67.6146	23.4375	67.302	23.4375	67.558	23.4375	67.3101	23.4375	67.5014	23.4375	67.3294	23.4375	67.4478	23.4375	67.3597	23.4375	67.3997
24.9023	69.1838	24.9023	69.1881	24.9023	69.1759	24.9023	69.1884	24.9023	69.1648	24.9023	69.1842	24.9023	69.1509	24.9023	69.1751	24.9023	69.1346	24.9023	69.1608	24.9023	69.1163	24.9023	69.1413	24.9023	69.0964	24.9023	69.1169	24.9023	69.0753	24.9023	69.0882	24.9023	69.0532	24.9023	69.0563	24.9023	69.0306	24.9023	69.0227	24.9023	69.0077	24.9023	68.9889	24.9023	68.9849	24.9023	68.9568	24.9023	68.9626	24.9023	68.9279	24.9023	68.9412	24.9023	68.9038	24.9023	68.9212	24.9023	68.8855	24.9023	68.9032	24.9023	68.8736	24.9023	68.8879	24.9023	68.8684	24.9023	68.8764	24.9023	68.8695
26.3672	69.7332	26.3672	69.7269	26.3672	69.7351	26.3672	69.7161	26.3672	69.7324	26.3672	69.7006	26.3672	69.7251	26.3672	69.6802	26.3672	69.7132	26.3672	69.6551	26.3672	69.6966	26.3672	69.6253	26.3672	69.6754	26.3672	69.5912	26.3672	69.6497	26.3672	69.5537	26.3672	69.62	26.3672	69.5141	26.3672	69.5871	26.3672	69.4742	26.3672	69.5519	26.3672	69.4358	26.3672	69.5159	26.3672	69.401	26.3672	69.4804	26.3672	69.3717	26.3672	69.4467	26.3672	69.3493	26.3672	69.4159	26.3672	69.3344	26.3672	69.3887	26.3672	69.3272	26.3672	69.3657	26.3672	69.3274	26.3672	69.3474	26.3672	69.3344
27.832	69.9909	27.832	69.9948	27.832	69.9854	27.832	69.9968	27.832	69.9782	27.832	69.9965	27.832	69.9692	27.832	69.9931	27.832	69.9581	27.832	69.9858	27.832	69.9445	27.832	69.9735	27.832	69.9283	27.832	69.9558	27.832	69.9091	27.832	69.9322	27.832	69.8872	27.832	69.9031	27.832	69.8628	27.832	69.8693	27.832	69.8366	27.832	69.8324	27.832	69.8092	27.832	69.7945	27.832	69.7816	27.832	69.7581	27.832	69.7545	27.832	69.7256	27.832	69.7291	27.832	69.6992	27.832	69.7064	27.832	69.6803	27.832	69.6877	27.832	69.67	27.832	69.6746	27.832	69.6683
29.2969	71.2754	29.2969	71.2804	29.2969	71.2662	29.2969	71.2809	29.2969	71.2531	29.2969	71.2765	29.2969	71.2359	29.2969	71.2668	29.2969	71.2148	29.2969	71.2512	29.2969	71.1897	29.2969	71.2292	29.2969	71.1607	29.2969	71.2006	29.2969	71.1281	29.2969	71.1656	29.2969	71.0923	29.2969	71.1249	29.2969	71.0543	29.2969	71.0798	29.2969	71.0152	29.2969	71.0321	29.2969	70.9763	29.2969	70.9842	29.2969	70.9389	29.2969	70.9386	29.2969	70.9044	29.2969	70.8977	29.2969	70.8739	29.2969	70.8637	29.2969	70.8487	29.2969	70.8382	29.2969	70.8298	29.2969	70.8221	29.2969	70.8185	29.2969	70.8157
30.7617	72.1122	30.7617	72.1151	30.7617	72.1031	30.7617	72.1118	30.7617	72.088	30.7617	72.102	30.7617	72.0669	30.7617	72.0857	30.7617	72.0398	30.7617	72.0627	30.7617	72.0069	30.7617	72.0332	30.7617	71.9686	30.7617	71.9976	30.7617	71.9257	30.7617	71.9566	30.7617	71.8793	30.7617	71.9113	30.7617	71.8311	30.7617	71.8632	30.7617	71.7829	30.7617	71.8142	30.7617	71.7368	30.7617	71.7661	30.7617	71.6946	30.7617	71.721	30.7617	71.658	30.7617	71.6805	30.7617	71.6282	30.7617	71.6463	30.7617	71.606	30.7617	71.6191	30.7617	71.5919	30.7617	71.5999	30.7617	71.5862	30.7617	71.5888
32.2266	72.6139	32.2266	72.6184	32.2266	72.604	32.2266	72.617	32.2266	72.5887	32.2266	72.6096	32.2266	72.5682	32.2266	72.5956	32.2266	72.5425	32.2266	72.5749	32.2266	72.5118	32.2266	72.5473	32.2266	72.4761	32.2266	72.5131	32.2266	72.436	32.2266	72.4729	32.2266	72.3925	32.2266	72.4276	32.2266	72.3467	32.2266	72.3789	32.2266	72.3004	32.2266	72.3287	32.2266	72.2553	32.2266	72.2792	32.2266	72.2135	32.2266	72.2326	32.2266	72.1765	32.2266	72.191	32.2266	72.1458	32.2266	72.1561	32.2266	72.1223	32.2266	72.129	32.2266	72.1067	32.2266	72.1104	32.2266	72.0993	32.2266	72.1005
33.6914	73.4012	33.6914	73.4052	33.6914	73.3914	33.6914	73.4029	33.6914	73.3758	33.6914	73.3941	33.6914	73.3545	33.6914	73.3784	33.6914	73.3274	33.6914	73.3554	33.6914	73.2947	33.6914	73.3251	33.6914	73.2564	33.6914	73.2875	33.6914	73.213	33.6914	73.2434	33.6914	73.1652	33.6914	73.1939	33.6914	73.1142	33.6914	73.1406	33.6914	73.0617	33.6914	73.0855	33.6914	73.0098	33.6914	73.0308	33.6914	72.9607	33.6914	72.9788	33.6914	72.9166	33.6914	72.9318	33.6914	72.8795	33.6914	72.8916	33.6914	72.8509	33.6914	72.8598	33.6914	72.8319	33.6914	72.8373	33.6914	72.8232	33.6914	72.825
35.1562	74.1366	35.1562	74.1374	35.1562	74.1295	35.1562	74.1317	35.1562	74.1162	35.1562	74.119	35.1562	74.097	35.1562	74.0994	35.1562	74.072	35.1562	74.0726	35.1562	74.0412	35.1562	74.0389	35.1562	74.005	35.1562	73.9989	35.1562	73.9638	35.1562	73.9533	35.1562	73.9184	35.1562	73.9035	35.1562	73.8699	35.1562	73.8513	35.1562	73.8198	35.1562	73.7986	35.1562	73.7698	35.1562	73.7475	35.1562	73.722	35.1562	73.7002	35.1562	73.6783	35.1562	73.6585	35.1562	73.6406	35.1562	73.624	35.1562	73.6103	35.1562	73.5978	35.1562	73.5886	35.1562	73.5809	35.1562	73.5762	35.1562	73.5736
36.6211	74.7716	36.6211	74.7738	36.6211	74.7624	36.6211	74.7689	36.6211	74.7467	36.6211	74.7566	36.6211	74.7244	36.6211	74.7366	36.6211	74.696	36.6211	74.7089	36.6211	74.6616	36.6211	74.6737	36.6211	74.6216	36.6211	74.6316	36.6211	74.5766	36.6211	74.5836	36.6211	74.5277	36.6211	74.5311	36.6211	74.4761	36.6211	74.4759	36.6211	74.4234	36.6211	74.4202	36.6211	74.3716	36.6211	74.3662	36.6211	74.3225	36.6211	74.3161	36.6211	74.2782	36.6211	74.2717	36.6211	74.2404	36.6211	74.2347	36.6211	74.2106	36.6211	74.2062	36.6211	74.1898	36.6211	74.1871	36.6211	74.1788	36.6211	74.1779
38.0859	75.3492	38.0859	75.3496	38.0859	75.3412	38.0859	75.3423	38.0859	75.3258	38.0859	75.327	38.0859	75.3031	38.0859	75.3037	38.0859	75.2734	38.0859	75.2723	38.0859	75.2368	38.0859	75.2332	38.0859	75.1937	38.0859	75.1869	38.0859	75.1448	38.0859	75.1344	38.0859	75.0911	38.0859	75.0772	38.0859	75.034	38.0859	75.0171	38.0859	74.9754	38.0859	74.9563	38.0859	74.9173	38.0859	74.8971	38.0859	74.862	38.0859	74.8419	38.0859	74.8115	38.0859	74.793	38.0859	74.7681	38.0859	74.7522	38.0859	74.7332	38.0859	74.7211	38.0859	74.7083	38.0859	74.7007	38.0859	74.6943	38.0859	74.6917
39.5508	75.9179	39.5508	75.9161	39.5508	75.9135	39.5508	75.908	39.5508	75.9028	39.5508	75.8936	39.5508	75.8859	39.5508	75.8729	39.5508	75.8628	39.5508	75.8459	39.5508	75.8337	39.5508	75.8128	39.5508	75.7988	39.5508	75.774	39.5508	75.7587	39.5508	75.7302	39.5508	75.7142	39.5508	75.6825	39.5508	75.6666	39.5508	75.6324	39.5508	75.6172	39.5508	75.5816	39.5508	75.5679	39.5508	75.5322	39.5508	75.5203	39.5508	75.486	39.5508	75.4764	39.5508	75.4451	39.5508	75.4377	39.5508	75.4112	39.5508	75.4059	39.5508	75.3857	39.5508	75.3824	39.5508	75.3697	39.5508	75.3681	39.5508	75.3638
41.0156	76.467	41.0156	76.4608	41.0156	76.4686	41.0156	76.45	41.0156	76.4654	41.0156	76.4347	41.0156	76.4576	41.0156	76.415	41.0156	76.4449	41.0156	76.3913	41.0156	76.4276	41.0156	76.3641	41.0156	76.4057	41.0156	76.334	41.0156	76.3795	41.0156	76.3019	41.0156	76.3496	41.0156	76.269	41.0156	76.317	41.0156	76.2364	41.0156	76.2828	41.0156	76.2053	41.0156	76.2484	41.0156	76.1768	41.0156	76.2153	41.0156	76.1518	41.0156	76.1848	41.0156	76.1311	41.0156	76.158	41.0156	76.1154	41.0156	76.1357	41.0156	76.1049	41.0156	76.1185	41.0156	76.0998	41.0156	76.1067	41.0156	76.1004
42.4805	76.926	42.4805	76.9297	42.4805	76.9142	42.4805	76.925	42.4805	76.8948	42.4805	76.9118	42.4805	76.8684	42.4805	76.8903	42.4805	76.8356	42.4805	76.8606	42.4805	76.7972	42.4805	76.8236	42.4805	76.7545	42.4805	76.7805	42.4805	76.7087	42.4805	76.7328	42.4805	76.6615	42.4805	76.6826	42.4805	76.6147	42.4805	76.6322	42.4805	76.5702	42.4805	76.5837	42.4805	76.5298	42.4805	76.5393	42.4805	76.4948	42.4805	76.5006	42.4805	76.466	42.4805	76.4687	42.4805	76.4436	42.4805	76.444	42.4805	76.4273	42.4805	76.4264	42.4805	76.4166	42.4805	76.4155	42.4805	76.4111	42.4805	76.4106
43.9453	77.4811	43.9453	77.4817	43.9453	77.47	43.9453	77.4717	43.9453	77.4491	43.9453	77.4511	43.9453	77.4188	43.9453	77.4202	43.9453	77.3802	43.9453	77.3797	43.9453	77.3343	43.9453	77.3306	43.9453	77.2825	43.9453	77.2746	43.9453	77.2263	43.9453	77.2137	43.9453	77.1675	43.9453	77.1502	43.9453	77.1081	43.9453	77.0868	43.9453	77.0502	43.9453	77.0259	43.9453	76.9957	43.9453	76.97	43.9453	76.9462	43.9453	76.9208	43.9453	76.9032	43.9453	76.8796	43.9453	76.8674	43.9453	76.8472	43.9453	76.8393	43.9453	76.8238	43.9453	76.8193	43.9453	76.8096	43.9453	76.8076	43.9453	76.8042
45.4102	78.1356	45.4102	78.1355	45.4102	78.124	45.4102	78.1237	45.4102	78.1009	45.4102	78.1003	45.4102	78.0666	45.4102	78.0659	45.4102	78.0218	45.4102	78.0209	45.4102	77.9674	45.4102	77.9665	45.4102	77.9044	45.4102	77.9039	45.4102	77.8346	45.4102	77.8351	45.4102	77.7598	45.4102	77.7621	45.4102	77.6826	45.4102	77.6873	45.4102	77.6057	45.4102	77.6134	45.4102	77.5321	45.4102	77.5428	45.4102	77.4647	45.4102	77.4776	45.4102	77.406	45.4102	77.4199	45.4102	77.3579	45.4102	77.3712	45.4102	77.3217	45.4102	77.3327	45.4102	77.2983	45.4102	77.3055	45.4102	77.2879	45.4102	77.2904
46.875	78.6777	46.875	78.6681	46.875	78.6777	46.875	78.6492	46.875	78.668	46.875	78.6214	46.875	78.6487	46.875	78.5853	46.875	78.62	46.875	78.5416	46.875	78.5823	46.875	78.4914	46.875	78.5364	46.875	78.4361	46.875	78.4831	46.875	78.3772	46.875	78.4241	46.875	78.3165	46.875	78.3612	46.875	78.2558	46.875	78.2965	46.875	78.1972	46.875	78.2328	46.875	78.1425	46.875	78.1724	46.875	78.0934	46.875	78.1176	46.875	78.0514	46.875	78.0703	46.875	78.0179	46.875	78.0318	46.875	77.9938	46.875	78.003	46.875	77.9801	46.875	77.9847	46.875	77.977
48.3398	79.1581	48.3398	79.1576	48.3398	79.1509	48.3398	79.1492	48.3398	79.1359	48.3398	79.133	48.3398	79.1134	48.3398	79.1093	48.3398	79.0836	48.3398	79.0783	48.3398	79.0471	48.3398	79.0407	48.3398	79.0045	48.3398	78.9973	48.3398	78.957	48.3398	78.9493	48.3398	78.9058	48.3398	78.8981	48.3398	78.8528	48.3398	78.8455	48.3398	78.7999	48.3398	78.7933	48.3398	78.749	48.3398	78.7435	48.3398	78.7022	48.3398	78.6977	48.3398	78.6611	48.3398	78.6576	48.3398	78.6269	48.3398	78.6244	48.3398	78.6007	48.3398	78.599	48.3398	78.5828	48.3398	78.5818	48.3398	78.5737	48.3398	78.5733
51.2695	80.5218	51.2695	80.5285	51.2695	80.5023	51.2695	80.5223	51.2695	80.4708	51.2695	80.5033	51.2695	80.4282	51.2695	80.4723	51.2695	80.376	51.2695	80.4301	51.2695	80.3161	51.2695	80.3783	51.2695	80.2504	51.2695	80.3188	51.2695	80.1814	51.2695	80.2538	51.2695	80.1116	51.2695	80.1859	51.2695	80.0434	51.2695	80.1177	51.2695	79.9792	51.2695	80.0514	51.2695	79.921	51.2695	79.9893	51.2695	79.8705	51.2695	79.933	51.2695	79.8288	51.2695	79.8836	51.2695	79.7968	51.2695	79.8418	51.2695	79.7747	51.2695	79.8083	51.2695	79.7626	51.2695	79.7833	51.2695	79.7601	51.2695	79.7672
52.7344	81.0709	52.7344	81.0803	52.7344	81.048	52.7344	81.076	52.7344	81.0123	52.7344	81.0584	52.7344	80.965	52.7344	81.0282	52.7344	80.9076	52.7344	80.9867	52.7344	80.8425	52.7344	80.9357	52.7344	80.7723	52.7344	80.8775	52.7344	80.7001	52.7344	80.8146	52.7344	80.6289	52.7344	80.7499	52.7344	80.5619	52.7344	80.686	52.7344	80.5017	52.7344	80.6252	52.7344	80.4504	52.7344	80.5693	52.7344	80.4092	52.7344	80.5193	52.7344	80.3785	52.7344	80.4756	52.7344	80.3582	52.7344	80.4384	52.7344	80.3475	52.7344	80.4075	52.7344	80.3455	52.7344	80.3825	52.7344	80.3511	52.7344	80.3637
54.1992	81.3585	54.1992	81.348	54.1992	81.3544	54.1992	81.3234	54.1992	81.3359	54.1992	81.2858	54.1992	81.3039	54.1992	81.2368	54.1992	81.2596	54.1992	81.1786	54.1992	81.2053	54.1992	81.114	54.1992	81.1434	54.1992	81.0462	54.1992	81.0772	54.1992	80.9785	54.1992	81.0098	54.1992	80.9143	54.1992	80.9448	54.1992	80.8564	54.1992	80.8853	54.1992	80.8071	54.1992	80.8335	54.1992	80.7675	54.1992	80.791	54.1992	80.738	54.1992	80.7581	54.1992	80.7176	54.1992	80.7341	54.1992	80.705	54.1992	80.7176	54.1992	80.6983	54.1992	80.7069	54.1992	80.696	54.1992	80.7003	54.1992	80.6968
55.6641	81.7384	55.6641	81.722	55.6641	81.7385	55.6641	81.6901	55.6641	81.7223	55.6641	81.6437	55.6641	81.6903	55.6641	81.5849	55.6641	81.6439	55.6641	81.5159	55.6641	81.5847	55.6641	81.4399	55.6641	81.5154	55.6641	81.36	55.6641	81.4388	55.6641	81.28	55.6641	81.3587	55.6641	81.2035	55.6641	81.2788	55.6641	81.1338	55.6641	81.203	55.6641	81.0734	55.6641	81.1347	55.6641	81.0241	55.6641	81.0762	55.6641	80.9865	55.6641	81.029	55.6641	80.9599	55.6641	80.993	55.6641	80.9431	55.6641	80.9672	55.6641	80.9341	55.6641	80.9497	55.6641	80.9311	55.6641	80.9388	55.6641	80.9327
58.5938	82.5335	58.5938	82.5244	58.5938	82.5274	58.5938	82.5004	58.5938	82.5066	58.5938	82.462	58.5938	82.4716	58.5938	82.4106	58.5938	82.4239	58.5938	82.3477	58.5938	82.365	58.5938	82.2755	58.5938	82.2969	58.5938	82.1966	58.5938	82.2219	58.5938	82.1139	58.5938	82.1426	58.5938	82.0305	58.5938	82.0617	58.5938	81.9495	58.5938	81.982	58.5938	81.8737	58.5938	81.9062	58.5938	81.8057	58.5938	81.8366	58.5938	81.7472	58.5938	81.7752	58.5938	81.6995	58.5938	81.7233	58.5938	81.6632	58.5938	81.6818	58.5938	81.6383	58.5938	81.6511	58.5938	81.6249	58.5938	81.6314	58.5938	81.6226
60.0586	83.0334	60.0586	83.0277	60.0586	83.0235	60.0586	83.0068	60.0586	82.9982	60.0586	82.9713	60.0586	82.9586	60.0586	82.9228	60.0586	82.9061	60.0586	82.8632	60.0586	82.8428	60.0586	82.7947	60.0586	82.7709	60.0586	82.7201	60.0586	82.6935	60.0586	82.6423	60.0586	82.6134	60.0586	82.564	60.0586	82.5337	60.0586	82.4881	60.0586	82.4572	60.0586	82.4169	60.0586	82.3863	60.0586	82.3523	60.0586	82.3231	60.0586	82.2956	60.0586	82.2689	60.0586	82.2478	60.0586	82.2248	60.0586	82.2095	60.0586	82.1911	60.0586	82.1809	60.0586	82.1681	60.0586	82.1623	60.0586	82.1557	60.0586	82.1538
62.9883	83.8709	62.9883	83.8607	62.9883	83.865	62.9883	83.835	62.9883	83.8433	62.9883	83.7949	62.9883	83.8068	62.9883	83.7426	62.9883	83.7574	62.9883	83.6808	62.9883	83.6977	62.9883	83.6127	62.9883	83.6305	62.9883	83.542	62.9883	83.5594	62.9883	83.4722	62.9883	83.4878	62.9883	83.4066	62.9883	83.4192	62.9883	83.3479	62.9883	83.3566	62.9883	83.298	62.9883	83.3021	62.9883	83.2576	62.9883	83.2571	62.9883	83.2263	62.9883	83.2221	62.9883	83.2033	62.9883	83.1966	62.9883	83.187	62.9883	83.1796	62.9883	83.1759	62.9883	83.1697	62.9883	83.1689	62.9883	83.1653	62.9883	83.1653
64.4531	84.2403	64.4531	84.2282	64.4531	84.2357	64.4531	84.2002	64.4531	84.2148	64.4531	84.1574	64.4531	84.1789	64.4531	84.1022	64.4531	84.1299	64.4531	84.0374	64.4531	84.0704	64.4531	83.9666	64.4531	84.0036	64.4531	83.8934	64.4531	83.933	64.4531	83.8219	64.4531	83.8625	64.4531	83.7555	64.4531	83.7953	64.4531	83.6972	64.4531	83.7345	64.4531	83.6488	64.4531	83.6822	64.4531	83.6111	64.4531	83.6395	64.4531	83.5839	64.4531	83.6067	64.4531	83.5657	64.4531	83.5829	64.4531	83.5548	64.4531	83.5668	64.4531	83.5492	64.4531	83.5567	64.4531	83.5473	64.4531	83.5508	64.4531	83.5478
67.3828	84.9779	67.3828	84.9624	67.3828	84.9756	67.3828	84.9295	67.3828	84.9558	67.3828	84.8809	67.3828	84.9197	67.3828	84.819	67.3828	84.8697	67.3828	84.7472	67.3828	84.8086	67.3828	84.6693	67.3828	84.7401	67.3828	84.5897	67.3828	84.6679	67.3828	84.5127	67.3828	84.5962	67.3828	84.4425	67.3828	84.5284	67.3828	84.3822	67.3828	84.4678	67.3828	84.334	67.3828	84.4161	67.3828	84.2987	67.3828	84.3745	67.3828	84.2757	67.3828	84.3426	67.3828	84.2633	67.3828	84.3191	67.3828	84.2592	67.3828	84.3023	67.3828	84.2608	67.3828	84.2901	67.3828	84.2658	67.3828	84.2806	67.3828	84.2727
