"SPL Vertical"
"On-Axis"		"10°"		"-10°"		"20°"		"-20°"		"30°"		"-30°"		"40°"		"-40°"		"50°"		"-50°"		"60°"		"-60°"		"70°"		"-70°"		"80°"		"-80°"		"90°"		"-90°"		"100°"		"-100°"		"110°"		"-110°"		"120°"		"-120°"		"130°"		"-130°"		"140°"		"-140°"		"150°"		"-150°"		"160°"		"-160°"		"170°"		"-170°"		"180°"
"Frequency [Hz]"	"Sound Pessure Level [dB]  / [2.83V 1m] "	"Frequency [Hz]"	"Sound Pessure Level [dB]  / [2.83V 1m] "	"Frequency [Hz]"	"Sound Pessure Level [dB]  / [2.83V 1m] "	"Frequency [Hz]"	"Sound Pessure Level [dB]  / [2.83V 1m] "	"Frequency [Hz]"	"Sound Pessure Level [dB]  / [2.83V 1m] "	"Frequency [Hz]"	"Sound Pessure Level [dB]  / [2.83V 1m] "	"Frequency [Hz]"	"Sound Pessure Level [dB]  / [2.83V 1m] "	"Frequency [Hz]"	"Sound Pessure Level [dB]  / [2.83V 1m] "	"Frequency [Hz]"	"Sound Pessure Level [dB]  / [2.83V 1m] "	"Frequency [Hz]"	"Sound Pessure Level [dB]  / [2.83V 1m] "	"Frequency [Hz]"	"Sound Pessure Level [dB]  / [2.83V 1m] "	"Frequency [Hz]"	"Sound Pessure Level [dB]  / [2.83V 1m] "	"Frequency [Hz]"	"Sound Pessure Level [dB]  / [2.83V 1m] "	"Frequency [Hz]"	"Sound Pessure Level [dB]  / [2.83V 1m] "	"Frequency [Hz]"	"Sound Pessure Level [dB]  / [2.83V 1m] "	"Frequency [Hz]"	"Sound Pessure Level [dB]  / [2.83V 1m] "	"Frequency [Hz]"	"Sound Pessure Level [dB]  / [2.83V 1m] "	"Frequency [Hz]"	"Sound Pessure Level [dB]  / [2.83V 1m] "	"Frequency [Hz]"	"Sound Pessure Level [dB]  / [2.83V 1m] "	"Frequency [Hz]"	"Sound Pessure Level [dB]  / [2.83V 1m] "	"Frequency [Hz]"	"Sound Pessure Level [dB]  / [2.83V 1m] "	"Frequency [Hz]"	"Sound Pessure Level [dB]  / [2.83V 1m] "	"Frequency [Hz]"	"Sound Pessure Level [dB]  / [2.83V 1m] "	"Frequency [Hz]"	"Sound Pessure Level [dB]  / [2.83V 1m] "	"Frequency [Hz]"	"Sound Pessure Level [dB]  / [2.83V 1m] "	"Frequency [Hz]"	"Sound Pessure Level [dB]  / [2.83V 1m] "	"Frequency [Hz]"	"Sound Pessure Level [dB]  / [2.83V 1m] "	"Frequency [Hz]"	"Sound Pessure Level [dB]  / [2.83V 1m] "	"Frequency [Hz]"	"Sound Pessure Level [dB]  / [2.83V 1m] "	"Frequency [Hz]"	"Sound Pessure Level [dB]  / [2.83V 1m] "	"Frequency [Hz]"	"Sound Pessure Level [dB]  / [2.83V 1m] "	"Frequency [Hz]"	"Sound Pessure Level [dB]  / [2.83V 1m] "	"Frequency [Hz]"	"Sound Pessure Level [dB]  / [2.83V 1m] "	"Frequency [Hz]"	"Sound Pessure Level [dB]  / [2.83V 1m] "	"Frequency [Hz]"	"Sound Pessure Level [dB]  / [2.83V 1m] "	"Frequency [Hz]"	"Sound Pessure Level [dB]  / [2.83V 1m] "
20.5078	38.9421	20.5078	38.7544	20.5078	39.6441	20.5078	39.1192	20.5078	40.7557	20.5078	39.9792	20.5078	42.1497	20.5078	41.2012	20.5078	43.7068	20.5078	42.6334	20.5078	45.3301	20.5078	44.1515	20.5078	46.9477	20.5078	45.673	20.5078	48.5085	20.5078	47.1495	20.5078	49.9767	20.5078	48.5551	20.5078	51.3272	20.5078	49.8762	20.5078	52.5422	20.5078	51.1045	20.5078	53.609	20.5078	52.233	20.5078	54.5181	20.5078	53.2537	20.5078	55.2623	20.5078	54.157	20.5078	55.8357	20.5078	54.931	20.5078	56.2336	20.5078	55.563	20.5078	56.4528	20.5078	56.0407	20.5078	56.4921	20.5078	56.3531
21.9727	45.5831	21.9727	45.7699	21.9727	45.1092	21.9727	45.6941	21.9727	44.3014	21.9727	45.3621	21.9727	43.0859	21.9727	44.7625	21.9727	41.3694	21.9727	43.8659	21.9727	39.1579	21.9727	42.6246	21.9727	37.2699	21.9727	40.9894	21.9727	38.0368	21.9727	39.0199	21.9727	40.9494	21.9727	37.3624	21.9727	43.8318	21.9727	37.6575	21.9727	46.1628	21.9727	39.9598	21.9727	47.9791	21.9727	42.6154	21.9727	49.368	21.9727	44.9324	21.9727	50.3948	21.9727	46.8358	21.9727	51.1027	21.9727	48.3701	21.9727	51.5189	21.9727	49.5817	21.9727	51.6602	21.9727	50.5025	21.9727	51.5363	21.9727	51.1511
23.4375	39.6323	23.4375	39.2645	23.4375	40.5462	23.4375	39.5012	23.4375	41.8597	23.4375	40.2798	23.4375	43.406	23.4375	41.452	23.4375	45.046	23.4375	42.8527	23.4375	46.6826	23.4375	44.3477	23.4375	48.2538	23.4375	45.8465	23.4375	49.7213	23.4375	47.2951	23.4375	51.0607	23.4375	48.6639	23.4375	52.2558	23.4375	49.9375	23.4375	53.2962	23.4375	51.1079	23.4375	54.1759	23.4375	52.1698	23.4375	54.8935	23.4375	53.1189	23.4375	55.4511	23.4375	53.9503	23.4375	55.8532	23.4375	54.659	23.4375	56.1051	23.4375	55.2397	23.4375	56.2116	23.4375	55.6881	23.4375	56.1761	23.4375	56.001
24.9023	45.7782	24.9023	45.4046	24.9023	46.2291	24.9023	45.0951	24.9023	46.7842	24.9023	44.86	24.9023	47.4702	24.9023	44.7382	24.9023	48.2978	24.9023	44.7926	24.9023	49.2517	24.9023	45.09	24.9023	50.2914	24.9023	45.6663	24.9023	51.3625	24.9023	46.5009	24.9023	52.4093	24.9023	47.525	24.9023	53.3833	24.9023	48.6525	24.9023	54.2471	24.9023	49.8074	24.9023	54.9745	24.9023	50.9341	24.9023	55.5494	24.9023	51.9951	24.9023	55.964	24.9023	52.9662	24.9023	56.2168	24.9023	53.8311	24.9023	56.3106	24.9023	54.5785	24.9023	56.2503	24.9023	55.2002	24.9023	56.0415	24.9023	55.6897
26.3672	45.3332	26.3672	45.2841	26.3672	45.3469	26.3672	45.1784	26.3672	45.4002	26.3672	45.0441	26.3672	45.6216	26.3672	44.9571	26.3672	46.1544	26.3672	45.035	26.3672	47.0695	26.3672	45.401	26.3672	48.3051	26.3672	46.1171	26.3672	49.7107	26.3672	47.1407	26.3672	51.136	26.3672	48.3571	26.3672	52.4752	26.3672	49.6454	26.3672	53.6677	26.3672	50.9163	26.3672	54.6834	26.3672	52.1147	26.3672	55.5104	26.3672	53.2091	26.3672	56.1474	26.3672	54.1813	26.3672	56.5982	26.3672	55.0199	26.3672	56.8687	26.3672	55.7166	26.3672	56.9653	26.3672	56.2646	26.3672	56.8936	26.3672	56.6585
27.832	53.4283	27.832	53.3531	27.832	53.4849	27.832	53.2588	27.832	53.5389	27.832	53.1583	27.832	53.6234	27.832	53.0766	27.832	53.7875	27.832	53.0496	27.832	54.0857	27.832	53.1196	27.832	54.5572	27.832	53.3265	27.832	55.2034	27.832	53.6955	27.832	55.983	27.832	54.2266	27.832	56.8275	27.832	54.8938	27.832	57.6658	27.832	55.6533	27.832	58.4393	27.832	56.4557	27.832	59.1072	27.832	57.2548	27.832	59.6443	27.832	58.0122	27.832	60.037	27.832	58.6969	27.832	60.279	27.832	59.285	27.832	60.369	27.832	59.7583	27.832	60.3089	27.832	60.103
29.2969	52.8204	29.2969	52.9178	29.2969	52.6523	29.2969	52.941	29.2969	52.433	29.2969	52.8976	29.2969	52.2062	29.2969	52.8044	29.2969	52.0492	29.2969	52.6884	29.2969	52.0703	29.2969	52.5876	29.2969	52.3736	29.2969	52.55	29.2969	52.9958	29.2969	52.6269	29.2969	53.872	29.2969	52.86	29.2969	54.8737	29.2969	53.2669	29.2969	55.8733	29.2969	53.8326	29.2969	56.7787	29.2969	54.5153	29.2969	57.5357	29.2969	55.2607	29.2969	58.1174	29.2969	56.0151	29.2969	58.5143	29.2969	56.7331	29.2969	58.7274	29.2969	57.3787	29.2969	58.7635	29.2969	57.9243	29.2969	58.6329	29.2969	58.3482
30.7617	52.704	30.7617	52.8385	30.7617	52.4694	30.7617	52.8774	30.7617	52.1545	30.7617	52.8377	30.7617	51.8257	30.7617	52.7456	30.7617	51.6219	30.7617	52.6359	30.7617	51.7395	30.7617	52.5544	30.7617	52.3228	30.7617	52.5554	30.7617	53.3301	30.7617	52.6939	30.7617	54.5664	30.7617	53.0106	30.7617	55.8298	30.7617	53.5156	30.7617	56.9884	30.7617	54.1844	30.7617	57.9753	30.7617	54.9675	30.7617	58.7621	30.7617	55.8072	30.7617	59.3402	30.7617	56.6502	30.7617	59.711	30.7617	57.4529	30.7617	59.8814	30.7617	58.1809	30.7617	59.8619	30.7617	58.8069	30.7617	59.6658	30.7617	59.3084
32.2266	55.4112	32.2266	55.4729	32.2266	55.2966	32.2266	55.4632	32.2266	55.1672	32.2266	55.3782	32.2266	55.0826	32.2266	55.2259	32.2266	55.119	32.2266	55.0256	32.2266	55.3468	32.2266	54.8086	32.2266	55.7988	32.2266	54.6192	32.2266	56.449	32.2266	54.5127	32.2266	57.2244	32.2266	54.5469	32.2266	58.0366	32.2266	54.7653	32.2266	58.8078	32.2266	55.1796	32.2266	59.4806	32.2266	55.764	32.2266	60.018	32.2266	56.4659	32.2266	60.3986	32.2266	57.2242	32.2266	60.6129	32.2266	57.983	32.2266	60.6598	32.2266	58.6977	32.2266	60.5443	32.2266	59.3343	32.2266	60.2758	32.2266	59.867
33.6914	55.354	33.6914	55.3253	33.6914	55.346	33.6914	55.2455	33.6914	55.3332	33.6914	55.1143	33.6914	55.3661	33.6914	54.9434	33.6914	55.5097	33.6914	54.7567	33.6914	55.8241	33.6914	54.5907	33.6914	56.3368	33.6914	54.4933	33.6914	57.0235	33.6914	54.5174	33.6914	57.817	33.6914	54.7072	33.6914	58.6348	33.6914	55.0827	33.6914	59.4035	33.6914	55.6299	33.6914	60.0686	33.6914	56.3073	33.6914	60.5951	33.6914	57.0606	33.6914	60.964	33.6914	57.8368	33.6914	61.1677	33.6914	58.5918	33.6914	61.2073	33.6914	59.2915	33.6914	61.0896	33.6914	59.9101	33.6914	60.8252	33.6914	60.427
35.1562	56.3773	35.1562	56.3376	35.1562	56.444	35.1562	56.3063	35.1562	56.5731	35.1562	56.2815	35.1562	56.8125	35.1562	56.2755	35.1562	57.2082	35.1562	56.3114	35.1562	57.7842	35.1562	56.4188	35.1562	58.5257	35.1562	56.6268	35.1562	59.382	35.1562	56.9562	35.1562	60.2835	35.1562	57.4126	35.1562	61.1622	35.1562	57.9841	35.1562	61.9627	35.1562	58.6447	35.1562	62.6453	35.1562	59.361	35.1562	63.1849	35.1562	60.0991	35.1562	63.5677	35.1562	60.8282	35.1562	63.7892	35.1562	61.5219	35.1562	63.8519	35.1562	62.158	35.1562	63.7636	35.1562	62.7171	35.1562	63.5357	35.1562	63.1818
36.6211	60.2247	36.6211	60.1836	36.6211	60.2805	36.6211	60.1464	36.6211	60.3705	36.6211	60.1106	36.6211	60.5208	36.6211	60.0809	36.6211	60.7598	36.6211	60.0688	36.6211	61.1094	36.6211	60.0906	36.6211	61.5752	36.6211	60.1654	36.6211	62.1403	36.6211	60.3117	36.6211	62.7685	36.6211	60.544	36.6211	63.4124	36.6211	60.8683	36.6211	64.0242	36.6211	61.2805	36.6211	64.5628	36.6211	61.7666	36.6211	64.9974	36.6211	62.3051	36.6211	65.3075	36.6211	62.8704	36.6211	65.4827	36.6211	63.4357	36.6211	65.5207	36.6211	63.9753	36.6211	65.4261	36.6211	64.465	36.6211	65.2088	36.6211	64.8827
38.0859	62.3635	38.0859	62.296	38.0859	62.4408	38.0859	62.232	38.0859	62.5398	38.0859	62.1708	38.0859	62.678	38.0859	62.1171	38.0859	62.8753	38.0859	62.0802	38.0859	63.1502	38.0859	62.0734	38.0859	63.5121	38.0859	62.1129	38.0859	63.9562	38.0859	62.215	38.0859	64.4612	38.0859	62.3934	38.0859	64.9932	38.0859	62.6557	38.0859	65.5126	38.0859	63.0015	38.0859	65.9815	38.0859	63.4213	38.0859	66.3685	38.0859	63.8976	38.0859	66.6507	38.0859	64.4073	38.0859	66.8142	38.0859	64.9248	38.0859	66.8533	38.0859	65.4238	38.0859	66.7695	38.0859	65.8792	38.0859	66.5703	38.0859	66.268
39.5508	63.226	39.5508	63.1896	39.5508	63.2615	39.5508	63.1458	39.5508	63.3082	39.5508	63.0938	39.5508	63.3846	39.5508	63.0377	39.5508	63.5133	39.5508	62.9859	39.5508	63.7162	39.5508	62.9507	39.5508	64.0075	39.5508	62.9471	39.5508	64.3861	39.5508	62.9916	39.5508	64.8325	39.5508	63.0994	39.5508	65.3129	39.5508	63.2816	39.5508	65.7866	39.5508	63.5422	39.5508	66.2146	39.5508	63.8767	39.5508	66.5646	39.5508	64.2723	39.5508	66.8144	39.5508	64.7094	39.5508	66.9512	39.5508	65.1644	39.5508	66.9712	39.5508	65.6123	39.5508	66.8779	39.5508	66.0288	39.5508	66.6801	39.5508	66.3914
41.0156	64.0241	41.0156	64.0006	41.0156	64.051	41.0156	63.9728	41.0156	64.0949	41.0156	63.939	41.0156	64.1752	41.0156	63.9026	41.0156	64.3138	41.0156	63.8714	41.0156	64.5298	41.0156	63.857	41.0156	64.833	41.0156	63.8734	41.0156	65.2177	41.0156	63.9354	41.0156	65.6625	41.0156	64.0565	41.0156	66.1343	41.0156	64.2461	41.0156	66.5955	41.0156	64.5071	41.0156	67.0103	41.0156	64.8347	41.0156	67.3496	41.0156	65.2164	41.0156	67.5928	41.0156	65.6339	41.0156	67.7282	41.0156	66.0654	41.0156	67.7525	41.0156	66.4879	41.0156	67.6691	41.0156	66.8789	41.0156	67.4867	41.0156	67.218
42.4805	66.0627	42.4805	66.0239	42.4805	66.1022	42.4805	65.9802	42.4805	66.1523	42.4805	65.9309	42.4805	66.2276	42.4805	65.879	42.4805	66.3449	42.4805	65.8316	42.4805	66.5207	42.4805	65.7989	42.4805	66.7661	42.4805	65.7935	42.4805	67.082	42.4805	65.829	42.4805	67.4563	42.4805	65.9186	42.4805	67.8646	42.4805	66.0723	42.4805	68.2748	42.4805	66.2948	42.4805	68.6527	42.4805	66.5839	42.4805	68.9681	42.4805	66.9298	42.4805	69.1979	42.4805	67.3162	42.4805	69.3276	42.4805	67.7225	42.4805	69.3513	42.4805	68.1258	42.4805	69.2706	42.4805	68.5028	42.4805	69.0932	42.4805	68.8318
43.9453	67.1983	43.9453	67.1382	43.9453	67.2632	43.9453	67.0776	43.9453	67.3421	43.9453	67.0161	43.9453	67.4485	43.9453	66.9569	43.9453	67.5975	43.9453	66.9071	43.9453	67.8029	43.9453	66.8764	43.9453	68.0728	43.9453	66.8766	43.9453	68.4049	43.9453	66.9202	43.9453	68.7847	43.9453	67.0186	43.9453	69.1876	43.9453	67.1801	43.9453	69.5826	43.9453	67.4077	43.9453	69.9381	43.9453	67.6984	43.9453	70.2264	43.9453	68.0426	43.9453	70.4269	43.9453	68.4253	43.9453	70.5273	43.9453	68.8278	43.9453	70.5233	43.9453	69.2295	43.9453	70.4183	43.9453	69.609	43.9453	70.2213	43.9453	69.946
45.4102	68.4535	45.4102	68.374	45.4102	68.5424	45.4102	68.3003	45.4102	68.6475	45.4102	68.2327	45.4102	68.7783	45.4102	68.1742	45.4102	68.9456	45.4102	68.1309	45.4102	69.159	45.4102	68.1109	45.4102	69.4236	45.4102	68.1241	45.4102	69.7367	45.4102	68.1804	45.4102	70.0866	45.4102	68.2885	45.4102	70.4529	45.4102	68.4544	45.4102	70.8099	45.4102	68.6801	45.4102	71.1302	45.4102	68.9621	45.4102	71.3896	45.4102	69.2917	45.4102	71.5691	45.4102	69.6557	45.4102	71.6567	45.4102	70.0371	45.4102	71.6483	45.4102	70.4173	45.4102	71.5459	45.4102	70.7766	45.4102	71.3577	45.4102	71.0961
46.875	69.6291	46.875	69.5472	46.875	69.717	46.875	69.4691	46.875	69.8163	46.875	69.3957	46.875	69.9349	46.875	69.3303	46.875	70.0825	46.875	69.2786	46.875	70.2683	46.875	69.2482	46.875	70.4982	46.875	69.2478	46.875	70.7715	46.875	69.2863	46.875	71.0791	46.875	69.3719	46.875	71.4036	46.875	69.5104	46.875	71.7216	46.875	69.7042	46.875	72.0078	46.875	69.9513	46.875	72.2387	46.875	70.2448	46.875	72.3958	46.875	70.5732	46.875	72.4676	46.875	70.9218	46.875	72.4499	46.875	71.2731	46.875	72.345	46.875	71.6088	46.875	72.1611	46.875	71.9106
48.3398	70.8747	48.3398	70.7874	48.3398	70.9677	48.3398	70.7044	48.3398	71.0709	48.3398	70.6272	48.3398	71.1911	48.3398	70.5596	48.3398	71.337	48.3398	70.5073	48.3398	71.5167	48.3398	70.4774	48.3398	71.7353	48.3398	70.4778	48.3398	71.9922	48.3398	70.5164	48.3398	72.2791	48.3398	70.5999	48.3398	72.5801	48.3398	70.7332	48.3398	72.874	48.3398	70.9176	48.3398	73.1373	48.3398	71.151	48.3398	73.3481	48.3398	71.4269	48.3398	73.4891	48.3398	71.7352	48.3398	73.5494	48.3398	72.0625	48.3398	73.5252	48.3398	72.3933	48.3398	73.4192	48.3398	72.7109	48.3398	73.2395	48.3398	72.9985
51.2695	73.0441	51.2695	72.9605	51.2695	73.1362	51.2695	72.884	51.2695	73.2398	51.2695	72.8151	51.2695	73.3595	51.2695	72.7561	51.2695	73.5005	51.2695	72.7107	51.2695	73.6673	51.2695	72.6839	51.2695	73.8623	51.2695	72.6816	51.2695	74.0839	51.2695	72.7098	51.2695	74.3252	51.2695	72.7742	51.2695	74.574	51.2695	72.8794	51.2695	74.8138	51.2695	73.0276	51.2695	75.0261	51.2695	73.2181	51.2695	75.1929	51.2695	73.4469	51.2695	75.2998	51.2695	73.7066	51.2695	75.3373	51.2695	73.9865	51.2695	75.3022	51.2695	74.2736	51.2695	75.197	51.2695	74.5532	51.2695	75.0292	51.2695	74.81
52.7344	73.6983	52.7344	73.6172	52.7344	73.7916	52.7344	73.5468	52.7344	73.9001	52.7344	73.4875	52.7344	74.0271	52.7344	73.441	52.7344	74.1767	52.7344	73.4104	52.7344	74.3514	52.7344	73.4004	52.7344	74.552	52.7344	73.4157	52.7344	74.7757	52.7344	73.4618	52.7344	75.0157	52.7344	73.5431	52.7344	75.2606	52.7344	73.6631	52.7344	75.4955	52.7344	73.8227	52.7344	75.7036	52.7344	74.0206	52.7344	75.8688	52.7344	74.252	52.7344	75.9779	52.7344	74.5091	52.7344	76.0222	52.7344	74.7814	52.7344	75.9985	52.7344	75.0564	52.7344	75.9086	52.7344	75.3201	52.7344	75.7589	52.7344	75.5587
54.1992	74.7645	54.1992	74.671	54.1992	74.868	54.1992	74.5872	54.1992	74.9826	54.1992	74.5137	54.1992	75.1099	54.1992	74.452	54.1992	75.2515	54.1992	74.405	54.1992	75.4091	54.1992	74.3763	54.1992	75.5831	54.1992	74.3705	54.1992	75.772	54.1992	74.3924	54.1992	75.9714	54.1992	74.4465	54.1992	76.1725	54.1992	74.5363	54.1992	76.3633	54.1992	74.6638	54.1992	76.529	54.1992	74.8284	54.1992	76.6549	54.1992	75.0268	54.1992	76.7288	54.1992	75.2528	54.1992	76.7432	54.1992	75.4975	54.1992	76.6955	54.1992	75.75	54.1992	76.5887	54.1992	75.9982	54.1992	76.4299	54.1992	76.2291
55.6641	75.0543	55.6641	74.9597	55.6641	75.165	55.6641	74.8807	55.6641	75.2934	55.6641	74.8178	55.6641	75.4421	55.6641	74.7731	55.6641	75.6136	55.6641	74.7495	55.6641	75.8095	55.6641	74.7506	55.6641	76.0298	55.6641	74.7806	55.6641	76.2708	55.6641	74.8432	55.6641	76.5249	55.6641	74.9415	55.6641	76.7801	55.6641	75.077	55.6641	77.0207	55.6641	75.2496	55.6641	77.2299	55.6641	75.4569	55.6641	77.3916	55.6641	75.694	55.6641	77.493	55.6641	75.9538	55.6641	77.5266	55.6641	76.2273	55.6641	77.4902	55.6641	76.5037	55.6641	77.3873	55.6641	76.7709	55.6641	77.2255	55.6641	77.0158
58.5938	76.4918	58.5938	76.3935	58.5938	76.6042	58.5938	76.3102	58.5938	76.7299	58.5938	76.2434	58.5938	76.8687	58.5938	76.1946	58.5938	77.0201	58.5938	76.1658	58.5938	77.1838	58.5938	76.159	58.5938	77.3585	58.5938	76.1766	58.5938	77.5415	58.5938	76.2205	58.5938	77.7279	58.5938	76.2927	58.5938	77.9101	58.5938	76.3942	58.5938	78.0784	58.5938	76.5252	58.5938	78.2216	58.5938	76.6844	58.5938	78.3286	58.5938	76.8688	58.5938	78.3901	58.5938	77.0739	58.5938	78.3999	58.5938	77.2929	58.5938	78.356	58.5938	77.5173	58.5938	78.2606	58.5938	77.7372	58.5938	78.1196	58.5938	77.9416
60.0586	76.8838	60.0586	76.7845	60.0586	76.9965	60.0586	76.6998	60.0586	77.1219	60.0586	76.6314	60.0586	77.2595	60.0586	76.581	60.0586	77.4092	60.0586	76.5507	60.0586	77.5705	60.0586	76.5429	60.0586	77.7423	60.0586	76.5598	60.0586	77.9218	60.0586	76.6033	60.0586	78.1042	60.0586	76.6751	60.0586	78.2822	60.0586	76.7761	60.0586	78.4464	60.0586	76.9062	60.0586	78.5859	60.0586	77.0641	60.0586	78.6899	60.0586	77.2469	60.0586	78.7494	60.0586	77.4498	60.0586	78.7583	60.0586	77.6661	60.0586	78.7147	60.0586	77.8877	60.0586	78.6205	60.0586	78.1046	60.0586	78.4815	60.0586	78.3062
62.9883	77.6242	62.9883	77.5227	62.9883	77.7382	62.9883	77.4352	62.9883	77.8634	62.9883	77.3637	62.9883	77.9986	62.9883	77.31	62.9883	78.1428	62.9883	77.2761	62.9883	78.2948	62.9883	77.2638	62.9883	78.4527	62.9883	77.2748	62.9883	78.6135	62.9883	77.3108	62.9883	78.7729	62.9883	77.3726	62.9883	78.9246	62.9883	77.4611	62.9883	79.0609	62.9883	77.5758	62.9883	79.1728	62.9883	77.7156	62.9883	79.2517	62.9883	77.878	62.9883	79.2905	62.9883	78.0591	62.9883	79.2844	62.9883	78.2532	62.9883	79.2323	62.9883	78.4533	62.9883	79.1363	62.9883	78.6511	62.9883	79.002	62.9883	78.8372
64.4531	77.8926	64.4531	77.7899	64.4531	78.0079	64.4531	77.7016	64.4531	78.1343	64.4531	77.6292	64.4531	78.2706	64.4531	77.5745	64.4531	78.415	64.4531	77.5393	64.4531	78.5658	64.4531	77.5253	64.4531	78.7206	64.4531	77.534	64.4531	78.8761	64.4531	77.5669	64.4531	79.0278	64.4531	77.6248	64.4531	79.1697	64.4531	77.7083	64.4531	79.2947	64.4531	77.8171	64.4531	79.395	64.4531	77.9501	64.4531	79.4631	64.4531	78.105	64.4531	79.4925	64.4531	78.2781	64.4531	79.4793	64.4531	78.4644	64.4531	79.4227	64.4531	78.6572	64.4531	79.325	64.4531	78.8486	64.4531	79.1915	64.4531	79.0298
67.3828	78.3848	67.3828	78.2753	67.3828	78.5068	67.3828	78.1802	67.3828	78.6388	67.3828	78.1014	67.3828	78.7782	67.3828	78.0407	67.3828	78.9221	67.3828	77.9993	67.3828	79.0676	67.3828	77.9786	67.3828	79.2112	67.3828	77.9797	67.3828	79.3494	67.3828	78.0034	67.3828	79.4781	67.3828	78.0502	67.3828	79.5924	67.3828	78.1204	67.3828	79.687	67.3828	78.2137	67.3828	79.7564	67.3828	78.3291	67.3828	79.7952	67.3828	78.4648	67.3828	79.799	67.3828	78.6179	67.3828	79.7657	67.3828	78.7842	67.3828	79.6955	67.3828	78.9583	67.3828	79.5912	67.3828	79.1338	67.3828	79.458	67.3828	79.303
68.8477	78.5879	68.8477	78.478	68.8477	78.7084	68.8477	78.3813	68.8477	78.837	68.8477	78.3	68.8477	78.9709	68.8477	78.2361	68.8477	79.1076	68.8477	78.1913	68.8477	79.244	68.8477	78.167	68.8477	79.3773	68.8477	78.1644	68.8477	79.5042	68.8477	78.1843	68.8477	79.6212	68.8477	78.2272	68.8477	79.7242	68.8477	78.2931	68.8477	79.8085	68.8477	78.3817	68.8477	79.8693	68.8477	78.4918	68.8477	79.9018	68.8477	78.6216	68.8477	79.9022	68.8477	78.7682	68.8477	79.8682	68.8477	78.9275	68.8477	79.7999	68.8477	79.0942	68.8477	79.6997	68.8477	79.2621	68.8477	79.5723	68.8477	79.424
