"SPL Horizontal"
"On-Axis"		"10°"		"-10°"		"20°"		"-20°"		"30°"		"-30°"		"40°"		"-40°"		"50°"		"-50°"		"60°"		"-60°"		"70°"		"-70°"		"80°"		"-80°"		"90°"		"-90°"		"100°"		"-100°"		"110°"		"-110°"		"120°"		"-120°"		"130°"		"-130°"		"140°"		"-140°"		"150°"		"-150°"		"160°"		"-160°"		"170°"		"-170°"		"180°"
"Frequency / Hz"	"Sound Pressure Level / dB (re 20 µPa/V)  [2.83V at 1m]"	"Frequency / Hz"	"Sound Pressure Level / dB (re 20 µPa/V)  [2.83V at 1m]"	"Frequency / Hz"	"Sound Pressure Level / dB (re 20 µPa/V)  [2.83V at 1m]"	"Frequency / Hz"	"Sound Pressure Level / dB (re 20 µPa/V)  [2.83V at 1m]"	"Frequency / Hz"	"Sound Pressure Level / dB (re 20 µPa/V)  [2.83V at 1m]"	"Frequency / Hz"	"Sound Pressure Level / dB (re 20 µPa/V)  [2.83V at 1m]"	"Frequency / Hz"	"Sound Pressure Level / dB (re 20 µPa/V)  [2.83V at 1m]"	"Frequency / Hz"	"Sound Pressure Level / dB (re 20 µPa/V)  [2.83V at 1m]"	"Frequency / Hz"	"Sound Pressure Level / dB (re 20 µPa/V)  [2.83V at 1m]"	"Frequency / Hz"	"Sound Pressure Level / dB (re 20 µPa/V)  [2.83V at 1m]"	"Frequency / Hz"	"Sound Pressure Level / dB (re 20 µPa/V)  [2.83V at 1m]"	"Frequency / Hz"	"Sound Pressure Level / dB (re 20 µPa/V)  [2.83V at 1m]"	"Frequency / Hz"	"Sound Pressure Level / dB (re 20 µPa/V)  [2.83V at 1m]"	"Frequency / Hz"	"Sound Pressure Level / dB (re 20 µPa/V)  [2.83V at 1m]"	"Frequency / Hz"	"Sound Pressure Level / dB (re 20 µPa/V)  [2.83V at 1m]"	"Frequency / Hz"	"Sound Pressure Level / dB (re 20 µPa/V)  [2.83V at 1m]"	"Frequency / Hz"	"Sound Pressure Level / dB (re 20 µPa/V)  [2.83V at 1m]"	"Frequency / Hz"	"Sound Pressure Level / dB (re 20 µPa/V)  [2.83V at 1m]"	"Frequency / Hz"	"Sound Pressure Level / dB (re 20 µPa/V)  [2.83V at 1m]"	"Frequency / Hz"	"Sound Pressure Level / dB (re 20 µPa/V)  [2.83V at 1m]"	"Frequency / Hz"	"Sound Pressure Level / dB (re 20 µPa/V)  [2.83V at 1m]"	"Frequency / Hz"	"Sound Pressure Level / dB (re 20 µPa/V)  [2.83V at 1m]"	"Frequency / Hz"	"Sound Pressure Level / dB (re 20 µPa/V)  [2.83V at 1m]"	"Frequency / Hz"	"Sound Pressure Level / dB (re 20 µPa/V)  [2.83V at 1m]"	"Frequency / Hz"	"Sound Pressure Level / dB (re 20 µPa/V)  [2.83V at 1m]"	"Frequency / Hz"	"Sound Pressure Level / dB (re 20 µPa/V)  [2.83V at 1m]"	"Frequency / Hz"	"Sound Pressure Level / dB (re 20 µPa/V)  [2.83V at 1m]"	"Frequency / Hz"	"Sound Pressure Level / dB (re 20 µPa/V)  [2.83V at 1m]"	"Frequency / Hz"	"Sound Pressure Level / dB (re 20 µPa/V)  [2.83V at 1m]"	"Frequency / Hz"	"Sound Pressure Level / dB (re 20 µPa/V)  [2.83V at 1m]"	"Frequency / Hz"	"Sound Pressure Level / dB (re 20 µPa/V)  [2.83V at 1m]"	"Frequency / Hz"	"Sound Pressure Level / dB (re 20 µPa/V)  [2.83V at 1m]"	"Frequency / Hz"	"Sound Pressure Level / dB (re 20 µPa/V)  [2.83V at 1m]"	"Frequency / Hz"	"Sound Pressure Level / dB (re 20 µPa/V)  [2.83V at 1m]"	"Frequency / Hz"	"Sound Pressure Level / dB (re 20 µPa/V)  [2.83V at 1m]"	"Frequency / Hz"	"Sound Pressure Level / dB (re 20 µPa/V)  [2.83V at 1m]"
20.5078	48.5259	20.5078	48.3985	20.5078	48.3555	20.5078	47.9736	20.5078	47.8668	20.5078	47.2361	20.5078	47.0135	20.5078	46.1697	20.5078	45.7165	20.5078	44.8076	20.5078	43.8716	20.5078	43.4163	20.5078	41.5054	20.5078	42.8307	20.5078	39.7423	20.5078	43.9062	20.5078	41.1715	20.5078	46.068	20.5078	44.4225	20.5078	48.3471	20.5078	47.3998	20.5078	50.3637	20.5078	49.7964	20.5078	52.0537	20.5078	51.7008	20.5078	53.4337	20.5078	53.2091	20.5078	54.5302	20.5078	54.3867	20.5078	55.3644	20.5078	55.2744	20.5078	55.9498	20.5078	55.8973	20.5078	56.2943	20.5078	56.2701	20.5078	56.4012
21.9727	50.756	21.9727	50.648	21.9727	50.6136	21.9727	50.2909	21.9727	50.2129	21.9727	49.6841	21.9727	49.5417	21.9727	48.8416	21.9727	48.5972	21.9727	47.8404	21.9727	47.4364	21.9727	46.9314	21.9727	46.318	21.9727	46.6374	21.9727	45.8885	21.9727	47.4098	21.9727	46.7604	21.9727	49.0148	21.9727	48.5902	21.9727	50.8761	21.9727	50.6351	21.9727	52.6404	21.9727	52.5135	21.9727	54.182	21.9727	54.1204	21.9727	55.4732	21.9727	55.4474	21.9727	56.516	21.9727	56.5087	21.9727	57.3185	21.9727	57.3196	21.9727	57.8879	21.9727	57.8913	21.9727	58.2286	21.9727	58.231	21.9727	58.3429
23.4375	52.7629	23.4375	52.6663	23.4375	52.6432	23.4375	52.3567	23.4375	52.303	23.4375	51.8414	23.4375	51.7394	23.4375	51.1464	23.4375	50.9646	23.4375	50.3533	23.4375	50.0429	23.4375	49.6654	23.4375	49.1753	23.4375	49.4419	23.4375	48.7833	23.4375	49.9946	23.4375	49.3005	23.4375	51.2387	23.4375	50.6528	23.4375	52.7979	23.4375	52.3598	23.4375	54.3609	23.4375	54.0469	23.4375	55.7752	23.4375	55.5518	23.4375	56.9844	23.4375	56.8256	23.4375	57.9722	23.4375	57.8603	23.4375	58.7363	23.4375	58.6601	23.4375	59.2778	23.4375	59.2303	23.4375	59.5979	23.4375	59.5751	23.4375	59.6971
24.9023	53.18	24.9023	53.0761	24.9023	53.0239	24.9023	52.712	24.9023	52.6	24.9023	52.0827	24.9023	51.8944	24.9023	51.1938	24.9023	50.9017	24.9023	50.1095	24.9023	49.6791	24.9023	49.0763	24.9023	48.5049	24.9023	48.6696	24.9023	48.0894	24.9023	49.4397	24.9023	49.0664	24.9023	51.1324	24.9023	50.9949	24.9023	53.0848	24.9023	53.0889	24.9023	54.9142	24.9023	54.984	24.9023	56.4986	24.9023	56.5925	24.9023	57.8184	24.9023	57.9144	24.9023	58.8814	24.9023	58.9675	24.9023	59.6997	24.9023	59.7688	24.9023	60.2822	24.9023	60.3303	24.9023	60.6349	24.9023	60.6594	24.9023	60.7604
26.3672	55.2147	26.3672	55.106	26.3672	55.1443	26.3672	54.8228	26.3672	54.9001	26.3672	54.3849	26.3672	54.5016	26.3672	53.8445	26.3672	53.9986	26.3672	53.3187	26.3672	53.5003	26.3672	53.0182	26.3672	53.2031	26.3672	53.1972	26.3672	53.3497	26.3672	53.9669	26.3672	54.0627	26.3672	55.181	26.3672	55.2233	26.3672	56.5805	26.3672	56.5871	26.3672	57.9654	26.3672	57.9529	26.3672	59.2278	26.3672	59.2072	26.3672	60.3196	26.3672	60.2969	26.3672	61.221	26.3672	61.2	26.3672	61.9247	26.3672	61.9073	26.3672	62.4275	26.3672	62.4153	26.3672	62.7283	26.3672	62.722	26.3672	62.8265
27.832	57.4106	27.832	57.3194	27.832	57.3487	27.832	57.0813	27.832	57.1366	27.832	56.7163	27.832	56.7897	27.832	56.2702	27.832	56.3458	27.832	55.8356	27.832	55.8851	27.832	55.5679	27.832	55.5512	27.832	55.6553	27.832	55.5377	27.832	56.2091	27.832	55.9899	27.832	57.1674	27.832	56.8849	27.832	58.3482	27.832	58.0497	27.832	59.5732	27.832	59.2919	27.832	60.7248	27.832	60.4774	27.832	61.7396	27.832	61.5325	27.832	62.5859	27.832	62.421	27.832	63.2487	27.832	63.1258	27.832	63.7202	27.832	63.6387	27.832	63.9964	27.832	63.9558	27.832	64.0751
29.2969	57.5639	29.2969	57.4514	29.2969	57.516	29.2969	57.1877	29.2969	57.3105	29.2969	56.8	29.2969	56.965	29.2969	56.3486	29.2969	56.5248	29.2969	55.9499	29.2969	56.0856	29.2969	55.7846	29.2969	55.8143	29.2969	56.0393	29.2969	55.9192	29.2969	56.775	29.2969	56.5245	29.2969	57.8711	29.2969	57.5581	29.2969	59.1289	29.2969	58.8175	29.2969	60.386	29.2969	60.1122	29.2969	61.5461	29.2969	61.3223	29.2969	62.5599	29.2969	62.3862	29.2969	63.4035	29.2969	63.275	29.2969	64.0653	29.2969	63.9757	29.2969	64.5386	29.2969	64.4823	29.2969	64.8192	29.2969	64.7921	29.2969	64.9043
30.7617	59.2525	30.7617	59.2185	30.7617	59.1946	30.7617	59.1041	30.7617	59.0495	30.7617	58.9386	30.7617	58.8408	30.7617	58.7741	30.7617	58.6168	30.7617	58.6875	30.7617	58.4571	30.7617	58.7705	30.7617	58.4668	30.7617	59.0988	30.7617	58.7435	30.7617	59.6926	30.7617	59.3253	30.7617	60.5033	30.7617	60.1632	30.7617	61.4407	30.7617	61.1518	30.7617	62.4119	30.7617	62.1815	30.7617	63.3438	30.7617	63.1685	30.7617	64.186	30.7617	64.0576	30.7617	64.9059	30.7617	64.8153	30.7617	65.4822	30.7617	65.4215	30.7617	65.9008	30.7617	65.8638	30.7617	66.1524	30.7617	66.1349	30.7617	66.2313
32.2266	62.0582	32.2266	62.0453	32.2266	62.0055	32.2266	61.972	32.2266	61.8934	32.2266	61.856	32.2266	61.7413	32.2266	61.7293	32.2266	61.5845	32.2266	61.6398	32.2266	61.4757	32.2266	61.6478	32.2266	61.4811	32.2266	61.8131	32.2266	61.6637	32.2266	62.1733	32.2266	62.0583	32.2266	62.7246	32.2266	62.6522	32.2266	63.4221	32.2266	63.3902	32.2266	64.1984	32.2266	64.1979	32.2266	64.9851	32.2266	65.005	32.2266	65.7255	32.2266	65.7556	32.2266	66.3777	32.2266	66.4098	32.2266	66.912	32.2266	66.9404	32.2266	67.3082	32.2266	67.3291	32.2266	67.5533	32.2266	67.5643	32.2266	67.6396
33.6914	64.0604	33.6914	63.9939	33.6914	64.0423	33.6914	63.8453	33.6914	63.9448	33.6914	63.626	33.6914	63.7822	33.6914	63.3596	33.6914	63.5807	33.6914	63.0866	33.6914	63.3821	33.6914	62.868	33.6914	63.2452	33.6914	62.7811	33.6914	63.2387	33.6914	62.8997	33.6914	63.4215	33.6914	63.2611	33.6914	63.816	33.6914	63.8433	33.6914	64.3942	33.6914	64.575	33.6914	65.0899	33.6914	65.3679	33.6914	65.8252	33.6914	66.1434	33.6914	66.5312	33.6914	66.8431	33.6914	67.1558	33.6914	67.4276	33.6914	67.6629	33.6914	67.8714	33.6914	68.0285	33.6914	68.159	33.6914	68.2376	33.6914	68.282
35.1562	62.6137	35.1562	62.4909	35.1562	62.6215	35.1562	62.2574	35.1562	62.52	35.1562	61.931	35.1562	62.3255	35.1562	61.5507	35.1562	62.0695	35.1562	61.1894	35.1562	61.8058	35.1562	60.9596	35.1562	61.6153	35.1562	60.9933	35.1562	61.5981	35.1562	61.3792	35.1562	61.8402	35.1562	62.0995	35.1562	62.3672	35.1562	63.0412	35.1562	63.1266	35.1562	64.0664	35.1562	64.0176	35.1562	65.0658	35.1562	64.9377	35.1562	65.9687	35.1562	65.8075	35.1562	66.7343	35.1562	66.5736	35.1562	67.3394	35.1562	67.2022	35.1562	67.7707	35.1562	67.672	35.1562	68.0211	35.1562	67.9697	35.1562	68.0873
36.6211	64.1293	36.6211	64.145	36.6211	64.1266	36.6211	64.1824	36.6211	64.1399	36.6211	64.2602	36.6211	64.1833	36.6211	64.4036	36.6211	64.2804	36.6211	64.6392	36.6211	64.4599	36.6211	64.9862	36.6211	64.7476	36.6211	65.4496	36.6211	65.1582	36.6211	66.017	36.6211	65.688	36.6211	66.6609	36.6211	66.3146	36.6211	67.3458	36.6211	67.0025	36.6211	68.0344	36.6211	67.7115	36.6211	68.6928	36.6211	68.4029	36.6211	69.292	36.6211	69.0435	36.6211	69.8084	36.6211	69.6064	36.6211	70.2234	36.6211	70.0706	36.6211	70.5227	36.6211	70.4204	36.6211	70.6961	36.6211	70.6449	36.6211	70.7375
38.0859	66.7318	38.0859	66.7223	38.0859	66.7105	38.0859	66.6869	38.0859	66.6615	38.0859	66.6389	38.0859	66.5964	38.0859	66.5998	38.0859	66.5356	38.0859	66.5986	38.0859	66.508	38.0859	66.6681	38.0859	66.5481	38.0859	66.8385	38.0859	66.6899	38.0859	67.1283	38.0859	66.9563	38.0859	67.5367	38.0859	67.3508	38.0859	68.0424	38.0859	67.8542	38.0859	68.609	38.0859	68.4293	38.0859	69.1938	38.0859	69.0311	38.0859	69.7556	38.0859	69.6156	38.0859	70.2587	38.0859	70.1449	38.0859	70.6749	38.0859	70.5888	38.0859	70.9827	38.0859	70.9251	38.0859	71.1674	38.0859	71.1385	38.0859	71.2203
39.5508	67.977	39.5508	67.9635	39.5508	67.9708	39.5508	67.9346	39.5508	67.9479	39.5508	67.9019	39.5508	67.9184	39.5508	67.8839	39.5508	67.8995	39.5508	67.9049	39.5508	67.9145	39.5508	67.9922	39.5508	67.9906	39.5508	68.1698	39.5508	68.153	39.5508	68.4522	39.5508	68.4182	39.5508	68.8381	39.5508	68.7881	39.5508	69.3094	39.5508	69.2473	39.5508	69.8354	39.5508	69.7666	39.5508	70.3788	39.5508	70.3093	39.5508	70.9028	39.5508	70.8379	39.5508	71.3745	39.5508	71.3183	39.5508	71.767	39.5508	71.7225	39.5508	72.0594	39.5508	72.0287	39.5508	72.2374	39.5508	72.2218	39.5508	72.2924
41.0156	69.0466	41.0156	69.0343	41.0156	69.0433	41.0156	69.0104	41.0156	69.0269	41.0156	68.9857	41.0156	69.0065	41.0156	68.9771	41.0156	68.9975	41.0156	69.0064	41.0156	69.0208	41.0156	69.0977	41.0156	69.1003	41.0156	69.2725	41.0156	69.2583	41.0156	69.5432	41.0156	69.51	41.0156	69.9087	41.0156	69.8575	41.0156	70.3533	41.0156	70.2879	41.0156	70.8492	41.0156	70.7756	41.0156	71.3626	41.0156	71.2872	41.0156	71.859	41.0156	71.7877	41.0156	72.3071	41.0156	72.2449	41.0156	72.6806	41.0156	72.6311	41.0156	72.9592	41.0156	72.9249	41.0156	73.1285	41.0156	73.111	41.0156	73.18
42.4805	70.2734	42.4805	70.2654	42.4805	70.2724	42.4805	70.2519	42.4805	70.2643	42.4805	70.2422	42.4805	70.2567	42.4805	70.2505	42.4805	70.2626	42.4805	70.2951	42.4805	70.2993	42.4805	70.3954	42.4805	70.3863	42.4805	70.5685	42.4805	70.5421	42.4805	70.8244	42.4805	70.779	42.4805	71.1621	42.4805	71.099	42.4805	71.5686	42.4805	71.4922	42.4805	72.0208	42.4805	71.9371	42.4805	72.4898	42.4805	72.4053	42.4805	72.9449	42.4805	72.8658	42.4805	73.3573	42.4805	73.2887	42.4805	73.7024	42.4805	73.6479	42.4805	73.9603	42.4805	73.9226	42.4805	74.1167	42.4805	74.0975	42.4805	74.1634
43.9453	71.313	43.9453	71.3108	43.9453	71.309	43.9453	71.3055	43.9453	71.3007	43.9453	71.3052	43.9453	71.295	43.9453	71.322	43.9453	71.3033	43.9453	71.3716	43.9453	71.3412	43.9453	71.4711	43.9453	71.4258	43.9453	71.6351	43.9453	71.5734	43.9453	71.8729	43.9453	71.7952	43.9453	72.1844	43.9453	72.0934	43.9453	72.559	43.9453	72.4595	43.9453	72.9771	43.9453	72.875	43.9453	73.4126	43.9453	73.314	43.9453	73.8375	43.9453	73.7478	43.9453	74.2245	43.9453	74.148	43.9453	74.5494	43.9453	74.4895	43.9453	74.7928	43.9453	74.7517	43.9453	74.9404	43.9453	74.9194	43.9453	74.9835
45.4102	72.4084	45.4102	72.41	45.4102	72.4066	45.4102	72.414	45.4102	72.4061	45.4102	72.4271	45.4102	72.4129	45.4102	72.4596	45.4102	72.4364	45.4102	72.5243	45.4102	72.4895	45.4102	72.6348	45.4102	72.586	45.4102	72.8028	45.4102	72.7389	45.4102	73.0351	45.4102	72.9566	45.4102	73.331	45.4102	73.2405	45.4102	73.6814	45.4102	73.5832	45.4102	74.0693	45.4102	73.9688	45.4102	74.4721	45.4102	74.3749	45.4102	74.8649	45.4102	74.7762	45.4102	75.2231	45.4102	75.1472	45.4102	75.5242	45.4102	75.4646	45.4102	75.75	45.4102	75.709	45.4102	75.8868	45.4102	75.866	45.4102	75.9263
46.875	73.3595	46.875	73.3659	46.875	73.3552	46.875	73.3767	46.875	73.3545	46.875	73.3974	46.875	73.3624	46.875	73.4365	46.875	73.3871	46.875	73.5049	46.875	73.4395	46.875	73.6138	46.875	73.5316	46.875	73.7729	46.875	73.6744	46.875	73.9881	46.875	73.8754	46.875	74.259	46.875	74.1362	46.875	74.5784	46.875	74.4506	46.875	74.9317	46.875	74.805	46.875	75.2995	46.875	75.1798	46.875	75.6593	46.875	75.552	46.875	75.9884	46.875	75.8979	46.875	76.2659	46.875	76.1954	46.875	76.474	46.875	76.4258	46.875	76.5993	46.875	76.5749	46.875	76.6338
48.3398	74.4784	48.3398	74.4912	48.3398	74.4689	48.3398	74.5083	48.3398	74.4645	48.3398	74.5336	48.3398	74.4697	48.3398	74.5735	48.3398	74.4918	48.3398	74.6364	48.3398	74.5398	48.3398	74.7312	48.3398	74.6235	48.3398	74.8665	48.3398	74.7519	48.3398	75.0478	48.3398	74.931	48.3398	75.2765	48.3398	75.1621	48.3398	75.5481	48.3398	75.4401	48.3398	75.852	48.3398	75.7537	48.3398	76.1724	48.3398	76.0862	48.3398	76.49	48.3398	76.4174	48.3398	76.7842	48.3398	76.726	48.3398	77.0353	48.3398	76.9918	48.3398	77.226	48.3398	77.1972	48.3398	77.3433	48.3398	77.3289	48.3398	77.3785
51.2695	76.0818	51.2695	76.0797	51.2695	76.0909	51.2695	76.0862	51.2695	76.1079	51.2695	76.1052	51.2695	76.1358	51.2695	76.1425	51.2695	76.18	51.2695	76.2054	51.2695	76.247	51.2695	76.3016	51.2695	76.3442	51.2695	76.4378	51.2695	76.4783	51.2695	76.6184	51.2695	76.6539	51.2695	76.8434	51.2695	76.8719	51.2695	77.108	51.2695	77.1284	51.2695	77.402	51.2695	77.4145	51.2695	77.7107	51.2695	77.7162	51.2695	78.0162	51.2695	78.0166	51.2695	78.2994	51.2695	78.2967	51.2695	78.5419	51.2695	78.5379	51.2695	78.7275	51.2695	78.7239	51.2695	78.8436	51.2695	78.8415	51.2695	78.8825
52.7344	76.8015	52.7344	76.8043	52.7344	76.8101	52.7344	76.8199	52.7344	76.8307	52.7344	76.8513	52.7344	76.8659	52.7344	76.9029	52.7344	76.9196	52.7344	76.9803	52.7344	76.997	52.7344	77.0889	52.7344	77.1036	52.7344	77.2337	52.7344	77.2444	52.7344	77.417	52.7344	77.4223	52.7344	77.6383	52.7344	77.6375	52.7344	77.8927	52.7344	77.8859	52.7344	78.171	52.7344	78.1593	52.7344	78.4604	52.7344	78.4452	52.7344	78.7449	52.7344	78.7283	52.7344	79.0078	52.7344	78.9916	52.7344	79.2322	52.7344	79.2183	52.7344	79.4034	52.7344	79.3932	52.7344	79.5098	52.7344	79.5045	52.7344	79.5443
54.1992	77.4335	54.1992	77.4401	54.1992	77.4405	54.1992	77.4612	54.1992	77.4617	54.1992	77.4989	54.1992	77.499	54.1992	77.5565	54.1992	77.5556	54.1992	77.6382	54.1992	77.6354	54.1992	77.7481	54.1992	77.7427	54.1992	77.8896	54.1992	77.8808	54.1992	78.0645	54.1992	78.0519	54.1992	78.2718	54.1992	78.2553	54.1992	78.5072	54.1992	78.4872	54.1992	78.7629	54.1992	78.7402	54.1992	79.0276	54.1992	79.0035	54.1992	79.2874	54.1992	79.2635	54.1992	79.5272	54.1992	79.5052	54.1992	79.7318	54.1992	79.7134	54.1992	79.8877	54.1992	79.8745	54.1992	79.9843	54.1992	79.9774	54.1992	80.0149
55.6641	78.1417	55.6641	78.1471	55.6641	78.1504	55.6641	78.1672	55.6641	78.1734	55.6641	78.2038	55.6641	78.2122	55.6641	78.2594	55.6641	78.269	55.6641	78.3372	55.6641	78.3468	55.6641	78.4403	55.6641	78.4486	55.6641	78.5713	55.6641	78.577	55.6641	78.7314	55.6641	78.7334	55.6641	78.9197	55.6641	78.9173	55.6641	79.1325	55.6641	79.1257	55.6641	79.3631	55.6641	79.3522	55.6641	79.6018	55.6641	79.5879	55.6641	79.8365	55.6641	79.821	55.6641	80.0536	55.6641	80.0382	55.6641	80.2394	55.6641	80.2259	55.6641	80.3814	55.6641	80.3714	55.6641	80.4697	55.6641	80.4644	55.6641	80.498
58.5938	79.2364	58.5938	79.2445	58.5938	79.2437	58.5938	79.2685	58.5938	79.2667	58.5938	79.3093	58.5938	79.3061	58.5938	79.3684	58.5938	79.3632	58.5938	79.4474	58.5938	79.4395	58.5938	79.548	58.5938	79.5368	58.5938	79.6713	58.5938	79.6564	58.5938	79.8177	58.5938	79.7988	58.5938	79.986	58.5938	79.9632	58.5938	80.1732	58.5938	80.1469	58.5938	80.3737	58.5938	80.3451	58.5938	80.58	58.5938	80.5504	58.5938	80.782	58.5938	80.7533	58.5938	80.9687	58.5938	80.9427	58.5938	81.1284	58.5938	81.1069	58.5938	81.2502	58.5938	81.2349	58.5938	81.3254	58.5938	81.3175	58.5938	81.3484
60.0586	79.7551	60.0586	79.7637	60.0586	79.7627	60.0586	79.7889	60.0586	79.7868	60.0586	79.8312	60.0586	79.8276	60.0586	79.8915	60.0586	79.886	60.0586	79.9709	60.0586	79.963	60.0586	80.0703	60.0586	80.0594	60.0586	80.1901	60.0586	80.176	60.0586	80.3303	60.0586	80.3127	60.0586	80.4893	60.0586	80.4686	60.0586	80.6644	60.0586	80.641	60.0586	80.8507	60.0586	80.8254	60.0586	81.0413	60.0586	81.0154	60.0586	81.2275	60.0586	81.2025	60.0586	81.3994	60.0586	81.3769	60.0586	81.5464	60.0586	81.5278	60.0586	81.6587	60.0586	81.6454	60.0586	81.7281	60.0586	81.7212	60.0586	81.7495
62.9883	80.654	62.9883	80.6642	62.9883	80.6604	62.9883	80.6911	62.9883	80.6835	62.9883	80.7347	62.9883	80.7234	62.9883	80.7947	62.9883	80.7799	62.9883	80.8712	62.9883	80.8531	62.9883	80.9639	62.9883	80.9428	62.9883	81.0725	62.9883	81.0486	62.9883	81.1959	62.9883	81.1698	62.9883	81.3329	62.9883	81.3051	62.9883	81.481	62.9883	81.452	62.9883	81.6364	62.9883	81.6072	62.9883	81.7942	62.9883	81.7657	62.9883	81.9476	62.9883	81.921	62.9883	82.0888	62.9883	82.0654	62.9883	82.2096	62.9883	82.1906	62.9883	82.3017	62.9883	82.2883	62.9883	82.3585	62.9883	82.3516	62.9883	82.3756
64.4531	80.9852	64.4531	80.9948	64.4531	80.9926	64.4531	81.0212	64.4531	81.0169	64.4531	81.0642	64.4531	81.0577	64.4531	81.1233	64.4531	81.1149	64.4531	81.198	64.4531	81.1878	64.4531	81.2878	64.4531	81.2759	64.4531	81.3917	64.4531	81.3782	64.4531	81.5086	64.4531	81.4937	64.4531	81.637	64.4531	81.6208	64.4531	81.7746	64.4531	81.7572	64.4531	81.9179	64.4531	81.9	64.4531	82.0627	64.4531	82.0446	64.4531	82.203	64.4531	82.1855	64.4531	82.332	64.4531	82.3162	64.4531	82.4422	64.4531	82.4291	64.4531	82.5265	64.4531	82.5171	64.4531	82.5787	64.4531	82.5738	64.4531	82.5949
67.3828	81.5907	67.3828	81.5996	67.3828	81.5992	67.3828	81.6256	67.3828	81.6248	67.3828	81.668	67.3828	81.667	67.3828	81.7259	67.3828	81.7247	67.3828	81.7981	67.3828	81.7968	67.3828	81.883	67.3828	81.8817	67.3828	81.9792	67.3828	81.9779	67.3828	82.085	67.3828	82.0836	67.3828	82.1986	67.3828	82.1969	67.3828	82.3177	67.3828	82.3158	67.3828	82.4399	67.3828	82.4375	67.3828	82.5616	67.3828	82.5588	67.3828	82.6786	67.3828	82.6755	67.3828	82.7857	67.3828	82.7826	67.3828	82.8773	67.3828	82.8744	67.3828	82.9476	67.3828	82.9454	67.3828	82.9918	67.3828	82.9906	67.3828	83.0064
