"SPL Vertical"
"On-Axis"		"10°"		"-10°"		"20°"		"-20°"		"30°"		"-30°"		"40°"		"-40°"		"50°"		"-50°"		"60°"		"-60°"		"70°"		"-70°"		"80°"		"-80°"		"90°"		"-90°"		"100°"		"-100°"		"110°"		"-110°"		"120°"		"-120°"		"130°"		"-130°"		"140°"		"-140°"		"150°"		"-150°"		"160°"		"-160°"		"170°"		"-170°"		"180°"
"Frequency [Hz]"	"Sound Pessure Level [dB]  / [2.83V 1m] "	"Frequency [Hz]"	"Sound Pessure Level [dB]  / [2.83V 1m] "	"Frequency [Hz]"	"Sound Pessure Level [dB]  / [2.83V 1m] "	"Frequency [Hz]"	"Sound Pessure Level [dB]  / [2.83V 1m] "	"Frequency [Hz]"	"Sound Pessure Level [dB]  / [2.83V 1m] "	"Frequency [Hz]"	"Sound Pessure Level [dB]  / [2.83V 1m] "	"Frequency [Hz]"	"Sound Pessure Level [dB]  / [2.83V 1m] "	"Frequency [Hz]"	"Sound Pessure Level [dB]  / [2.83V 1m] "	"Frequency [Hz]"	"Sound Pessure Level [dB]  / [2.83V 1m] "	"Frequency [Hz]"	"Sound Pessure Level [dB]  / [2.83V 1m] "	"Frequency [Hz]"	"Sound Pessure Level [dB]  / [2.83V 1m] "	"Frequency [Hz]"	"Sound Pessure Level [dB]  / [2.83V 1m] "	"Frequency [Hz]"	"Sound Pessure Level [dB]  / [2.83V 1m] "	"Frequency [Hz]"	"Sound Pessure Level [dB]  / [2.83V 1m] "	"Frequency [Hz]"	"Sound Pessure Level [dB]  / [2.83V 1m] "	"Frequency [Hz]"	"Sound Pessure Level [dB]  / [2.83V 1m] "	"Frequency [Hz]"	"Sound Pessure Level [dB]  / [2.83V 1m] "	"Frequency [Hz]"	"Sound Pessure Level [dB]  / [2.83V 1m] "	"Frequency [Hz]"	"Sound Pessure Level [dB]  / [2.83V 1m] "	"Frequency [Hz]"	"Sound Pessure Level [dB]  / [2.83V 1m] "	"Frequency [Hz]"	"Sound Pessure Level [dB]  / [2.83V 1m] "	"Frequency [Hz]"	"Sound Pessure Level [dB]  / [2.83V 1m] "	"Frequency [Hz]"	"Sound Pessure Level [dB]  / [2.83V 1m] "	"Frequency [Hz]"	"Sound Pessure Level [dB]  / [2.83V 1m] "	"Frequency [Hz]"	"Sound Pessure Level [dB]  / [2.83V 1m] "	"Frequency [Hz]"	"Sound Pessure Level [dB]  / [2.83V 1m] "	"Frequency [Hz]"	"Sound Pessure Level [dB]  / [2.83V 1m] "	"Frequency [Hz]"	"Sound Pessure Level [dB]  / [2.83V 1m] "	"Frequency [Hz]"	"Sound Pessure Level [dB]  / [2.83V 1m] "	"Frequency [Hz]"	"Sound Pessure Level [dB]  / [2.83V 1m] "	"Frequency [Hz]"	"Sound Pessure Level [dB]  / [2.83V 1m] "	"Frequency [Hz]"	"Sound Pessure Level [dB]  / [2.83V 1m] "	"Frequency [Hz]"	"Sound Pessure Level [dB]  / [2.83V 1m] "	"Frequency [Hz]"	"Sound Pessure Level [dB]  / [2.83V 1m] "	"Frequency [Hz]"	"Sound Pessure Level [dB]  / [2.83V 1m] "	"Frequency [Hz]"	"Sound Pessure Level [dB]  / [2.83V 1m] "
20.5078	44.6771	20.5078	45.5859	20.5078	44.3448	20.5078	46.6092	20.5078	44.9775	20.5078	47.5214	20.5078	46.3616	20.5078	48.2587	20.5078	47.9578	20.5078	48.8204	20.5078	49.4072	20.5078	49.2241	20.5078	50.5641	20.5078	49.4901	20.5078	51.385	20.5078	49.6364	20.5078	51.8648	20.5078	49.6781	20.5078	52.0149	20.5078	49.6276	20.5078	51.8578	20.5078	49.4953	20.5078	51.4288	20.5078	49.291	20.5078	50.7817	20.5078	49.0253	20.5078	49.9939	20.5078	48.7118	20.5078	49.1695	20.5078	48.3708	20.5078	48.4305	20.5078	48.0337	20.5078	47.8891	20.5078	47.7485	20.5078	47.6083	20.5078	47.5813
21.9727	54.9979	21.9727	54.1529	21.9727	55.8506	21.9727	53.3465	21.9727	56.6794	21.9727	52.6073	21.9727	57.4536	21.9727	51.9593	21.9727	58.1436	21.9727	51.4188	21.9727	58.7218	21.9727	50.9937	21.9727	59.1637	21.9727	50.6843	21.9727	59.4494	21.9727	50.4862	21.9727	59.5645	21.9727	50.3929	21.9727	59.5024	21.9727	50.3993	21.9727	59.2648	21.9727	50.5028	21.9727	58.863	21.9727	50.7024	21.9727	58.3174	21.9727	50.9982	21.9727	57.6564	21.9727	51.3886	21.9727	56.9137	21.9727	51.8698	21.9727	56.1245	21.9727	52.4349	21.9727	55.3217	21.9727	53.0746	21.9727	54.5325	21.9727	53.7781
23.4375	58.462	23.4375	58.0167	23.4375	58.9529	23.4375	57.6271	23.4375	59.4715	23.4375	57.2962	23.4375	59.9936	23.4375	57.0217	23.4375	60.4903	23.4375	56.798	23.4375	60.9307	23.4375	56.6185	23.4375	61.2857	23.4375	56.4774	23.4375	61.5303	23.4375	56.3704	23.4375	61.6462	23.4375	56.2961	23.4375	61.6243	23.4375	56.2551	23.4375	61.4652	23.4375	56.251	23.4375	61.1796	23.4375	56.2888	23.4375	60.787	23.4375	56.3753	23.4375	60.3138	23.4375	56.5175	23.4375	59.7899	23.4375	56.7219	23.4375	59.2454	23.4375	56.9928	23.4375	58.7074	23.4375	57.3316	23.4375	58.1984	23.4375	57.7359
24.9023	60.6397	24.9023	60.2454	24.9023	61.0806	24.9023	59.9068	24.9023	61.5517	24.9023	59.6266	24.9023	62.0302	24.9023	59.4017	24.9023	62.489	24.9023	59.226	24.9023	62.8992	24.9023	59.0922	24.9023	63.2334	24.9023	58.9935	24.9023	63.4676	24.9023	58.9248	24.9023	63.5848	24.9023	58.8835	24.9023	63.5762	24.9023	58.8693	24.9023	63.4426	24.9023	58.8843	24.9023	63.1943	24.9023	58.9325	24.9023	62.8501	24.9023	59.0192	24.9023	62.4351	24.9023	59.1504	24.9023	61.9771	24.9023	59.3316	24.9023	61.5035	24.9023	59.5668	24.9023	61.0383	24.9023	59.8581	24.9023	60.6006	24.9023	60.2043
26.3672	62.4699	26.3672	62.0957	26.3672	62.879	26.3672	61.7649	26.3672	63.3089	26.3672	61.4811	26.3672	63.7406	26.3672	61.2441	26.3672	64.1512	26.3672	61.0506	26.3672	64.5156	26.3672	60.8966	26.3672	64.8091	26.3672	60.7776	26.3672	65.0102	26.3672	60.6903	26.3672	65.1027	26.3672	60.6329	26.3672	65.0783	26.3672	60.6052	26.3672	64.9378	26.3672	60.6088	26.3672	64.6908	26.3672	60.647	26.3672	64.3555	26.3672	60.7239	26.3672	63.9553	26.3672	60.8444	26.3672	63.5168	26.3672	61.0132	26.3672	63.0653	26.3672	61.2337	26.3672	62.6234	26.3672	61.5077	26.3672	62.2088	26.3672	61.8341
27.832	64.3895	27.832	64.0427	27.832	64.7641	27.832	63.7311	27.832	65.1547	27.832	63.4579	27.832	65.5454	27.832	63.2235	27.832	65.9165	27.832	63.0261	27.832	66.246	27.832	62.8629	27.832	66.5117	27.832	62.7312	27.832	66.6935	27.832	62.629	27.832	66.7763	27.832	62.5557	27.832	66.7518	27.832	62.5123	27.832	66.6199	27.832	62.5012	27.832	66.3893	27.832	62.5261	27.832	66.0756	27.832	62.5918	27.832	65.6999	27.832	62.7032	27.832	65.2859	27.832	62.8648	27.832	64.8567	27.832	63.0795	27.832	64.433	27.832	63.3477	27.832	64.0321	27.832	63.6672
29.2969	66.37	29.2969	66.0523	29.2969	66.7126	29.2969	65.7665	29.2969	67.0695	29.2969	65.5161	29.2969	67.4263	29.2969	65.3021	29.2969	67.7651	29.2969	65.1239	29.2969	68.0662	29.2969	64.9797	29.2969	68.3097	29.2969	64.8679	29.2969	68.4777	29.2969	64.787	29.2969	68.5571	29.2969	64.7366	29.2969	68.5412	29.2969	64.7171	29.2969	68.4309	29.2969	64.7299	29.2969	68.2347	29.2969	64.7772	29.2969	67.9674	29.2969	64.8616	29.2969	67.6477	29.2969	64.9857	29.2969	67.2956	29.2969	65.1515	29.2969	66.9298	29.2969	65.3596	29.2969	66.5666	29.2969	65.6093	29.2969	66.2191	29.2969	65.8975
30.7617	68.0674	30.7617	67.7797	30.7617	68.3725	30.7617	67.5154	30.7617	68.686	30.7617	67.2783	30.7617	68.9962	30.7617	67.0701	30.7617	69.2884	30.7617	66.891	30.7617	69.5459	30.7617	66.7403	30.7617	69.751	30.7617	66.6171	30.7617	69.8873	30.7617	66.5207	30.7617	69.9417	30.7617	66.4508	30.7617	69.9069	30.7617	66.4079	30.7617	69.7831	30.7617	66.3936	30.7617	69.5779	30.7617	66.4101	30.7617	69.3056	30.7617	66.4603	30.7617	68.9849	30.7617	66.5474	30.7617	68.6363	30.7617	66.6745	30.7617	68.2795	30.7617	66.844	30.7617	67.9314	30.7617	67.0568	30.7617	67.6055	30.7617	67.3118
32.2266	69.6522	32.2266	69.378	32.2266	69.9462	32.2266	69.1292	32.2266	70.2511	32.2266	68.9093	32.2266	70.555	32.2266	68.7195	32.2266	70.8431	32.2266	68.5599	32.2266	71.0984	32.2266	68.4296	32.2266	71.3039	32.2266	68.3277	32.2266	71.4439	32.2266	68.2534	32.2266	71.5067	32.2266	68.2066	32.2266	71.4866	32.2266	68.1876	32.2266	71.3848	32.2266	68.1974	32.2266	71.2093	32.2266	68.2377	32.2266	70.9738	32.2266	68.3104	32.2266	70.6951	32.2266	68.4172	32.2266	70.3905	32.2266	68.5594	32.2266	70.0763	32.2266	68.7376	32.2266	69.7659	32.2266	68.9506	32.2266	69.4698	32.2266	69.196
33.6914	71.1494	33.6914	70.8691	33.6914	71.4457	33.6914	70.6114	33.6914	71.7488	33.6914	70.3804	33.6914	72.047	33.6914	70.1786	33.6914	72.3263	33.6914	70.0067	33.6914	72.5709	33.6914	69.8648	33.6914	72.765	33.6914	69.7525	33.6914	72.8945	33.6914	69.6692	33.6914	72.9486	33.6914	69.6149	33.6914	72.9222	33.6914	69.59	33.6914	72.8166	33.6914	69.5954	33.6914	72.6391	33.6914	69.6324	33.6914	72.4023	33.6914	69.703	33.6914	72.1218	33.6914	69.8089	33.6914	71.8144	33.6914	69.9515	33.6914	71.4958	33.6914	70.1314	33.6914	71.1797	33.6914	70.3477	33.6914	70.8774	33.6914	70.5979
35.1562	72.6607	35.1562	72.415	35.1562	72.9163	35.1562	72.185	35.1562	73.174	35.1562	71.975	35.1562	73.4244	35.1562	71.7878	35.1562	73.6561	35.1562	71.6251	35.1562	73.8563	35.1562	71.4881	35.1562	74.0119	35.1562	71.3771	35.1562	74.111	35.1562	71.2924	35.1562	74.1448	35.1562	71.2345	35.1562	74.109	35.1562	71.2039	35.1562	74.0051	35.1562	71.2016	35.1562	73.8404	35.1562	71.2287	35.1562	73.6265	35.1562	71.2865	35.1562	73.3774	35.1562	71.3762	35.1562	73.1077	35.1562	71.4986	35.1562	72.8307	35.1562	71.6536	35.1562	72.5574	35.1562	71.8402	35.1562	72.2968	35.1562	72.0559
36.6211	73.9024	36.6211	73.6531	36.6211	74.1618	36.6211	73.4199	36.6211	74.4236	36.6211	73.2067	36.6211	74.678	36.6211	73.0162	36.6211	74.9134	36.6211	72.8498	36.6211	75.117	36.6211	72.7084	36.6211	75.276	36.6211	72.5926	36.6211	75.379	36.6211	72.503	36.6211	75.4175	36.6211	72.4402	36.6211	75.3871	36.6211	72.4052	36.6211	75.289	36.6211	72.3992	36.6211	75.1292	36.6211	72.4238	36.6211	74.9178	36.6211	72.4808	36.6211	74.6675	36.6211	72.5717	36.6211	74.3919	36.6211	72.6979	36.6211	74.1044	36.6211	72.8599	36.6211	73.8173	36.6211	73.0566	36.6211	73.5413	36.6211	73.2854
38.0859	75.0401	38.0859	74.8009	38.0859	75.2895	38.0859	74.5778	38.0859	75.5411	38.0859	74.3748	38.0859	75.7851	38.0859	74.1943	38.0859	76.01	38.0859	74.0378	38.0859	76.2033	38.0859	73.906	38.0859	76.3527	38.0859	73.7991	38.0859	76.4473	38.0859	73.7173	38.0859	76.4794	38.0859	73.6609	38.0859	76.4455	38.0859	73.6304	38.0859	76.347	38.0859	73.6266	38.0859	76.1904	38.0859	73.6507	38.0859	75.9857	38.0859	73.7039	38.0859	75.7455	38.0859	73.7879	38.0859	75.4829	38.0859	73.904	38.0859	75.2108	38.0859	74.0527	38.0859	74.9407	38.0859	74.2337	38.0859	74.6828	38.0859	74.4451
39.5508	76.2359	39.5508	76.0033	39.5508	76.4756	39.5508	75.7837	39.5508	76.7149	39.5508	75.5812	39.5508	76.9445	39.5508	75.3988	39.5508	77.1539	39.5508	75.2385	39.5508	77.3315	39.5508	75.1016	39.5508	77.4661	39.5508	74.9887	39.5508	77.5477	39.5508	74.9006	39.5508	77.5693	39.5508	74.8379	39.5508	77.5278	39.5508	74.8012	39.5508	77.4248	39.5508	74.7914	39.5508	77.2666	39.5508	74.8096	39.5508	77.0632	39.5508	74.8571	39.5508	76.8265	39.5508	74.9352	39.5508	76.5695	39.5508	75.0448	39.5508	76.3043	39.5508	75.1866	39.5508	76.0421	39.5508	75.3601	39.5508	75.7926	39.5508	75.5633
41.0156	77.4627	41.0156	77.2404	41.0156	77.6941	41.0156	77.0332	41.0156	77.9271	41.0156	76.8453	41.0156	78.1529	41.0156	76.6799	41.0156	78.3615	41.0156	76.5388	41.0156	78.5422	41.0156	76.4233	41.0156	78.685	41.0156	76.334	41.0156	78.7812	41.0156	76.2714	41.0156	78.8246	41.0156	76.2356	41.0156	78.8128	41.0156	76.2269	41.0156	78.7472	41.0156	76.2457	41.0156	78.6328	41.0156	76.2924	41.0156	78.477	41.0156	76.3675	41.0156	78.2884	41.0156	76.4713	41.0156	78.0758	41.0156	76.6037	41.0156	77.848	41.0156	76.7638	41.0156	77.6134	41.0156	76.9494	41.0156	77.3804	41.0156	77.1568
42.4805	78.3219	42.4805	78.1074	42.4805	78.5411	42.4805	77.9034	42.4805	78.7576	42.4805	77.7144	42.4805	78.9629	42.4805	77.5436	42.4805	79.1474	42.4805	77.3936	42.4805	79.301	42.4805	77.2658	42.4805	79.4142	42.4805	77.1613	42.4805	79.4786	42.4805	77.0809	42.4805	79.4888	42.4805	77.0252	42.4805	79.4432	42.4805	76.9947	42.4805	79.3445	42.4805	76.9899	42.4805	79.1993	42.4805	77.0115	42.4805	79.0171	42.4805	77.0599	42.4805	78.8087	42.4805	77.1358	42.4805	78.5848	42.4805	77.2393	42.4805	78.3551	42.4805	77.3703	42.4805	78.1279	42.4805	77.5275	42.4805	77.9104	42.4805	77.7087
43.9453	79.1537	43.9453	78.9394	43.9453	79.3706	43.9453	78.7335	43.9453	79.5829	43.9453	78.5409	43.9453	79.7823	43.9453	78.3651	43.9453	79.9595	43.9453	78.2088	43.9453	80.105	43.9453	78.074	43.9453	80.2097	43.9453	77.9622	43.9453	80.266	43.9453	77.8745	43.9453	80.2689	43.9453	77.8117	43.9453	80.2171	43.9453	77.7746	43.9453	80.1136	43.9453	77.7641	43.9453	79.9649	43.9453	77.7807	43.9453	79.7803	43.9453	77.8253	43.9453	79.5705	43.9453	77.8984	43.9453	79.3457	43.9453	78.0001	43.9453	79.1155	43.9453	78.13	43.9453	78.8879	43.9453	78.2868	43.9453	78.6701	43.9453	78.4681
45.4102	79.9739	45.4102	79.7665	45.4102	80.1828	45.4102	79.5666	45.4102	80.3862	45.4102	79.379	45.4102	80.5759	45.4102	79.2073	45.4102	80.7431	45.4102	79.0546	45.4102	80.8787	45.4102	78.9229	45.4102	80.9743	45.4102	78.8139	45.4102	81.0227	45.4102	78.7289	45.4102	81.0198	45.4102	78.6689	45.4102	80.9648	45.4102	78.6347	45.4102	80.861	45.4102	78.6268	45.4102	80.7154	45.4102	78.6455	45.4102	80.5372	45.4102	78.6911	45.4102	80.3369	45.4102	78.7634	45.4102	80.1244	45.4102	78.8622	45.4102	79.9082	45.4102	78.9864	45.4102	79.6956	45.4102	79.1345	45.4102	79.4927	45.4102	79.3044
46.875	80.7667	46.875	80.5624	46.875	80.9712	46.875	80.3642	46.875	81.1688	46.875	80.1768	46.875	81.3516	46.875	80.0041	46.875	81.5112	46.875	79.8491	46.875	81.6389	46.875	79.7142	46.875	81.7263	46.875	79.6011	46.875	81.7669	46.875	79.5111	46.875	81.7566	46.875	79.4454	46.875	81.6948	46.875	79.4045	46.875	81.5847	46.875	79.3892	46.875	81.4331	46.875	79.3999	46.875	81.2494	46.875	79.4367	46.875	81.0439	46.875	79.5	46.875	80.8271	46.875	79.5896	46.875	80.6082	46.875	79.705	46.875	80.3948	46.875	79.8454	46.875	80.1935	46.875	80.0091
48.3398	81.5063	48.3398	81.3053	48.3398	81.7068	48.3398	81.1096	48.3398	81.8998	48.3398	80.9242	48.3398	82.0777	48.3398	80.7531	48.3398	82.2322	48.3398	80.5993	48.3398	82.355	48.3398	80.4654	48.3398	82.4385	48.3398	80.3532	48.3398	82.4764	48.3398	80.2641	48.3398	82.4651	48.3398	80.1992	48.3398	82.4044	48.3398	80.1591	48.3398	82.2973	48.3398	80.1445	48.3398	82.1504	48.3398	80.1556	48.3398	81.9726	48.3398	80.1927	48.3398	81.7735	48.3398	80.2559	48.3398	81.5627	48.3398	80.345	48.3398	81.3491	48.3398	80.4596	48.3398	81.1403	48.3398	80.5987	48.3398	80.9424	48.3398	80.7606
51.2695	82.7396	51.2695	82.5432	51.2695	82.9335	51.2695	82.3504	51.2695	83.1183	51.2695	82.1661	51.2695	83.2866	51.2695	81.9945	51.2695	83.4307	51.2695	81.8392	51.2695	83.5431	51.2695	81.703	51.2695	83.6168	51.2695	81.5879	51.2695	83.6466	51.2695	81.4957	51.2695	83.6295	51.2695	81.4276	51.2695	83.5654	51.2695	81.3844	51.2695	83.4579	51.2695	81.3667	51.2695	83.3131	51.2695	81.3748	51.2695	83.1394	51.2695	81.409	51.2695	82.9456	51.2695	81.4692	51.2695	82.7408	51.2695	81.5552	51.2695	82.5332	51.2695	81.6665	51.2695	82.3299	51.2695	81.8019	51.2695	82.137	51.2695	81.9597
52.7344	83.2897	52.7344	83.0977	52.7344	83.479	52.7344	82.9087	52.7344	83.6587	52.7344	82.7279	52.7344	83.8218	52.7344	82.5596	52.7344	83.9609	52.7344	82.4074	52.7344	84.0686	52.7344	82.274	52.7344	84.1387	52.7344	82.1619	52.7344	84.1661	52.7344	82.0726	52.7344	84.1482	52.7344	82.0074	52.7344	84.0856	52.7344	81.967	52.7344	83.9817	52.7344	81.952	52.7344	83.8426	52.7344	81.9626	52.7344	83.6763	52.7344	81.9986	52.7344	83.4912	52.7344	82.0601	52.7344	83.2955	52.7344	82.1463	52.7344	83.0968	52.7344	82.2567	52.7344	82.9017	52.7344	82.3899	52.7344	82.7158	52.7344	82.5439
54.1992	83.7644	54.1992	83.5765	54.1992	83.9488	54.1992	83.391	54.1992	84.1231	54.1992	83.2131	54.1992	84.2802	54.1992	83.0472	54.1992	84.4131	54.1992	82.8971	54.1992	84.5146	54.1992	82.7657	54.1992	84.5789	54.1992	82.6555	54.1992	84.6015	54.1992	82.5681	54.1992	84.5803	54.1992	82.5048	54.1992	84.5162	54.1992	82.4664	54.1992	84.413	54.1992	82.4532	54.1992	84.277	54.1992	82.4651	54.1992	84.116	54.1992	82.5021	54.1992	83.9381	54.1992	82.5635	54.1992	83.751	54.1992	82.6486	54.1992	83.5616	54.1992	82.7565	54.1992	83.3757	54.1992	82.8855	54.1992	83.1983	54.1992	83.0337
55.6641	84.2733	55.6641	84.09	55.6641	84.4521	55.6641	83.9079	55.6641	84.6198	55.6641	83.7324	55.6641	84.7697	55.6641	83.5679	55.6641	84.8949	55.6641	83.4183	55.6641	84.9889	55.6641	83.2867	55.6641	85.0462	55.6641	83.1757	55.6641	85.0627	55.6641	83.0871	55.6641	85.0369	55.6641	83.0222	55.6641	84.9699	55.6641	82.9819	55.6641	84.8658	55.6641	82.9665	55.6641	84.7308	55.6641	82.9761	55.6641	84.5726	55.6641	83.0103	55.6641	84.3989	55.6641	83.0687	55.6641	84.2171	55.6641	83.1504	55.6641	84.0334	55.6641	83.2544	55.6641	83.8533	55.6641	83.379	55.6641	83.6816	55.6641	83.5223
58.5938	85.0511	58.5938	84.8673	58.5938	85.2284	58.5938	84.6827	58.5938	85.3927	58.5938	84.5028	58.5938	85.5373	58.5938	84.3323	58.5938	85.6556	58.5938	84.1756	58.5938	85.741	58.5938	84.0362	58.5938	85.788	58.5938	83.9172	58.5938	85.7928	58.5938	83.8209	58.5938	85.7543	58.5938	83.749	58.5938	85.674	58.5938	83.7025	58.5938	85.5566	58.5938	83.6817	58.5938	85.4093	58.5938	83.6866	58.5938	85.2407	58.5938	83.7163	58.5938	85.0594	58.5938	83.77	58.5938	84.8736	58.5938	83.8463	58.5938	84.6898	58.5938	83.9439	58.5938	84.5133	58.5938	84.0611	58.5938	84.3478	58.5938	84.1963
60.0586	85.4054	60.0586	85.2207	60.0586	85.583	60.0586	85.0346	60.0586	85.747	60.0586	84.8527	60.0586	85.8908	60.0586	84.6802	60.0586	86.0079	60.0586	84.5213	60.0586	86.092	60.0586	84.38	60.0586	86.1376	60.0586	84.2594	60.0586	86.1411	60.0586	84.1618	60.0586	86.1011	60.0586	84.089	60.0586	86.0194	60.0586	84.0417	60.0586	85.9003	60.0586	84.0202	60.0586	85.7508	60.0586	84.0242	60.0586	85.5795	60.0586	84.0528	60.0586	85.3952	60.0586	84.105	60.0586	85.2062	60.0586	84.1795	60.0586	85.0197	60.0586	84.275	60.0586	84.8413	60.0586	84.3904	60.0586	84.6752	60.0586	84.5243
62.9883	86.1309	62.9883	85.9474	62.9883	86.3055	62.9883	85.7611	62.9883	86.4649	62.9883	85.5774	62.9883	86.6026	62.9883	85.4012	62.9883	86.7122	62.9883	85.2372	62.9883	86.7874	62.9883	85.0891	62.9883	86.8233	62.9883	84.9603	62.9883	86.8167	62.9883	84.8532	62.9883	86.7668	62.9883	84.7699	62.9883	86.6755	62.9883	84.7114	62.9883	86.5477	62.9883	84.6786	62.9883	86.3902	62.9883	84.6713	62.9883	86.2115	62.9883	84.6893	62.9883	86.0203	62.9883	84.7319	62.9883	85.825	62.9883	84.7983	62.9883	85.6331	62.9883	84.8876	62.9883	85.4506	62.9883	84.9988	62.9883	85.2821	62.9883	85.1307
64.4531	86.427	64.4531	86.2449	64.4531	86.5996	64.4531	86.0593	64.4531	86.7563	64.4531	85.8757	64.4531	86.8907	64.4531	85.6992	64.4531	86.9965	64.4531	85.5342	64.4531	87.0676	64.4531	85.3848	64.4531	87.0995	64.4531	85.2542	64.4531	87.0892	64.4531	85.145	64.4531	87.0363	64.4531	85.0593	64.4531	86.9428	64.4531	84.9981	64.4531	86.8135	64.4531	84.9622	64.4531	86.6551	64.4531	84.9516	64.4531	86.4757	64.4531	84.9662	64.4531	86.284	64.4531	85.0054	64.4531	86.0882	64.4531	85.0686	64.4531	85.8957	64.4531	85.1549	64.4531	85.7129	64.4531	85.2637	64.4531	85.5445	64.4531	85.3941
67.3828	86.8375	67.3828	86.6577	67.3828	87.0072	67.3828	86.4738	67.3828	87.1606	67.3828	86.2915	67.3828	87.2916	67.3828	86.1164	67.3828	87.3944	67.3828	85.9532	67.3828	87.464	67.3828	85.8064	67.3828	87.4967	67.3828	85.6795	67.3828	87.4902	67.3828	85.5754	67.3828	87.4446	67.3828	85.496	67.3828	87.362	67.3828	85.4426	67.3828	87.2465	67.3828	85.4154	67.3828	87.1039	67.3828	85.4144	67.3828	86.9409	67.3828	85.4389	67.3828	86.7644	67.3828	85.4878	67.3828	86.5814	67.3828	85.56	67.3828	86.3985	67.3828	85.6543	67.3828	86.2215	67.3828	85.7694	67.3828	86.0554	67.3828	85.9037
68.8477	86.9941	68.8477	86.8197	68.8477	87.1589	68.8477	86.6416	68.8477	87.3081	68.8477	86.4655	68.8477	87.4359	68.8477	86.2968	68.8477	87.5367	68.8477	86.1403	68.8477	87.606	68.8477	86.0004	68.8477	87.6403	68.8477	85.8806	68.8477	87.6378	68.8477	85.7838	68.8477	87.5987	68.8477	85.7118	68.8477	87.5255	68.8477	85.6658	68.8477	87.4219	68.8477	85.6461	68.8477	87.2931	68.8477	85.6524	68.8477	87.145	68.8477	85.6838	68.8477	86.9835	68.8477	85.7391	68.8477	86.8144	68.8477	85.8166	68.8477	86.6432	68.8477	85.9149	68.8477	86.4752	68.8477	86.0321	68.8477	86.315	68.8477	86.1662
