"SPL Horizontal"
"On-Axis"		"10°"		"-10°"		"20°"		"-20°"		"30°"		"-30°"		"40°"		"-40°"		"50°"		"-50°"		"60°"		"-60°"		"70°"		"-70°"		"80°"		"-80°"		"90°"		"-90°"		"100°"		"-100°"		"110°"		"-110°"		"120°"		"-120°"		"130°"		"-130°"		"140°"		"-140°"		"150°"		"-150°"		"160°"		"-160°"		"170°"		"-170°"		"180°"
"Frequency / Hz"	"Sound Pressure Level / dB (re 20 µPa/V)  [0.3V at 1m]"	"Frequency / Hz"	"Sound Pressure Level / dB (re 20 µPa/V)  [0.3V at 1m]"	"Frequency / Hz"	"Sound Pressure Level / dB (re 20 µPa/V)  [0.3V at 1m]"	"Frequency / Hz"	"Sound Pressure Level / dB (re 20 µPa/V)  [0.3V at 1m]"	"Frequency / Hz"	"Sound Pressure Level / dB (re 20 µPa/V)  [0.3V at 1m]"	"Frequency / Hz"	"Sound Pressure Level / dB (re 20 µPa/V)  [0.3V at 1m]"	"Frequency / Hz"	"Sound Pressure Level / dB (re 20 µPa/V)  [0.3V at 1m]"	"Frequency / Hz"	"Sound Pressure Level / dB (re 20 µPa/V)  [0.3V at 1m]"	"Frequency / Hz"	"Sound Pressure Level / dB (re 20 µPa/V)  [0.3V at 1m]"	"Frequency / Hz"	"Sound Pressure Level / dB (re 20 µPa/V)  [0.3V at 1m]"	"Frequency / Hz"	"Sound Pressure Level / dB (re 20 µPa/V)  [0.3V at 1m]"	"Frequency / Hz"	"Sound Pressure Level / dB (re 20 µPa/V)  [0.3V at 1m]"	"Frequency / Hz"	"Sound Pressure Level / dB (re 20 µPa/V)  [0.3V at 1m]"	"Frequency / Hz"	"Sound Pressure Level / dB (re 20 µPa/V)  [0.3V at 1m]"	"Frequency / Hz"	"Sound Pressure Level / dB (re 20 µPa/V)  [0.3V at 1m]"	"Frequency / Hz"	"Sound Pressure Level / dB (re 20 µPa/V)  [0.3V at 1m]"	"Frequency / Hz"	"Sound Pressure Level / dB (re 20 µPa/V)  [0.3V at 1m]"	"Frequency / Hz"	"Sound Pressure Level / dB (re 20 µPa/V)  [0.3V at 1m]"	"Frequency / Hz"	"Sound Pressure Level / dB (re 20 µPa/V)  [0.3V at 1m]"	"Frequency / Hz"	"Sound Pressure Level / dB (re 20 µPa/V)  [0.3V at 1m]"	"Frequency / Hz"	"Sound Pressure Level / dB (re 20 µPa/V)  [0.3V at 1m]"	"Frequency / Hz"	"Sound Pressure Level / dB (re 20 µPa/V)  [0.3V at 1m]"	"Frequency / Hz"	"Sound Pressure Level / dB (re 20 µPa/V)  [0.3V at 1m]"	"Frequency / Hz"	"Sound Pressure Level / dB (re 20 µPa/V)  [0.3V at 1m]"	"Frequency / Hz"	"Sound Pressure Level / dB (re 20 µPa/V)  [0.3V at 1m]"	"Frequency / Hz"	"Sound Pressure Level / dB (re 20 µPa/V)  [0.3V at 1m]"	"Frequency / Hz"	"Sound Pressure Level / dB (re 20 µPa/V)  [0.3V at 1m]"	"Frequency / Hz"	"Sound Pressure Level / dB (re 20 µPa/V)  [0.3V at 1m]"	"Frequency / Hz"	"Sound Pressure Level / dB (re 20 µPa/V)  [0.3V at 1m]"	"Frequency / Hz"	"Sound Pressure Level / dB (re 20 µPa/V)  [0.3V at 1m]"	"Frequency / Hz"	"Sound Pressure Level / dB (re 20 µPa/V)  [0.3V at 1m]"	"Frequency / Hz"	"Sound Pressure Level / dB (re 20 µPa/V)  [0.3V at 1m]"	"Frequency / Hz"	"Sound Pressure Level / dB (re 20 µPa/V)  [0.3V at 1m]"	"Frequency / Hz"	"Sound Pressure Level / dB (re 20 µPa/V)  [0.3V at 1m]"	"Frequency / Hz"	"Sound Pressure Level / dB (re 20 µPa/V)  [0.3V at 1m]"	"Frequency / Hz"	"Sound Pressure Level / dB (re 20 µPa/V)  [0.3V at 1m]"
20.5078	96.1314	20.5078	96.1226	20.5078	96.1143	20.5078	96.0895	20.5078	96.0702	20.5078	96.0334	20.5078	95.9987	20.5078	95.9557	20.5078	95.9007	20.5078	95.8575	20.5078	95.7786	20.5078	95.7403	20.5078	95.6364	20.5078	95.6066	20.5078	95.4791	20.5078	95.4595	20.5078	95.3128	20.5078	95.303	20.5078	95.144	20.5078	95.142	20.5078	94.9789	20.5078	94.9816	20.5078	94.8231	20.5078	94.8272	20.5078	94.6815	20.5078	94.6844	20.5078	94.5578	20.5078	94.5581	20.5078	94.4549	20.5078	94.4529	20.5078	94.3752	20.5078	94.372	20.5078	94.3204	20.5078	94.3177	20.5078	94.292	20.5078	94.291
21.2402	98.1335	21.2402	98.1328	21.2402	98.1083	21.2402	98.1067	21.2402	98.0572	21.2402	98.0564	21.2402	97.9809	21.2402	97.9833	21.2402	97.8813	21.2402	97.8892	21.2402	97.7609	21.2402	97.7764	21.2402	97.6234	21.2402	97.6474	21.2402	97.4731	21.2402	97.5056	21.2402	97.3152	21.2402	97.3546	21.2402	97.1551	21.2402	97.1987	21.2402	96.9985	21.2402	97.0427	21.2402	96.8503	21.2402	96.8914	21.2402	96.7152	21.2402	96.7501	21.2402	96.5968	21.2402	96.6237	21.2402	96.4982	21.2402	96.5169	21.2402	96.4219	21.2402	96.4334	21.2402	96.3701	21.2402	96.3759	21.2402	96.3444	21.2402	96.3461
21.9727	99.3674	21.9727	99.345	21.9727	99.3635	21.9727	99.2972	21.9727	99.3329	21.9727	99.225	21.9727	99.2758	21.9727	99.1296	21.9727	99.1931	21.9727	99.0129	21.9727	99.0865	21.9727	98.877	21.9727	98.9584	21.9727	98.7246	21.9727	98.8125	21.9727	98.5594	21.9727	98.6529	21.9727	98.3861	21.9727	98.4847	21.9727	98.21	21.9727	98.3132	21.9727	98.0371	21.9727	98.1438	21.9727	97.8739	21.9727	97.9816	21.9727	97.7266	21.9727	97.8314	21.9727	97.6013	21.9727	97.6975	21.9727	97.5031	21.9727	97.5839	21.9727	97.4356	21.9727	97.4943	21.9727	97.4012	21.9727	97.4321	21.9727	97.4003
22.7051	100.207	22.7051	100.182	22.7051	100.209	22.7051	100.135	22.7051	100.188	22.7051	100.069	22.7051	100.144	22.7051	99.9851	22.7051	100.077	22.7051	99.8846	22.7051	99.9884	22.7051	99.7701	22.7051	99.8806	22.7051	99.6442	22.7051	99.757	22.7051	99.5104	22.7051	99.6219	22.7051	99.3725	22.7051	99.48	22.7051	99.2352	22.7051	99.3366	22.7051	99.1031	22.7051	99.1971	22.7051	98.9813	22.7051	99.0664	22.7051	98.8741	22.7051	98.9487	22.7051	98.785	22.7051	98.8475	22.7051	98.7164	22.7051	98.765	22.7051	98.6696	22.7051	98.7029	22.7051	98.6451	22.7051	98.6619	22.7051	98.6426
23.4375	100.85	23.4375	100.822	23.4375	100.858	23.4375	100.776	23.4375	100.844	23.4375	100.712	23.4375	100.81	23.4375	100.632	23.4375	100.755	23.4375	100.538	23.4375	100.681	23.4375	100.432	23.4375	100.59	23.4375	100.317	23.4375	100.484	23.4375	100.197	23.4375	100.368	23.4375	100.075	23.4375	100.247	23.4375	99.957	23.4375	100.125	23.4375	99.847	23.4375	100.007	23.4375	99.7496	23.4375	99.8973	23.4375	99.6684	23.4375	99.7992	23.4375	99.6054	23.4375	99.7151	23.4375	99.5611	23.4375	99.6463	23.4375	99.5351	23.4375	99.5931	23.4375	99.5261	23.4375	99.5555	23.4375	99.5331
24.1699	101.358	24.1699	101.342	24.1699	101.353	24.1699	101.305	24.1699	101.326	24.1699	101.249	24.1699	101.278	24.1699	101.175	24.1699	101.211	24.1699	101.085	24.1699	101.126	24.1699	100.982	24.1699	101.026	24.1699	100.869	24.1699	100.915	24.1699	100.75	24.1699	100.796	24.1699	100.63	24.1699	100.676	24.1699	100.515	24.1699	100.56	24.1699	100.409	24.1699	100.452	24.1699	100.318	24.1699	100.357	24.1699	100.244	24.1699	100.278	24.1699	100.187	24.1699	100.215	24.1699	100.148	24.1699	100.169	24.1699	100.124	24.1699	100.138	24.1699	100.112	24.1699	100.119	24.1699	100.111
25.6348	102.442	25.6348	102.411	25.6348	102.448	25.6348	102.356	25.6348	102.428	25.6348	102.279	25.6348	102.382	25.6348	102.181	25.6348	102.311	25.6348	102.065	25.6348	102.216	25.6348	101.934	25.6348	102.1	25.6348	101.791	25.6348	101.966	25.6348	101.641	25.6348	101.819	25.6348	101.489	25.6348	101.664	25.6348	101.341	25.6348	101.508	25.6348	101.201	25.6348	101.355	25.6348	101.075	25.6348	101.212	25.6348	100.966	25.6348	101.084	25.6348	100.879	25.6348	100.974	25.6348	100.813	25.6348	100.885	25.6348	100.769	25.6348	100.818	25.6348	100.748	25.6348	100.772	25.6348	100.749
26.3672	102.649	26.3672	102.617	26.3672	102.656	26.3672	102.56	26.3672	102.635	26.3672	102.478	26.3672	102.588	26.3672	102.375	26.3672	102.514	26.3672	102.251	26.3672	102.416	26.3672	102.111	26.3672	102.295	26.3672	101.958	26.3672	102.155	26.3672	101.797	26.3672	102.001	26.3672	101.634	26.3672	101.839	26.3672	101.476	26.3672	101.675	26.3672	101.327	26.3672	101.516	26.3672	101.196	26.3672	101.367	26.3672	101.084	26.3672	101.234	26.3672	100.997	26.3672	101.121	26.3672	100.934	26.3672	101.029	26.3672	100.894	26.3672	100.959	26.3672	100.878	26.3672	100.91	26.3672	100.883
27.0996	102.922	27.0996	102.891	27.0996	102.925	27.0996	102.831	27.0996	102.898	27.0996	102.745	27.0996	102.843	27.0996	102.635	27.0996	102.759	27.0996	102.501	27.0996	102.649	27.0996	102.348	27.0996	102.514	27.0996	102.179	27.0996	102.36	27.0996	101.999	27.0996	102.189	27.0996	101.815	27.0996	102.009	27.0996	101.632	27.0996	101.826	27.0996	101.458	27.0996	101.646	27.0996	101.3	27.0996	101.476	27.0996	101.163	27.0996	101.321	27.0996	101.051	27.0996	101.187	27.0996	100.967	27.0996	101.075	27.0996	100.913	27.0996	100.988	27.0996	100.889	27.0996	100.927	27.0996	100.894
27.832	103.173	27.832	103.144	27.832	103.174	27.832	103.086	27.832	103.144	27.832	103	27.832	103.085	27.832	102.889	27.832	102.997	27.832	102.753	27.832	102.882	27.832	102.596	27.832	102.741	27.832	102.422	27.832	102.578	27.832	102.234	27.832	102.398	27.832	102.039	27.832	102.206	27.832	101.843	27.832	102.01	27.832	101.654	27.832	101.816	27.832	101.479	27.832	101.631	27.832	101.324	27.832	101.462	27.832	101.195	27.832	101.314	27.832	101.095	27.832	101.19	27.832	101.029	27.832	101.095	27.832	100.996	27.832	101.03	27.832	100.996
29.2969	103.626	29.2969	103.6	29.2969	103.623	29.2969	103.543	29.2969	103.588	29.2969	103.458	29.2969	103.523	29.2969	103.346	29.2969	103.429	29.2969	103.209	29.2969	103.306	29.2969	103.051	29.2969	103.157	29.2969	102.873	29.2969	102.987	29.2969	102.682	29.2969	102.799	29.2969	102.483	29.2969	102.599	29.2969	102.282	29.2969	102.393	29.2969	102.085	29.2969	102.189	29.2969	101.899	29.2969	101.993	29.2969	101.731	29.2969	101.812	29.2969	101.586	29.2969	101.652	29.2969	101.469	29.2969	101.52	29.2969	101.384	29.2969	101.418	29.2969	101.336	29.2969	101.353	29.2969	101.325
30.0293	103.542	30.0293	103.522	30.0293	103.533	30.0293	103.473	30.0293	103.494	30.0293	103.395	30.0293	103.426	30.0293	103.291	30.0293	103.329	30.0293	103.162	30.0293	103.206	30.0293	103.01	30.0293	103.059	30.0293	102.84	30.0293	102.89	30.0293	102.656	30.0293	102.707	30.0293	102.464	30.0293	102.513	30.0293	102.27	30.0293	102.316	30.0293	102.081	30.0293	102.123	30.0293	101.903	30.0293	101.941	30.0293	101.743	30.0293	101.775	30.0293	101.606	30.0293	101.632	30.0293	101.495	30.0293	101.515	30.0293	101.415	30.0293	101.428	30.0293	101.367	30.0293	101.374	30.0293	101.353
31.4941	103.764	31.4941	103.744	31.4941	103.752	31.4941	103.694	31.4941	103.71	31.4941	103.615	31.4941	103.638	31.4941	103.508	31.4941	103.537	31.4941	103.376	31.4941	103.409	31.4941	103.222	31.4941	103.258	31.4941	103.049	31.4941	103.088	31.4941	102.865	31.4941	102.903	31.4941	102.673	31.4941	102.711	31.4941	102.482	31.4941	102.518	31.4941	102.299	31.4941	102.332	31.4941	102.13	31.4941	102.159	31.4941	101.981	31.4941	102.006	31.4941	101.856	31.4941	101.877	31.4941	101.759	31.4941	101.775	31.4941	101.69	31.4941	101.7	31.4941	101.65	31.4941	101.655	31.4941	101.638
32.2266	103.933	32.2266	103.914	32.2266	103.92	32.2266	103.865	32.2266	103.876	32.2266	103.786	32.2266	103.802	32.2266	103.678	32.2266	103.699	32.2266	103.546	32.2266	103.57	32.2266	103.39	32.2266	103.416	32.2266	103.217	32.2266	103.243	32.2266	103.03	32.2266	103.056	32.2266	102.838	32.2266	102.862	32.2266	102.645	32.2266	102.668	32.2266	102.46	32.2266	102.48	32.2266	102.289	32.2266	102.307	32.2266	102.139	32.2266	102.155	32.2266	102.013	32.2266	102.026	32.2266	101.915	32.2266	101.925	32.2266	101.846	32.2266	101.853	32.2266	101.805	32.2266	101.809	32.2266	101.793
33.6914	104.13	33.6914	104.11	33.6914	104.118	33.6914	104.059	33.6914	104.074	33.6914	103.978	33.6914	103.999	33.6914	103.868	33.6914	103.894	33.6914	103.732	33.6914	103.762	33.6914	103.574	33.6914	103.606	33.6914	103.397	33.6914	103.43	33.6914	103.207	33.6914	103.24	33.6914	103.011	33.6914	103.043	33.6914	102.817	33.6914	102.847	33.6914	102.631	33.6914	102.659	33.6914	102.461	33.6914	102.486	33.6914	102.312	33.6914	102.335	33.6914	102.19	33.6914	102.209	33.6914	102.095	33.6914	102.111	33.6914	102.029	33.6914	102.041	33.6914	101.992	33.6914	101.998	33.6914	101.982
34.4238	104.274	34.4238	104.256	34.4238	104.259	34.4238	104.207	34.4238	104.212	34.4238	104.126	34.4238	104.134	34.4238	104.016	34.4238	104.027	34.4238	103.879	34.4238	103.891	34.4238	103.719	34.4238	103.732	34.4238	103.539	34.4238	103.554	34.4238	103.347	34.4238	103.363	34.4238	103.148	34.4238	103.165	34.4238	102.95	34.4238	102.968	34.4238	102.761	34.4238	102.781	34.4238	102.588	34.4238	102.609	34.4238	102.437	34.4238	102.46	34.4238	102.313	34.4238	102.335	34.4238	102.219	34.4238	102.238	34.4238	102.153	34.4238	102.168	34.4238	102.117	34.4238	102.125	34.4238	102.108
35.8887	104.657	35.8887	104.639	35.8887	104.64	35.8887	104.589	35.8887	104.588	35.8887	104.505	35.8887	104.504	35.8887	104.391	35.8887	104.389	35.8887	104.249	35.8887	104.244	35.8887	104.081	35.8887	104.075	35.8887	103.894	35.8887	103.885	35.8887	103.693	35.8887	103.681	35.8887	103.486	35.8887	103.471	35.8887	103.28	35.8887	103.262	35.8887	103.082	35.8887	103.063	35.8887	102.901	35.8887	102.881	35.8887	102.742	35.8887	102.723	35.8887	102.609	35.8887	102.593	35.8887	102.505	35.8887	102.493	35.8887	102.431	35.8887	102.423	35.8887	102.386	35.8887	102.382	35.8887	102.37
37.3535	104.79	37.3535	104.773	37.3535	104.772	37.3535	104.721	37.3535	104.719	37.3535	104.635	37.3535	104.632	37.3535	104.517	37.3535	104.514	37.3535	104.37	37.3535	104.367	37.3535	104.199	37.3535	104.195	37.3535	104.009	37.3535	104.005	37.3535	103.808	37.3535	103.801	37.3535	103.603	37.3535	103.593	37.3535	103.402	37.3535	103.389	37.3535	103.215	37.3535	103.197	37.3535	103.047	37.3535	103.024	37.3535	102.904	37.3535	102.878	37.3535	102.787	37.3535	102.761	37.3535	102.698	37.3535	102.674	37.3535	102.635	37.3535	102.616	37.3535	102.595	37.3535	102.586	37.3535	102.579
38.8184	104.966	38.8184	104.952	38.8184	104.945	38.8184	104.901	38.8184	104.888	38.8184	104.815	38.8184	104.796	38.8184	104.695	38.8184	104.673	38.8184	104.545	38.8184	104.519	38.8184	104.367	38.8184	104.341	38.8184	104.169	38.8184	104.143	38.8184	103.956	38.8184	103.933	38.8184	103.738	38.8184	103.717	38.8184	103.522	38.8184	103.506	38.8184	103.319	38.8184	103.308	38.8184	103.136	38.8184	103.131	38.8184	102.98	38.8184	102.98	38.8184	102.854	38.8184	102.858	38.8184	102.761	38.8184	102.767	38.8184	102.698	38.8184	102.703	38.8184	102.662	38.8184	102.666	38.8184	102.652
39.5508	105.07	39.5508	105.053	39.5508	105.049	39.5508	105	39.5508	104.993	39.5508	104.911	39.5508	104.901	39.5508	104.788	39.5508	104.776	39.5508	104.634	39.5508	104.621	39.5508	104.453	39.5508	104.44	39.5508	104.25	39.5508	104.24	39.5508	104.033	39.5508	104.026	39.5508	103.811	39.5508	103.807	39.5508	103.592	39.5508	103.592	39.5508	103.386	39.5508	103.391	39.5508	103.202	39.5508	103.211	39.5508	103.045	39.5508	103.058	39.5508	102.921	39.5508	102.935	39.5508	102.829	39.5508	102.843	39.5508	102.767	39.5508	102.779	39.5508	102.734	39.5508	102.74	39.5508	102.726
41.0156	105.26	41.0156	105.241	41.0156	105.241	41.0156	105.183	41.0156	105.183	41.0156	105.088	41.0156	105.089	41.0156	104.957	41.0156	104.959	41.0156	104.792	41.0156	104.798	41.0156	104.599	41.0156	104.61	41.0156	104.383	41.0156	104.4	41.0156	104.152	41.0156	104.176	41.0156	103.916	41.0156	103.946	41.0156	103.684	41.0156	103.721	41.0156	103.467	41.0156	103.51	41.0156	103.274	41.0156	103.321	41.0156	103.112	41.0156	103.161	41.0156	102.985	41.0156	103.032	41.0156	102.894	41.0156	102.934	41.0156	102.836	41.0156	102.866	41.0156	102.807	41.0156	102.823	41.0156	102.803
42.4805	105.512	42.4805	105.495	42.4805	105.486	42.4805	105.437	42.4805	105.418	42.4805	105.337	42.4805	105.311	42.4805	105.198	42.4805	105.167	42.4805	105.02	42.4805	104.987	42.4805	104.81	42.4805	104.777	42.4805	104.572	42.4805	104.543	42.4805	104.315	42.4805	104.292	42.4805	104.05	42.4805	104.034	42.4805	103.786	42.4805	103.781	42.4805	103.537	42.4805	103.542	42.4805	103.314	42.4805	103.329	42.4805	103.125	42.4805	103.148	42.4805	102.976	42.4805	103.002	42.4805	102.868	42.4805	102.894	42.4805	102.797	42.4805	102.818	42.4805	102.761	42.4805	102.773	42.4805	102.754
43.9453	105.875	43.9453	105.854	43.9453	105.851	43.9453	105.788	43.9453	105.781	43.9453	105.676	43.9453	105.667	43.9453	105.519	43.9453	105.51	43.9453	105.319	43.9453	105.312	43.9453	105.078	43.9453	105.076	43.9453	104.802	43.9453	104.806	43.9453	104.497	43.9453	104.511	43.9453	104.172	43.9453	104.198	43.9453	103.841	43.9453	103.879	43.9453	103.515	43.9453	103.567	43.9453	103.212	43.9453	103.274	43.9453	102.945	43.9453	103.014	43.9453	102.725	43.9453	102.795	43.9453	102.558	43.9453	102.621	43.9453	102.447	43.9453	102.495	43.9453	102.388	43.9453	102.414	43.9453	102.378
45.4102	106.006	45.4102	105.994	45.4102	105.976	45.4102	105.939	45.4102	105.902	45.4102	105.841	45.4102	105.787	45.4102	105.7	45.4102	105.631	45.4102	105.516	45.4102	105.435	45.4102	105.292	45.4102	105.201	45.4102	105.029	45.4102	104.932	45.4102	104.731	45.4102	104.632	45.4102	104.403	45.4102	104.306	45.4102	104.053	45.4102	103.964	45.4102	103.691	45.4102	103.614	45.4102	103.331	45.4102	103.268	45.4102	102.988	45.4102	102.942	45.4102	102.679	45.4102	102.648	45.4102	102.42	45.4102	102.402	45.4102	102.225	45.4102	102.217	45.4102	102.105	45.4102	102.101	45.4102	102.063
47.6074	105.657	47.6074	105.658	47.6074	105.622	47.6074	105.626	47.6074	105.554	47.6074	105.56	47.6074	105.454	47.6074	105.461	47.6074	105.325	47.6074	105.332	47.6074	105.169	47.6074	105.176	47.6074	104.991	47.6074	104.996	47.6074	104.796	47.6074	104.796	47.6074	104.589	47.6074	104.582	47.6074	104.376	47.6074	104.361	47.6074	104.163	47.6074	104.139	47.6074	103.957	47.6074	103.925	47.6074	103.765	47.6074	103.726	47.6074	103.592	47.6074	103.55	47.6074	103.443	47.6074	103.403	47.6074	103.324	47.6074	103.29	47.6074	103.239	47.6074	103.216	47.6074	103.191	47.6074	103.183
49.0723	105.704	49.0723	105.709	49.0723	105.664	49.0723	105.679	49.0723	105.59	49.0723	105.614	49.0723	105.485	49.0723	105.517	49.0723	105.352	49.0723	105.39	49.0723	105.195	49.0723	105.237	49.0723	105.018	49.0723	105.062	49.0723	104.829	49.0723	104.871	49.0723	104.632	49.0723	104.672	49.0723	104.437	49.0723	104.472	49.0723	104.25	49.0723	104.278	49.0723	104.078	49.0723	104.097	49.0723	103.925	49.0723	103.935	49.0723	103.795	49.0723	103.797	49.0723	103.689	49.0723	103.686	49.0723	103.609	49.0723	103.604	49.0723	103.555	49.0723	103.55	49.0723	103.527	49.0723	103.525
50.5371	105.68	50.5371	105.684	50.5371	105.642	50.5371	105.653	50.5371	105.571	50.5371	105.589	50.5371	105.469	50.5371	105.493	50.5371	105.338	50.5371	105.368	50.5371	105.185	50.5371	105.218	50.5371	105.013	50.5371	105.049	50.5371	104.831	50.5371	104.867	50.5371	104.645	50.5371	104.679	50.5371	104.463	50.5371	104.494	50.5371	104.294	50.5371	104.318	50.5371	104.143	50.5371	104.158	50.5371	104.014	50.5371	104.02	50.5371	103.91	50.5371	103.907	50.5371	103.828	50.5371	103.819	50.5371	103.769	50.5371	103.758	50.5371	103.729	50.5371	103.72	50.5371	103.707	50.5371	103.704
52.7344	105.802	52.7344	105.8	52.7344	105.768	52.7344	105.76	52.7344	105.697	52.7344	105.684	52.7344	105.591	52.7344	105.576	52.7344	105.453	52.7344	105.438	52.7344	105.289	52.7344	105.276	52.7344	105.105	52.7344	105.096	52.7344	104.908	52.7344	104.906	52.7344	104.708	52.7344	104.714	52.7344	104.516	52.7344	104.531	52.7344	104.34	52.7344	104.364	52.7344	104.19	52.7344	104.221	52.7344	104.071	52.7344	104.104	52.7344	103.983	52.7344	104.016	52.7344	103.923	52.7344	103.953	52.7344	103.888	52.7344	103.912	52.7344	103.871	52.7344	103.886	52.7344	103.867	52.7344	103.872
54.1992	105.842	54.1992	105.842	54.1992	105.802	54.1992	105.801	54.1992	105.721	54.1992	105.722	54.1992	105.604	54.1992	105.607	54.1992	105.453	54.1992	105.46	54.1992	105.273	54.1992	105.286	54.1992	105.073	54.1992	105.094	54.1992	104.861	54.1992	104.892	54.1992	104.647	54.1992	104.689	54.1992	104.444	54.1992	104.496	54.1992	104.262	54.1992	104.323	54.1992	104.111	54.1992	104.177	54.1992	103.994	54.1992	104.062	54.1992	103.914	54.1992	103.979	54.1992	103.865	54.1992	103.922	54.1992	103.842	54.1992	103.886	54.1992	103.835	54.1992	103.863	54.1992	103.839	54.1992	103.849
