"SPL Vertical"
"On-Axis"		"10°"		"-10°"		"20°"		"-20°"		"30°"		"-30°"		"40°"		"-40°"		"50°"		"-50°"		"60°"		"-60°"		"70°"		"-70°"		"80°"		"-80°"		"90°"		"-90°"		"100°"		"-100°"		"110°"		"-110°"		"120°"		"-120°"		"130°"		"-130°"		"140°"		"-140°"		"150°"		"-150°"		"160°"		"-160°"		"170°"		"-170°"		"180°"
"Frequency / Hz"	"Sound Pressure Level / dB (re 20 µPa/V)  [2.83  V @ 1. m]"	"Frequency / Hz"	"Sound Pressure Level / dB (re 20 µPa/V)  [2.83  V @ 1. m]"	"Frequency / Hz"	"Sound Pressure Level / dB (re 20 µPa/V)  [2.83  V @ 1. m]"	"Frequency / Hz"	"Sound Pressure Level / dB (re 20 µPa/V)  [2.83  V @ 1. m]"	"Frequency / Hz"	"Sound Pressure Level / dB (re 20 µPa/V)  [2.83  V @ 1. m]"	"Frequency / Hz"	"Sound Pressure Level / dB (re 20 µPa/V)  [2.83  V @ 1. m]"	"Frequency / Hz"	"Sound Pressure Level / dB (re 20 µPa/V)  [2.83  V @ 1. m]"	"Frequency / Hz"	"Sound Pressure Level / dB (re 20 µPa/V)  [2.83  V @ 1. m]"	"Frequency / Hz"	"Sound Pressure Level / dB (re 20 µPa/V)  [2.83  V @ 1. m]"	"Frequency / Hz"	"Sound Pressure Level / dB (re 20 µPa/V)  [2.83  V @ 1. m]"	"Frequency / Hz"	"Sound Pressure Level / dB (re 20 µPa/V)  [2.83  V @ 1. m]"	"Frequency / Hz"	"Sound Pressure Level / dB (re 20 µPa/V)  [2.83  V @ 1. m]"	"Frequency / Hz"	"Sound Pressure Level / dB (re 20 µPa/V)  [2.83  V @ 1. m]"	"Frequency / Hz"	"Sound Pressure Level / dB (re 20 µPa/V)  [2.83  V @ 1. m]"	"Frequency / Hz"	"Sound Pressure Level / dB (re 20 µPa/V)  [2.83  V @ 1. m]"	"Frequency / Hz"	"Sound Pressure Level / dB (re 20 µPa/V)  [2.83  V @ 1. m]"	"Frequency / Hz"	"Sound Pressure Level / dB (re 20 µPa/V)  [2.83  V @ 1. m]"	"Frequency / Hz"	"Sound Pressure Level / dB (re 20 µPa/V)  [2.83  V @ 1. m]"	"Frequency / Hz"	"Sound Pressure Level / dB (re 20 µPa/V)  [2.83  V @ 1. m]"	"Frequency / Hz"	"Sound Pressure Level / dB (re 20 µPa/V)  [2.83  V @ 1. m]"	"Frequency / Hz"	"Sound Pressure Level / dB (re 20 µPa/V)  [2.83  V @ 1. m]"	"Frequency / Hz"	"Sound Pressure Level / dB (re 20 µPa/V)  [2.83  V @ 1. m]"	"Frequency / Hz"	"Sound Pressure Level / dB (re 20 µPa/V)  [2.83  V @ 1. m]"	"Frequency / Hz"	"Sound Pressure Level / dB (re 20 µPa/V)  [2.83  V @ 1. m]"	"Frequency / Hz"	"Sound Pressure Level / dB (re 20 µPa/V)  [2.83  V @ 1. m]"	"Frequency / Hz"	"Sound Pressure Level / dB (re 20 µPa/V)  [2.83  V @ 1. m]"	"Frequency / Hz"	"Sound Pressure Level / dB (re 20 µPa/V)  [2.83  V @ 1. m]"	"Frequency / Hz"	"Sound Pressure Level / dB (re 20 µPa/V)  [2.83  V @ 1. m]"	"Frequency / Hz"	"Sound Pressure Level / dB (re 20 µPa/V)  [2.83  V @ 1. m]"	"Frequency / Hz"	"Sound Pressure Level / dB (re 20 µPa/V)  [2.83  V @ 1. m]"	"Frequency / Hz"	"Sound Pressure Level / dB (re 20 µPa/V)  [2.83  V @ 1. m]"	"Frequency / Hz"	"Sound Pressure Level / dB (re 20 µPa/V)  [2.83  V @ 1. m]"	"Frequency / Hz"	"Sound Pressure Level / dB (re 20 µPa/V)  [2.83  V @ 1. m]"	"Frequency / Hz"	"Sound Pressure Level / dB (re 20 µPa/V)  [2.83  V @ 1. m]"	"Frequency / Hz"	"Sound Pressure Level / dB (re 20 µPa/V)  [2.83  V @ 1. m]"	"Frequency / Hz"	"Sound Pressure Level / dB (re 20 µPa/V)  [2.83  V @ 1. m]"
20.5078	58.4281	20.5078	58.2295	20.5078	58.6106	20.5078	58.0198	20.5078	58.7718	20.5078	57.804	20.5078	58.9068	20.5078	57.5865	20.5078	59.0109	20.5078	57.371	20.5078	59.0796	20.5078	57.1605	20.5078	59.109	20.5078	56.9577	20.5078	59.0959	20.5078	56.7656	20.5078	59.0386	20.5078	56.5881	20.5078	58.9365	20.5078	56.4302	20.5078	58.7908	20.5078	56.2986	20.5078	58.6042	20.5078	56.201	20.5078	58.3807	20.5078	56.1458	20.5078	58.1256	20.5078	56.1411	20.5078	57.846	20.5078	56.1933	20.5078	57.5509	20.5078	56.3056	20.5078	57.2519	20.5078	56.4767	20.5078	56.963	20.5078	56.6997
21.9727	60.4232	21.9727	60.2537	21.9727	60.5785	21.9727	60.075	21.9727	60.7147	21.9727	59.8919	21.9727	60.8267	21.9727	59.7087	21.9727	60.9095	21.9727	59.5296	21.9727	60.9586	21.9727	59.3582	21.9727	60.9704	21.9727	59.1977	21.9727	60.9423	21.9727	59.0506	21.9727	60.8735	21.9727	58.9193	21.9727	60.7646	21.9727	58.8066	21.9727	60.6185	21.9727	58.7151	21.9727	60.4397	21.9727	58.6483	21.9727	60.2347	21.9727	58.61	21.9727	60.0113	21.9727	58.6037	21.9727	59.7788	21.9727	58.633	21.9727	59.5468	21.9727	58.7	21.9727	59.325	21.9727	58.8053	21.9727	59.1227	21.9727	58.9474
23.4375	61.9568	23.4375	61.823	23.4375	62.0762	23.4375	61.6787	23.4375	62.1775	23.4375	61.5279	23.4375	62.257	23.4375	61.3741	23.4375	62.3114	23.4375	61.2211	23.4375	62.3379	23.4375	61.0724	23.4375	62.3343	23.4375	60.9313	23.4375	62.2993	23.4375	60.8008	23.4375	62.233	23.4375	60.684	23.4375	62.1365	23.4375	60.5838	23.4375	62.0126	23.4375	60.5031	23.4375	61.8654	23.4375	60.445	23.4375	61.7001	23.4375	60.4123	23.4375	61.5229	23.4375	60.4076	23.4375	61.3403	23.4375	60.4328	23.4375	61.1591	23.4375	60.4886	23.4375	60.9861	23.4375	60.5746	23.4375	60.8274	23.4375	60.6887
24.9023	62.8636	24.9023	62.7421	24.9023	62.9714	24.9023	62.6102	24.9023	63.0625	24.9023	62.4713	24.9023	63.1337	24.9023	62.3289	24.9023	63.182	24.9023	62.1866	24.9023	63.205	24.9023	62.0481	24.9023	63.2004	24.9023	61.9166	24.9023	63.1671	24.9023	61.7953	24.9023	63.105	24.9023	61.687	24.9023	63.0152	24.9023	61.5944	24.9023	62.9002	24.9023	61.5202	24.9023	62.764	24.9023	61.4669	24.9023	62.6114	24.9023	61.4367	24.9023	62.448	24.9023	61.4318	24.9023	62.2799	24.9023	61.4538	24.9023	62.1135	24.9023	61.5036	24.9023	61.955	24.9023	61.5809	24.9023	61.8101	24.9023	61.684
26.3672	63.44	26.3672	63.316	26.3672	63.5541	26.3672	63.1859	26.3672	63.6546	26.3672	63.0533	26.3672	63.7377	26.3672	62.9217	26.3672	63.7999	26.3672	62.7942	26.3672	63.8381	26.3672	62.6737	26.3672	63.8499	26.3672	62.5629	26.3672	63.8338	26.3672	62.4641	26.3672	63.7898	26.3672	62.3795	26.3672	63.7188	26.3672	62.3113	26.3672	63.6234	26.3672	62.2613	26.3672	63.5073	26.3672	62.2314	26.3672	63.375	26.3672	62.2232	26.3672	63.2317	26.3672	62.2381	26.3672	63.0827	26.3672	62.2768	26.3672	62.9332	26.3672	62.3392	26.3672	62.7881	26.3672	62.4242	26.3672	62.6521	26.3672	62.5295
27.832	64.052	27.832	63.9242	27.832	64.175	27.832	63.7959	27.832	64.2887	27.832	63.6709	27.832	64.3885	27.832	63.5524	27.832	64.47	27.832	63.4431	27.832	64.5294	27.832	63.3451	27.832	64.5635	27.832	63.2603	27.832	64.5704	27.832	63.1899	27.832	64.5495	27.832	63.1353	27.832	64.5014	27.832	63.0975	27.832	64.4285	27.832	63.0775	27.832	64.3342	27.832	63.076	27.832	64.2228	27.832	63.0935	27.832	64.0992	27.832	63.1305	27.832	63.9682	27.832	63.1865	27.832	63.8346	27.832	63.2609	27.832	63.7026	27.832	63.3521	27.832	63.5759	27.832	63.458
29.2969	65.2533	29.2969	65.1405	29.2969	65.3575	29.2969	65.0224	29.2969	65.4493	29.2969	64.9028	29.2969	65.5253	29.2969	64.7849	29.2969	65.582	29.2969	64.6723	29.2969	65.6167	29.2969	64.5679	29.2969	65.6269	29.2969	64.4745	29.2969	65.6116	29.2969	64.3945	29.2969	65.5708	29.2969	64.3296	29.2969	65.506	29.2969	64.2814	29.2969	65.4201	29.2969	64.2509	29.2969	65.317	29.2969	64.2383	29.2969	65.2018	29.2969	64.2437	29.2969	65.0796	29.2969	64.2666	29.2969	64.9554	29.2969	64.3062	29.2969	64.8337	29.2969	64.3616	29.2969	64.7181	29.2969	64.4317	29.2969	64.6113	29.2969	64.5154
30.7617	65.9341	30.7617	65.8167	30.7617	66.0407	30.7617	65.6925	30.7617	66.1326	30.7617	65.5653	30.7617	66.2062	30.7617	65.4388	30.7617	66.2581	30.7617	65.3163	30.7617	66.2855	30.7617	65.2008	30.7617	66.2864	30.7617	65.0947	30.7617	66.2599	30.7617	65.0004	30.7617	66.2061	30.7617	64.9194	30.7617	66.1266	30.7617	64.8533	30.7617	66.0241	30.7617	64.8032	30.7617	65.9027	30.7617	64.7701	30.7617	65.7673	30.7617	64.755	30.7617	65.6237	30.7617	64.7587	30.7617	65.4777	30.7617	64.7822	30.7617	65.3351	30.7617	64.8262	30.7617	65.2011	30.7617	64.891	30.7617	65.0803	30.7617	64.9761
32.2266	66.4753	32.2266	66.3615	32.2266	66.5798	32.2266	66.2422	32.2266	66.6716	32.2266	66.1209	32.2266	66.7471	32.2266	66.0009	32.2266	66.8033	32.2266	65.8856	32.2266	66.8373	32.2266	65.7776	32.2266	66.8469	32.2266	65.6796	32.2266	66.8309	32.2266	65.5937	32.2266	66.7891	32.2266	65.5216	32.2266	66.7226	32.2266	65.4648	32.2266	66.6337	32.2266	65.4243	32.2266	66.5258	32.2266	65.4009	32.2266	66.4035	32.2266	65.3955	32.2266	66.2718	32.2266	65.4085	32.2266	66.1358	32.2266	65.4404	32.2266	66.001	32.2266	65.4914	32.2266	65.8723	32.2266	65.5613	32.2266	65.7539	32.2266	65.6494
33.6914	67.1114	33.6914	66.9988	33.6914	67.2169	33.6914	66.8827	33.6914	67.3114	33.6914	66.7667	33.6914	67.3915	33.6914	66.6539	33.6914	67.4537	33.6914	66.5476	33.6914	67.495	33.6914	66.4506	33.6914	67.5132	33.6914	66.3651	33.6914	67.5072	33.6914	66.2934	33.6914	67.4767	33.6914	66.2369	33.6914	67.423	33.6914	66.1969	33.6914	67.3487	33.6914	66.1742	33.6914	67.257	33.6914	66.169	33.6914	67.1523	33.6914	66.1812	33.6914	67.039	33.6914	66.2106	33.6914	66.9215	33.6914	66.2564	33.6914	66.8038	33.6914	66.3177	33.6914	66.6893	33.6914	66.3933	33.6914	66.5811	33.6914	66.4817
35.1562	67.8118	35.1562	67.6939	35.1562	67.9221	35.1562	67.5724	35.1562	68.0207	35.1562	67.4511	35.1562	68.1037	35.1562	67.3335	35.1562	68.1674	35.1562	67.2229	35.1562	68.2089	35.1562	67.1219	35.1562	68.226	35.1562	67.0333	35.1562	68.2175	35.1562	66.9588	35.1562	68.1836	35.1562	66.9001	35.1562	68.1256	35.1562	66.8583	35.1562	68.0462	35.1562	66.8341	35.1562	67.949	35.1562	66.8275	35.1562	67.8384	35.1562	66.8386	35.1562	67.719	35.1562	66.8669	35.1562	67.5955	35.1562	66.9118	35.1562	67.4722	35.1562	66.9727	35.1562	67.3528	35.1562	67.0488	35.1562	67.2407	35.1562	67.1387
36.6211	68.4443	36.6211	68.3307	36.6211	68.5529	36.6211	68.2159	36.6211	68.6522	36.6211	68.1038	36.6211	68.7381	36.6211	67.9979	36.6211	68.807	36.6211	67.9011	36.6211	68.8555	36.6211	67.8162	36.6211	68.8815	36.6211	67.7452	36.6211	68.8838	36.6211	67.6899	36.6211	68.8625	36.6211	67.6513	36.6211	68.8191	36.6211	67.6301	36.6211	68.7563	36.6211	67.6263	36.6211	68.6778	36.6211	67.6395	36.6211	68.5878	36.6211	67.6686	36.6211	68.4903	36.6211	67.7123	36.6211	68.3891	36.6211	67.7689	36.6211	68.2873	36.6211	67.8367	36.6211	68.1872	36.6211	67.914	36.6211	68.0907	36.6211	67.9991
38.0859	68.9116	38.0859	68.8021	38.0859	69.0065	38.0859	68.6818	38.0859	69.0834	38.0859	68.5544	38.0859	69.1392	38.0859	68.4237	38.0859	69.1709	38.0859	68.2936	38.0859	69.1766	38.0859	68.1677	38.0859	69.155	38.0859	68.0495	38.0859	69.106	38.0859	67.9421	38.0859	69.0305	38.0859	67.848	38.0859	68.9313	38.0859	67.7694	38.0859	68.812	38.0859	67.7077	38.0859	68.6779	38.0859	67.664	38.0859	68.5349	38.0859	67.6388	38.0859	68.3891	38.0859	67.6324	38.0859	68.2466	38.0859	67.645	38.0859	68.1126	38.0859	67.6767	38.0859	67.9913	38.0859	67.7275	38.0859	67.8855	38.0859	67.7972
39.5508	69.2207	39.5508	69.1046	39.5508	69.3264	39.5508	68.9818	39.5508	69.4176	39.5508	68.8561	39.5508	69.4903	39.5508	68.7309	39.5508	69.5408	39.5508	68.6088	39.5508	69.5659	39.5508	68.4926	39.5508	69.5633	39.5508	68.3843	39.5508	69.5317	39.5508	68.2855	39.5508	69.4708	39.5508	68.1976	39.5508	69.382	39.5508	68.1216	39.5508	69.2679	39.5508	68.0587	39.5508	69.1325	39.5508	68.0099	39.5508	68.9813	39.5508	67.9767	39.5508	68.8206	39.5508	67.961	39.5508	68.6576	39.5508	67.9653	39.5508	68.4997	39.5508	67.9923	39.5508	68.354	39.5508	68.0443	39.5508	68.2268	39.5508	68.1227
41.0156	69.9454	41.0156	69.8259	41.0156	70.0549	41.0156	69.6999	41.0156	70.1502	41.0156	69.5712	41.0156	70.2275	41.0156	69.4428	41.0156	70.2831	41.0156	69.3174	41.0156	70.3139	41.0156	69.1974	41.0156	70.3177	41.0156	69.0847	41.0156	70.2928	41.0156	68.9812	41.0156	70.2389	41.0156	68.8882	41.0156	70.1568	41.0156	68.8075	41.0156	70.0484	41.0156	68.7406	41.0156	69.9169	41.0156	68.6892	41.0156	69.7667	41.0156	68.6556	41.0156	69.6036	41.0156	68.6423	41.0156	69.4342	41.0156	68.6524	41.0156	69.2662	41.0156	68.6885	41.0156	69.1074	41.0156	68.7528	41.0156	68.9651	41.0156	68.8456
42.4805	70.3226	42.4805	70.2124	42.4805	70.4285	42.4805	70.102	42.4805	70.5261	42.4805	69.9955	42.4805	70.6118	42.4805	69.8967	42.4805	70.6824	42.4805	69.8092	42.4805	70.7354	42.4805	69.7361	42.4805	70.7691	42.4805	69.6796	42.4805	70.7828	42.4805	69.6416	42.4805	70.7768	42.4805	69.6228	42.4805	70.7524	42.4805	69.6234	42.4805	70.7116	42.4805	69.6427	42.4805	70.6572	42.4805	69.6792	42.4805	70.5922	42.4805	69.7305	42.4805	70.5195	42.4805	69.794	42.4805	70.4418	42.4805	69.8666	42.4805	70.361	42.4805	69.9453	42.4805	70.2785	42.4805	70.0275	42.4805	70.195	42.4805	70.1111
43.9453	70.4854	43.9453	70.3682	43.9453	70.5978	43.9453	70.2505	43.9453	70.7014	43.9453	70.1362	43.9453	70.7925	43.9453	70.0292	43.9453	70.8675	43.9453	69.9333	43.9453	70.9236	43.9453	69.8519	43.9453	70.9586	43.9453	69.7879	43.9453	70.9716	43.9453	69.7437	43.9453	70.9629	43.9453	69.7208	43.9453	70.9339	43.9453	69.7198	43.9453	70.8873	43.9453	69.7402	43.9453	70.8264	43.9453	69.7805	43.9453	70.7549	43.9453	69.8378	43.9453	70.6763	43.9453	69.9086	43.9453	70.5938	43.9453	69.9889	43.9453	70.5093	43.9453	70.0746	43.9453	70.4239	43.9453	70.1626	43.9453	70.3377	43.9453	70.2506
45.4102	71.091	45.4102	70.9858	45.4102	71.1902	45.4102	70.8781	45.4102	71.2801	45.4102	70.7707	45.4102	71.3575	45.4102	70.6665	45.4102	71.4192	45.4102	70.5683	45.4102	71.4626	45.4102	70.4786	45.4102	71.4859	45.4102	70.3998	45.4102	71.4881	45.4102	70.3344	45.4102	71.4695	45.4102	70.2848	45.4102	71.4314	45.4102	70.2529	45.4102	71.3761	45.4102	70.2403	45.4102	71.3066	45.4102	70.248	45.4102	71.2261	45.4102	70.2759	45.4102	71.1375	45.4102	70.3229	45.4102	71.0435	45.4102	70.3868	45.4102	70.9459	45.4102	70.4646	45.4102	70.8464	45.4102	70.5527	45.4102	70.7464	45.4102	70.6477
46.875	71.5921	46.875	71.4756	46.875	71.6986	46.875	71.3531	46.875	71.791	46.875	71.2281	46.875	71.8655	46.875	71.1041	46.875	71.9185	46.875	70.9838	46.875	71.9474	46.875	70.8698	46.875	71.9501	46.875	70.7646	46.875	71.9261	46.875	70.6702	46.875	71.8756	46.875	70.589	46.875	71.8005	46.875	70.5229	46.875	71.7039	46.875	70.474	46.875	71.5896	46.875	70.444	46.875	71.4624	46.875	70.4342	46.875	71.3275	46.875	70.4454	46.875	71.1896	46.875	70.478	46.875	71.0536	46.875	70.5314	46.875	70.9236	46.875	70.6048	46.875	70.8034	46.875	70.6962
48.3398	72.0073	48.3398	71.8893	48.3398	72.1202	48.3398	71.7712	48.3398	72.223	48.3398	71.657	48.3398	72.3109	48.3398	71.5497	48.3398	72.3798	48.3398	71.4513	48.3398	72.4262	48.3398	71.363	48.3398	72.4479	48.3398	71.2852	48.3398	72.4439	48.3398	71.2181	48.3398	72.4142	48.3398	71.1623	48.3398	72.3603	48.3398	71.1185	48.3398	72.2844	48.3398	71.088	48.3398	72.1899	48.3398	71.0724	48.3398	72.0809	48.3398	71.0735	48.3398	71.9615	48.3398	71.0928	48.3398	71.8363	48.3398	71.1316	48.3398	71.7096	48.3398	71.1899	48.3398	71.5855	48.3398	71.2669	48.3398	71.4678	48.3398	71.3605
51.2695	72.1794	51.2695	72.0562	51.2695	72.3098	51.2695	71.9458	51.2695	72.4417	51.2695	71.8528	51.2695	72.5693	51.2695	71.7814	51.2695	72.6875	51.2695	71.7344	51.2695	72.7918	51.2695	71.7137	51.2695	72.8791	51.2695	71.7198	51.2695	72.9478	51.2695	71.7522	51.2695	72.9977	51.2695	71.8093	51.2695	73.0301	51.2695	71.8885	51.2695	73.0472	51.2695	71.9861	51.2695	73.0514	51.2695	72.098	51.2695	73.0449	51.2695	72.2193	51.2695	73.0289	51.2695	72.3445	51.2695	73.0038	51.2695	72.4684	51.2695	72.9684	51.2695	72.5855	51.2695	72.9212	51.2695	72.6916	51.2695	72.8601	51.2695	72.7836
52.7344	73.0463	52.7344	72.934	52.7344	73.1544	52.7344	72.822	52.7344	73.254	52.7344	72.7153	52.7344	73.3415	52.7344	72.6189	52.7344	73.4139	52.7344	72.5379	52.7344	73.4692	52.7344	72.4766	52.7344	73.5064	52.7344	72.4387	52.7344	73.5255	52.7344	72.4264	52.7344	73.5282	52.7344	72.4404	52.7344	73.5169	52.7344	72.4797	52.7344	73.4949	52.7344	72.5414	52.7344	73.4656	52.7344	72.6213	52.7344	73.4319	52.7344	72.7137	52.7344	73.3959	52.7344	72.8126	52.7344	73.3583	52.7344	72.9116	52.7344	73.3185	52.7344	73.0053	52.7344	73.2744	52.7344	73.0896	52.7344	73.2233	52.7344	73.1622
54.1992	73.8802	54.1992	73.763	54.1992	73.9715	54.1992	73.6235	54.1992	74.0349	54.1992	73.4666	54.1992	74.0691	54.1992	73.2989	54.1992	74.0741	54.1992	73.1283	54.1992	74.0508	54.1992	72.9636	54.1992	74.0014	54.1992	72.8139	54.1992	73.9297	54.1992	72.6875	54.1992	73.8409	54.1992	72.5917	54.1992	73.7414	54.1992	72.5312	54.1992	73.638	54.1992	72.5081	54.1992	73.537	54.1992	72.5212	54.1992	73.4433	54.1992	72.5663	54.1992	73.3593	54.1992	72.6363	54.1992	73.2842	54.1992	72.7226	54.1992	73.2152	54.1992	72.8165	54.1992	73.1474	54.1992	72.9098	54.1992	73.0759	54.1992	72.997
55.6641	74.82	55.6641	74.721	55.6641	74.8823	55.6641	74.5875	55.6641	74.9066	55.6641	74.4226	55.6641	74.8926	55.6641	74.2308	55.6641	74.8405	55.6641	74.0174	55.6641	74.7511	55.6641	73.7887	55.6641	74.6257	55.6641	73.5512	55.6641	74.4666	55.6641	73.3115	55.6641	74.2768	55.6641	73.0764	55.6641	74.0605	55.6641	72.8524	55.6641	73.8234	55.6641	72.6459	55.6641	73.5721	55.6641	72.463	55.6641	73.3151	55.6641	72.3098	55.6641	73.0612	55.6641	72.1919	55.6641	72.8202	55.6641	72.1143	55.6641	72.6013	55.6641	72.0809	55.6641	72.413	55.6641	72.0943	55.6641	72.2626	55.6641	72.1552
58.5938	74.5611	58.5938	74.442	58.5938	74.6717	58.5938	74.3188	58.5938	74.7694	58.5938	74.1953	58.5938	74.85	58.5938	74.0747	58.5938	74.9097	58.5938	73.9597	58.5938	74.9452	58.5938	73.852	58.5938	74.9542	58.5938	73.7528	58.5938	74.9352	58.5938	73.6629	58.5938	74.8877	58.5938	73.583	58.5938	74.8123	58.5938	73.5136	58.5938	74.7108	58.5938	73.4555	58.5938	74.5862	58.5938	73.4099	58.5938	74.4425	58.5938	73.3789	58.5938	74.2852	58.5938	73.3652	58.5938	74.1209	58.5938	73.3723	58.5938	73.9574	58.5938	73.4039	58.5938	73.8028	58.5938	73.4629	58.5938	73.665	58.5938	73.5503
60.0586	74.8617	60.0586	74.7585	60.0586	74.956	60.0586	74.6503	60.0586	75.0368	60.0586	74.5411	60.0586	75.0999	60.0586	74.4339	60.0586	75.1418	60.0586	74.3311	60.0586	75.1596	60.0586	74.2348	60.0586	75.1515	60.0586	74.1464	60.0586	75.1167	60.0586	74.0672	60.0586	75.0561	60.0586	73.998	60.0586	74.9717	60.0586	73.9399	60.0586	74.8673	60.0586	73.8935	60.0586	74.7476	60.0586	73.8595	60.0586	74.6185	60.0586	73.8385	60.0586	74.486	60.0586	73.8313	60.0586	74.3565	60.0586	73.8388	60.0586	74.2353	60.0586	73.8619	60.0586	74.1269	60.0586	73.9017	60.0586	74.0342	60.0586	73.959
62.9883	75.4704	62.9883	75.3724	62.9883	75.5561	62.9883	75.2643	62.9883	75.6271	62.9883	75.1488	62.9883	75.6812	62.9883	75.0287	62.9883	75.7162	62.9883	74.9069	62.9883	75.7301	62.9883	74.7863	62.9883	75.7209	62.9883	74.67	62.9883	75.6871	62.9883	74.5607	62.9883	75.6281	62.9883	74.461	62.9883	75.5442	62.9883	74.3734	62.9883	75.4372	62.9883	74.3002	62.9883	75.3102	62.9883	74.2435	62.9883	75.1678	62.9883	74.2054	62.9883	75.016	62.9883	74.1877	62.9883	74.8614	62.9883	74.1921	62.9883	74.7112	62.9883	74.22	62.9883	74.5721	62.9883	74.2723	62.9883	74.4501	62.9883	74.3493
64.4531	75.5495	64.4531	75.4426	64.4531	75.6488	64.4531	75.3309	64.4531	75.7378	64.4531	75.2171	64.4531	75.8138	64.4531	75.1039	64.4531	75.8739	64.4531	74.9938	64.4531	75.9154	64.4531	74.8896	64.4531	75.9358	64.4531	74.7937	64.4531	75.9331	64.4531	74.7083	64.4531	75.906	64.4531	74.6352	64.4531	75.8544	64.4531	74.5764	64.4531	75.7791	64.4531	74.5333	64.4531	75.682	64.4531	74.5074	64.4531	75.5664	64.4531	74.5	64.4531	75.4366	64.4531	74.5125	64.4531	75.2978	64.4531	74.5457	64.4531	75.1559	64.4531	74.6004	64.4531	75.0174	64.4531	74.6766	64.4531	74.8881	64.4531	74.7733
67.3828	75.9985	67.3828	75.8793	67.3828	76.1133	67.3828	75.7598	67.3828	76.2196	67.3828	75.6437	67.3828	76.3135	67.3828	75.5346	67.3828	76.3914	67.3828	75.4356	67.3828	76.4505	67.3828	75.3492	67.3828	76.4885	67.3828	75.2773	67.3828	76.5043	67.3828	75.2215	67.3828	76.4976	67.3828	75.1827	67.3828	76.4693	67.3828	75.1615	67.3828	76.4209	67.3828	75.1583	67.3828	76.3544	67.3828	75.173	67.3828	76.2721	67.3828	75.2057	67.3828	76.1766	67.3828	75.2558	67.3828	76.0705	67.3828	75.3226	67.3828	75.957	67.3828	75.4049	67.3828	75.8393	67.3828	75.5006	67.3828	75.7215	67.3828	75.6073
