"SPL Horizontal"
"On-Axis"		"10°"		"-10°"		"20°"		"-20°"		"30°"		"-30°"		"40°"		"-40°"		"50°"		"-50°"		"60°"		"-60°"		"70°"		"-70°"		"80°"		"-80°"		"90°"		"-90°"		"100°"		"-100°"		"110°"		"-110°"		"120°"		"-120°"		"130°"		"-130°"		"140°"		"-140°"		"150°"		"-150°"		"160°"		"-160°"		"170°"		"-170°"		"180°"
"Frequency / Hz"	"Sound Pressure Level / dB (re 20 µPa/V)  [2.83  V @ 1. m]"	"Frequency / Hz"	"Sound Pressure Level / dB (re 20 µPa/V)  [2.83  V @ 1. m]"	"Frequency / Hz"	"Sound Pressure Level / dB (re 20 µPa/V)  [2.83  V @ 1. m]"	"Frequency / Hz"	"Sound Pressure Level / dB (re 20 µPa/V)  [2.83  V @ 1. m]"	"Frequency / Hz"	"Sound Pressure Level / dB (re 20 µPa/V)  [2.83  V @ 1. m]"	"Frequency / Hz"	"Sound Pressure Level / dB (re 20 µPa/V)  [2.83  V @ 1. m]"	"Frequency / Hz"	"Sound Pressure Level / dB (re 20 µPa/V)  [2.83  V @ 1. m]"	"Frequency / Hz"	"Sound Pressure Level / dB (re 20 µPa/V)  [2.83  V @ 1. m]"	"Frequency / Hz"	"Sound Pressure Level / dB (re 20 µPa/V)  [2.83  V @ 1. m]"	"Frequency / Hz"	"Sound Pressure Level / dB (re 20 µPa/V)  [2.83  V @ 1. m]"	"Frequency / Hz"	"Sound Pressure Level / dB (re 20 µPa/V)  [2.83  V @ 1. m]"	"Frequency / Hz"	"Sound Pressure Level / dB (re 20 µPa/V)  [2.83  V @ 1. m]"	"Frequency / Hz"	"Sound Pressure Level / dB (re 20 µPa/V)  [2.83  V @ 1. m]"	"Frequency / Hz"	"Sound Pressure Level / dB (re 20 µPa/V)  [2.83  V @ 1. m]"	"Frequency / Hz"	"Sound Pressure Level / dB (re 20 µPa/V)  [2.83  V @ 1. m]"	"Frequency / Hz"	"Sound Pressure Level / dB (re 20 µPa/V)  [2.83  V @ 1. m]"	"Frequency / Hz"	"Sound Pressure Level / dB (re 20 µPa/V)  [2.83  V @ 1. m]"	"Frequency / Hz"	"Sound Pressure Level / dB (re 20 µPa/V)  [2.83  V @ 1. m]"	"Frequency / Hz"	"Sound Pressure Level / dB (re 20 µPa/V)  [2.83  V @ 1. m]"	"Frequency / Hz"	"Sound Pressure Level / dB (re 20 µPa/V)  [2.83  V @ 1. m]"	"Frequency / Hz"	"Sound Pressure Level / dB (re 20 µPa/V)  [2.83  V @ 1. m]"	"Frequency / Hz"	"Sound Pressure Level / dB (re 20 µPa/V)  [2.83  V @ 1. m]"	"Frequency / Hz"	"Sound Pressure Level / dB (re 20 µPa/V)  [2.83  V @ 1. m]"	"Frequency / Hz"	"Sound Pressure Level / dB (re 20 µPa/V)  [2.83  V @ 1. m]"	"Frequency / Hz"	"Sound Pressure Level / dB (re 20 µPa/V)  [2.83  V @ 1. m]"	"Frequency / Hz"	"Sound Pressure Level / dB (re 20 µPa/V)  [2.83  V @ 1. m]"	"Frequency / Hz"	"Sound Pressure Level / dB (re 20 µPa/V)  [2.83  V @ 1. m]"	"Frequency / Hz"	"Sound Pressure Level / dB (re 20 µPa/V)  [2.83  V @ 1. m]"	"Frequency / Hz"	"Sound Pressure Level / dB (re 20 µPa/V)  [2.83  V @ 1. m]"	"Frequency / Hz"	"Sound Pressure Level / dB (re 20 µPa/V)  [2.83  V @ 1. m]"	"Frequency / Hz"	"Sound Pressure Level / dB (re 20 µPa/V)  [2.83  V @ 1. m]"	"Frequency / Hz"	"Sound Pressure Level / dB (re 20 µPa/V)  [2.83  V @ 1. m]"	"Frequency / Hz"	"Sound Pressure Level / dB (re 20 µPa/V)  [2.83  V @ 1. m]"	"Frequency / Hz"	"Sound Pressure Level / dB (re 20 µPa/V)  [2.83  V @ 1. m]"	"Frequency / Hz"	"Sound Pressure Level / dB (re 20 µPa/V)  [2.83  V @ 1. m]"	"Frequency / Hz"	"Sound Pressure Level / dB (re 20 µPa/V)  [2.83  V @ 1. m]"
20.5078	63.0124	20.5078	62.9775	20.5078	63.0373	20.5078	62.9333	20.5078	63.0513	20.5078	62.8801	20.5078	63.0533	20.5078	62.8182	20.5078	63.0421	20.5078	62.7475	20.5078	63.0167	20.5078	62.6683	20.5078	62.9764	20.5078	62.5814	20.5078	62.9206	20.5078	62.488	20.5078	62.8494	20.5078	62.3904	20.5078	62.7636	20.5078	62.2919	20.5078	62.6651	20.5078	62.1963	20.5078	62.557	20.5078	62.1081	20.5078	62.4434	20.5078	62.0313	20.5078	62.3294	20.5078	61.9698	20.5078	62.2204	20.5078	61.9267	20.5078	62.1216	20.5078	61.9042	20.5078	62.0373	20.5078	61.904	20.5078	61.9715	20.5078	61.9265
21.9727	62.7822	21.9727	62.7778	21.9727	62.7766	21.9727	62.7629	21.9727	62.7611	21.9727	62.7374	21.9727	62.7355	21.9727	62.7011	21.9727	62.6992	21.9727	62.654	21.9727	62.6518	21.9727	62.5963	21.9727	62.5927	21.9727	62.5287	21.9727	62.5222	21.9727	62.452	21.9727	62.4411	21.9727	62.3678	21.9727	62.3514	21.9727	62.278	21.9727	62.2559	21.9727	62.1856	21.9727	62.1582	21.9727	62.094	21.9727	62.0627	21.9727	62.0069	21.9727	61.9738	21.9727	61.928	21.9727	61.8957	21.9727	61.8607	21.9727	61.8325	21.9727	61.8082	21.9727	61.7871	21.9727	61.773	21.9727	61.7617	21.9727	61.7571
23.4375	64.3134	23.4375	64.2929	23.4375	64.3224	23.4375	64.2606	23.4375	64.3203	23.4375	64.2166	23.4375	64.3075	23.4375	64.1612	23.4375	64.284	23.4375	64.0953	23.4375	64.25	23.4375	64.0203	23.4375	64.2054	23.4375	63.9382	23.4375	64.1505	23.4375	63.8513	23.4375	64.0856	23.4375	63.7626	23.4375	64.012	23.4375	63.6751	23.4375	63.9312	23.4375	63.5924	23.4375	63.8456	23.4375	63.5178	23.4375	63.7583	23.4375	63.4546	23.4375	63.6725	23.4375	63.4053	23.4375	63.5917	23.4375	63.3719	23.4375	63.5191	23.4375	63.3556	23.4375	63.4573	23.4375	63.3566	23.4375	63.4085	23.4375	63.3745
24.9023	65.1273	24.9023	65.119	24.9023	65.127	24.9023	65.1016	24.9023	65.1185	24.9023	65.0745	24.9023	65.102	24.9023	65.0372	24.9023	65.0776	24.9023	64.9896	24.9023	65.045	24.9023	64.9322	24.9023	65.0042	24.9023	64.8659	24.9023	64.9553	24.9023	64.7926	24.9023	64.8986	24.9023	64.7146	24.9023	64.8349	24.9023	64.635	24.9023	64.7655	24.9023	64.557	24.9023	64.692	24.9023	64.4842	24.9023	64.6169	24.9023	64.4197	24.9023	64.5431	24.9023	64.3664	24.9023	64.4737	24.9023	64.3264	24.9023	64.4119	24.9023	64.3014	24.9023	64.3607	24.9023	64.2924	24.9023	64.3227	24.9023	64.2996
26.3672	65.5963	26.3672	65.5999	26.3672	65.5864	26.3672	65.5966	26.3672	65.5704	26.3672	65.5855	26.3672	65.5479	26.3672	65.5652	26.3672	65.5185	26.3672	65.5346	26.3672	65.4813	26.3672	65.493	26.3672	65.4356	26.3672	65.4403	26.3672	65.3813	26.3672	65.3773	26.3672	65.3188	26.3672	65.3058	26.3672	65.2491	26.3672	65.2283	26.3672	65.1744	26.3672	65.1482	26.3672	65.0975	26.3672	65.0691	26.3672	65.0219	26.3672	64.9943	26.3672	64.9515	26.3672	64.9271	26.3672	64.8897	26.3672	64.8703	26.3672	64.8399	26.3672	64.8261	26.3672	64.8045	26.3672	64.7964	26.3672	64.7852	26.3672	64.7825
27.832	66.3111	27.832	66.3023	27.832	66.3132	27.832	66.2865	27.832	66.3082	27.832	66.2632	27.832	66.295	27.832	66.2313	27.832	66.2727	27.832	66.1894	27.832	66.2401	27.832	66.1366	27.832	66.1965	27.832	66.0727	27.832	66.1414	27.832	65.9984	27.832	66.0754	27.832	65.9156	27.832	65.9995	27.832	65.8273	27.832	65.9157	27.832	65.7371	27.832	65.8268	27.832	65.6493	27.832	65.7362	27.832	65.568	27.832	65.648	27.832	65.4972	27.832	65.5662	27.832	65.4405	27.832	65.4951	27.832	65.4007	27.832	65.4383	27.832	65.3799	27.832	65.3991	27.832	65.3792
29.2969	67.3884	29.2969	67.3923	29.2969	67.3739	29.2969	67.385	29.2969	67.3494	29.2969	67.3656	29.2969	67.3155	29.2969	67.3335	29.2969	67.2724	29.2969	67.2881	29.2969	67.2205	29.2969	67.2295	29.2969	67.16	29.2969	67.1581	29.2969	67.0915	29.2969	67.0753	29.2969	67.0157	29.2969	66.9834	29.2969	66.9338	29.2969	66.8855	29.2969	66.8473	29.2969	66.7852	29.2969	66.7588	29.2969	66.687	29.2969	66.6711	29.2969	66.5951	29.2969	66.5876	29.2969	66.5138	29.2969	66.512	29.2969	66.4467	29.2969	66.4481	29.2969	66.3969	29.2969	66.3991	29.2969	66.3666	29.2969	66.3681	29.2969	66.357
30.7617	68.0123	30.7617	68.0278	30.7617	67.988	30.7617	68.0334	30.7617	67.9555	30.7617	68.0281	30.7617	67.9152	30.7617	68.0107	30.7617	67.8676	30.7617	67.9803	30.7617	67.8126	30.7617	67.9365	30.7617	67.7506	30.7617	67.8794	30.7617	67.6822	30.7617	67.8099	30.7617	67.6085	30.7617	67.73	30.7617	67.5311	30.7617	67.6424	30.7617	67.4523	30.7617	67.5506	30.7617	67.3749	30.7617	67.4586	30.7617	67.3018	30.7617	67.3705	30.7617	67.2361	30.7617	67.2901	30.7617	67.1807	30.7617	67.221	30.7617	67.1379	30.7617	67.1656	30.7617	67.1099	30.7617	67.1261	30.7617	67.0981	30.7617	67.1034
32.2266	68.7958	32.2266	68.8088	32.2266	68.7733	32.2266	68.8115	32.2266	68.7422	32.2266	68.8029	32.2266	68.7031	32.2266	68.7823	32.2266	68.6567	32.2266	68.7492	32.2266	68.6034	32.2266	68.7035	32.2266	68.5438	32.2266	68.6459	32.2266	68.4786	32.2266	68.5777	32.2266	68.4092	32.2266	68.501	32.2266	68.3369	32.2266	68.4188	32.2266	68.2639	32.2266	68.3344	32.2266	68.1926	32.2266	68.2512	32.2266	68.1257	32.2266	68.1729	32.2266	68.0659	32.2266	68.1025	32.2266	68.0156	32.2266	68.0427	32.2266	67.9769	32.2266	67.9954	32.2266	67.9513	32.2266	67.9621	32.2266	67.94	32.2266	67.9435
33.6914	69.3516	33.6914	69.3654	33.6914	69.3285	33.6914	69.3692	33.6914	69.2964	33.6914	69.3625	33.6914	69.2554	33.6914	69.3445	33.6914	69.2058	33.6914	69.3143	33.6914	69.1478	33.6914	69.2716	33.6914	69.082	33.6914	69.2166	33.6914	69.0093	33.6914	69.15	33.6914	68.9313	33.6914	69.0736	33.6914	68.8502	33.6914	68.9899	33.6914	68.7687	33.6914	68.902	33.6914	68.6901	33.6914	68.8135	33.6914	68.6175	33.6914	68.728	33.6914	68.5543	33.6914	68.6492	33.6914	68.5032	33.6914	68.58	33.6914	68.4663	33.6914	68.5229	33.6914	68.4451	33.6914	68.4798	33.6914	68.4403	33.6914	68.4519
35.1562	69.8628	35.1562	69.8768	35.1562	69.8384	35.1562	69.8796	35.1562	69.8041	35.1562	69.8706	35.1562	69.7601	35.1562	69.849	35.1562	69.707	35.1562	69.8142	35.1562	69.6452	35.1562	69.7661	35.1562	69.5754	35.1562	69.7052	35.1562	69.4988	35.1562	69.6325	35.1562	69.4172	35.1562	69.5503	35.1562	69.3328	35.1562	69.4612	35.1562	69.2484	35.1562	69.3687	35.1562	69.1673	35.1562	69.2765	35.1562	69.0926	35.1562	69.1884	35.1562	69.0275	35.1562	69.108	35.1562	68.9744	35.1562	69.0381	35.1562	68.9354	35.1562	68.9814	35.1562	68.9117	35.1562	68.9395	35.1562	68.9044	35.1562	68.9137
36.6211	70.5725	36.6211	70.5837	36.6211	70.5509	36.6211	70.5838	36.6211	70.5194	36.6211	70.5721	36.6211	70.4787	36.6211	70.5481	36.6211	70.4295	36.6211	70.5117	36.6211	70.3722	36.6211	70.4628	36.6211	70.3079	36.6211	70.4021	36.6211	70.2375	36.6211	70.3312	36.6211	70.1625	36.6211	70.252	36.6211	70.0849	36.6211	70.1674	36.6211	70.007	36.6211	70.0805	36.6211	69.9315	36.6211	69.9949	36.6211	69.8613	36.6211	69.9139	36.6211	69.7988	36.6211	69.8407	36.6211	69.7466	36.6211	69.7781	36.6211	69.7066	36.6211	69.7283	36.6211	69.6802	36.6211	69.6929	36.6211	69.6688	36.6211	69.673
38.0859	71.0879	38.0859	71.0984	38.0859	71.0656	38.0859	71.0962	38.0859	71.032	38.0859	71.0809	38.0859	70.9881	38.0859	71.052	38.0859	70.9347	38.0859	71.0092	38.0859	70.8726	38.0859	70.953	38.0859	70.8029	38.0859	70.8842	38.0859	70.7271	38.0859	70.8045	38.0859	70.6466	38.0859	70.7162	38.0859	70.5636	38.0859	70.6225	38.0859	70.4802	38.0859	70.527	38.0859	70.3989	38.0859	70.4335	38.0859	70.3222	38.0859	70.3458	38.0859	70.2529	38.0859	70.2673	38.0859	70.1934	38.0859	70.201	38.0859	70.1462	38.0859	70.1494	38.0859	70.1132	38.0859	70.1142	38.0859	70.0963	38.0859	70.0964
39.5508	71.6213	39.5508	71.6376	39.5508	71.5946	39.5508	71.6428	39.5508	71.558	39.5508	71.6362	39.5508	71.5123	39.5508	71.6172	39.5508	71.4579	39.5508	71.5855	39.5508	71.3959	39.5508	71.541	39.5508	71.3272	39.5508	71.4843	39.5508	71.2533	39.5508	71.4167	39.5508	71.1762	39.5508	71.3403	39.5508	71.0982	39.5508	71.2578	39.5508	71.0217	39.5508	71.1724	39.5508	70.9496	39.5508	71.0875	39.5508	70.8845	39.5508	71.0065	39.5508	70.8288	39.5508	70.9322	39.5508	70.7844	39.5508	70.8672	39.5508	70.753	39.5508	70.8135	39.5508	70.7357	39.5508	70.7726	39.5508	70.7332	39.5508	70.7456
41.0156	72.0625	41.0156	72.0764	41.0156	72.0352	41.0156	72.0767	41.0156	71.9952	41.0156	72.063	41.0156	71.9434	41.0156	72.0355	41.0156	71.8811	41.0156	71.9951	41.0156	71.8098	41.0156	71.943	41.0156	71.7318	41.0156	71.8812	41.0156	71.65	41.0156	71.8124	41.0156	71.5678	41.0156	71.7395	41.0156	71.4894	41.0156	71.6656	41.0156	71.4185	41.0156	71.5936	41.0156	71.3586	41.0156	71.5261	41.0156	71.3117	41.0156	71.4649	41.0156	71.2784	41.0156	71.4113	41.0156	71.2582	41.0156	71.3657	41.0156	71.2495	41.0156	71.3282	41.0156	71.2504	41.0156	71.2983	41.0156	71.2594	41.0156	71.2754
42.4805	72.8788	42.4805	72.8948	42.4805	72.8502	42.4805	72.8978	42.4805	72.8096	42.4805	72.8876	42.4805	72.7577	42.4805	72.864	42.4805	72.6952	42.4805	72.8273	42.4805	72.6236	42.4805	72.7783	42.4805	72.5444	42.4805	72.7182	42.4805	72.46	42.4805	72.6489	42.4805	72.3733	42.4805	72.5731	42.4805	72.2877	42.4805	72.4935	42.4805	72.2071	42.4805	72.4131	42.4805	72.1348	42.4805	72.3347	42.4805	72.074	42.4805	72.2606	42.4805	72.0266	42.4805	72.1925	42.4805	71.994	42.4805	72.1319	42.4805	71.9761	42.4805	72.0797	42.4805	71.9724	42.4805	72.0367	42.4805	71.982	42.4805	72.0038
43.9453	73.3798	43.9453	73.3961	43.9453	73.3516	43.9453	73.4	43.9453	73.3118	43.9453	73.3915	43.9453	73.2612	43.9453	73.3705	43.9453	73.2004	43.9453	73.3373	43.9453	73.1307	43.9453	73.2926	43.9453	73.0537	43.9453	73.2376	43.9453	72.972	43.9453	73.1743	43.9453	72.8885	43.9453	73.1049	43.9453	72.8068	43.9453	73.0321	43.9453	72.7308	43.9453	72.9586	43.9453	72.6641	43.9453	72.8868	43.9453	72.6098	43.9453	72.8187	43.9453	72.5696	43.9453	72.756	43.9453	72.5443	43.9453	72.6996	43.9453	72.5335	43.9453	72.6502	43.9453	72.5359	43.9453	72.6083	43.9453	72.5501	43.9453	72.5747
45.4102	73.6777	45.4102	73.6884	45.4102	73.6534	45.4102	73.6853	45.4102	73.616	45.4102	73.6687	45.4102	73.5659	45.4102	73.6389	45.4102	73.5042	45.4102	73.5966	45.4102	73.4325	45.4102	73.5431	45.4102	73.3526	45.4102	73.48	45.4102	73.2673	45.4102	73.4096	45.4102	73.1799	45.4102	73.3346	45.4102	73.0939	45.4102	73.2577	45.4102	73.0135	45.4102	73.1819	45.4102	72.9422	45.4102	73.1094	45.4102	72.8829	45.4102	73.0422	45.4102	72.8377	45.4102	72.9815	45.4102	72.8072	45.4102	72.9282	45.4102	72.791	45.4102	72.8827	45.4102	72.7882	45.4102	72.8454	45.4102	72.7972	45.4102	72.8166
46.875	74.1985	46.875	74.21	46.875	74.172	46.875	74.2062	46.875	74.1308	46.875	74.1873	46.875	74.0757	46.875	74.1537	46.875	74.008	46.875	74.1063	46.875	73.9294	46.875	74.0464	46.875	73.842	46.875	73.9759	46.875	73.7487	46.875	73.8973	46.875	73.6529	46.875	73.8133	46.875	73.5584	46.875	73.7271	46.875	73.4693	46.875	73.6416	46.875	73.3893	46.875	73.5595	46.875	73.3215	46.875	73.4829	46.875	73.2682	46.875	73.4135	46.875	73.2305	46.875	73.3525	46.875	73.2084	46.875	73.3007	46.875	73.2013	46.875	73.2588	46.875	73.2081	46.875	73.2277
48.3398	74.7188	48.3398	74.728	48.3398	74.6939	48.3398	74.7211	48.3398	74.6535	48.3398	74.6984	48.3398	74.5987	48.3398	74.6603	48.3398	74.5307	48.3398	74.6079	48.3398	74.4512	48.3398	74.5425	48.3398	74.3624	48.3398	74.4662	48.3398	74.2671	48.3398	74.3815	48.3398	74.1686	48.3398	74.2914	48.3398	74.0706	48.3398	74.1992	48.3398	73.9771	48.3398	74.1081	48.3398	73.8917	48.3398	74.0211	48.3398	73.8176	48.3398	73.9404	48.3398	73.7572	48.3398	73.8681	48.3398	73.712	48.3398	73.8053	48.3398	73.6825	48.3398	73.7533	48.3398	73.6686	48.3398	73.7128	48.3398	73.6695	48.3398	73.6846
51.2695	75.6105	51.2695	75.6201	51.2695	75.5849	51.2695	75.6136	51.2695	75.5436	51.2695	75.5915	51.2695	75.4876	51.2695	75.5547	51.2695	75.4182	51.2695	75.5045	51.2695	75.3375	51.2695	75.4424	51.2695	75.2483	51.2695	75.3707	51.2695	75.1536	51.2695	75.2921	51.2695	75.0573	51.2695	75.2093	51.2695	74.9634	51.2695	75.1254	51.2695	74.876	51.2695	75.0432	51.2695	74.7987	51.2695	74.9651	51.2695	74.7343	51.2695	74.8929	51.2695	74.6846	51.2695	74.828	51.2695	74.6502	51.2695	74.771	51.2695	74.631	51.2695	74.7225	51.2695	74.6259	51.2695	74.683	51.2695	74.6338	51.2695	74.6532
52.7344	76.0284	52.7344	76.0433	52.7344	75.9976	52.7344	76.0419	52.7344	75.9514	52.7344	76.0247	52.7344	75.8911	52.7344	75.9926	52.7344	75.8186	52.7344	75.9469	52.7344	75.7361	52.7344	75.8896	52.7344	75.6468	52.7344	75.8231	52.7344	75.5542	52.7344	75.7502	52.7344	75.4623	52.7344	75.6738	52.7344	75.3751	52.7344	75.5967	52.7344	75.2964	52.7344	75.5217	52.7344	75.2296	52.7344	75.4506	52.7344	75.1768	52.7344	75.3849	52.7344	75.1392	52.7344	75.3252	52.7344	75.1168	52.7344	75.272	52.7344	75.1085	52.7344	75.2253	52.7344	75.1129	52.7344	75.1855	52.7344	75.1282	52.7344	75.1528
54.1992	76.3858	54.1992	76.4001	54.1992	76.3557	54.1992	76.3986	54.1992	76.3105	54.1992	76.3816	54.1992	76.2514	54.1992	76.3505	54.1992	76.1805	54.1992	76.3067	54.1992	76.1003	54.1992	76.2526	54.1992	76.0141	54.1992	76.1908	54.1992	75.9257	54.1992	76.1241	54.1992	75.8392	54.1992	76.0557	54.1992	75.7589	54.1992	75.9883	54.1992	75.6886	54.1992	75.9241	54.1992	75.6313	54.1992	75.8646	54.1992	75.589	54.1992	75.8103	54.1992	75.562	54.1992	75.7613	54.1992	75.5498	54.1992	75.7172	54.1992	75.5507	54.1992	75.6773	54.1992	75.5624	54.1992	75.6413	54.1992	75.5827	54.1992	75.6095
55.6641	76.8236	55.6641	76.8243	55.6641	76.8047	55.6641	76.807	55.6641	76.7682	55.6641	76.7725	55.6641	76.7156	55.6641	76.7225	55.6641	76.649	55.6641	76.6594	55.6641	76.5714	55.6641	76.5864	55.6641	76.4863	55.6641	76.5073	55.6641	76.3978	55.6641	76.4263	55.6641	76.3103	55.6641	76.3473	55.6641	76.2281	55.6641	76.2741	55.6641	76.1548	55.6641	76.2091	55.6641	76.0933	55.6641	76.1539	55.6641	76.0452	55.6641	76.1087	55.6641	76.0108	55.6641	76.0726	55.6641	75.989	55.6641	76.0441	55.6641	75.9781	55.6641	76.0216	55.6641	75.976	55.6641	76.0039	55.6641	75.9806	55.6641	75.9902
58.5938	77.794	58.5938	77.7975	58.5938	77.77	58.5938	77.7806	58.5938	77.7262	58.5938	77.7441	58.5938	77.6642	58.5938	77.6895	58.5938	77.5861	58.5938	77.6191	58.5938	77.4949	58.5938	77.5357	58.5938	77.3942	58.5938	77.4429	58.5938	77.2882	58.5938	77.3447	58.5938	77.1811	58.5938	77.2455	58.5938	77.0773	58.5938	77.1492	58.5938	76.9811	58.5938	77.0594	58.5938	76.8961	58.5938	76.9788	58.5938	76.825	58.5938	76.9086	58.5938	76.7693	58.5938	76.8493	58.5938	76.7296	58.5938	76.8003	58.5938	76.7052	58.5938	76.7609	58.5938	76.6948	58.5938	76.7305	58.5938	76.6965	58.5938	76.7088
60.0586	78.1557	60.0586	78.1567	60.0586	78.1334	60.0586	78.1364	60.0586	78.0907	60.0586	78.0959	60.0586	78.0292	60.0586	78.0369	60.0586	77.9513	60.0586	77.962	60.0586	77.8604	60.0586	77.8746	60.0586	77.7603	60.0586	77.7787	60.0586	77.6555	60.0586	77.6786	60.0586	77.5506	60.0586	77.5787	60.0586	77.4501	60.0586	77.4831	60.0586	77.358	60.0586	77.3952	60.0586	77.2774	60.0586	77.3172	60.0586	77.2103	60.0586	77.2506	60.0586	77.1574	60.0586	77.1956	60.0586	77.1185	60.0586	77.1518	60.0586	77.0926	60.0586	77.1185	60.0586	77.0784	60.0586	77.0948	60.0586	77.0745	60.0586	77.0802
62.9883	78.755	62.9883	78.7572	62.9883	78.7306	62.9883	78.7375	62.9883	78.6847	62.9883	78.6972	62.9883	78.6193	62.9883	78.6388	62.9883	78.5374	62.9883	78.5656	62.9883	78.443	62.9883	78.4817	62.9883	78.3406	62.9883	78.3917	62.9883	78.2356	62.9883	78.3001	62.9883	78.1332	62.9883	78.2115	62.9883	78.0385	62.9883	78.1296	62.9883	77.9556	62.9883	78.0568	62.9883	77.8874	62.9883	77.9944	62.9883	77.8353	62.9883	77.9425	62.9883	77.7992	62.9883	77.9001	62.9883	77.778	62.9883	77.8655	62.9883	77.7693	62.9883	77.8371	62.9883	77.7706	62.9883	77.8136	62.9883	77.7796	62.9883	77.7943
64.4531	79.12	64.4531	79.1224	64.4531	79.0951	64.4531	79.1025	64.4531	79.0485	64.4531	79.0617	64.4531	78.9824	64.4531	79.0026	64.4531	78.8998	64.4531	78.9287	64.4531	78.8051	64.4531	78.8443	64.4531	78.7029	64.4531	78.7542	64.4531	78.5986	64.4531	78.6631	64.4531	78.4975	64.4531	78.5756	64.4531	78.4045	64.4531	78.4953	64.4531	78.3238	64.4531	78.4248	64.4531	78.2579	64.4531	78.3651	64.4531	78.2083	64.4531	78.3161	64.4531	78.1748	64.4531	78.2765	64.4531	78.1558	64.4531	78.2445	64.4531	78.1491	64.4531	78.2181	64.4531	78.1521	64.4531	78.1959	64.4531	78.1621	64.4531	78.1771
67.3828	79.8219	67.3828	79.8229	67.3828	79.7968	67.3828	79.8005	67.3828	79.7488	67.3828	79.7562	67.3828	79.6801	67.3828	79.6931	67.3828	79.5942	67.3828	79.6152	67.3828	79.4955	67.3828	79.5273	67.3828	79.3895	67.3828	79.4347	67.3828	79.282	67.3828	79.3426	67.3828	79.1787	67.3828	79.2556	67.3828	79.0848	67.3828	79.1773	67.3828	79.0046	67.3828	79.11	67.3828	78.9408	67.3828	79.0544	67.3828	78.8942	67.3828	79.0096	67.3828	78.8645	67.3828	78.974	67.3828	78.8496	67.3828	78.9453	67.3828	78.8468	67.3828	78.9212	67.3828	78.853	67.3828	78.9003	67.3828	78.8653	67.3828	78.8815
