"SPL Vertical"
"On-Axis"		"10°"		"-10°"		"20°"		"-20°"		"30°"		"-30°"		"40°"		"-40°"		"50°"		"-50°"		"60°"		"-60°"		"70°"		"-70°"		"80°"		"-80°"		"90°"		"-90°"		"100°"		"-100°"		"110°"		"-110°"		"120°"		"-120°"		"130°"		"-130°"		"140°"		"-140°"		"150°"		"-150°"		"160°"		"-160°"		"170°"		"-170°"		"180°"
"Frequency / Hz"	"Sound Pressure Level / dB (re 20 µPa/V)  [2.83  V @ 1. m]"	"Frequency / Hz"	"Sound Pressure Level / dB (re 20 µPa/V)  [2.83  V @ 1. m]"	"Frequency / Hz"	"Sound Pressure Level / dB (re 20 µPa/V)  [2.83  V @ 1. m]"	"Frequency / Hz"	"Sound Pressure Level / dB (re 20 µPa/V)  [2.83  V @ 1. m]"	"Frequency / Hz"	"Sound Pressure Level / dB (re 20 µPa/V)  [2.83  V @ 1. m]"	"Frequency / Hz"	"Sound Pressure Level / dB (re 20 µPa/V)  [2.83  V @ 1. m]"	"Frequency / Hz"	"Sound Pressure Level / dB (re 20 µPa/V)  [2.83  V @ 1. m]"	"Frequency / Hz"	"Sound Pressure Level / dB (re 20 µPa/V)  [2.83  V @ 1. m]"	"Frequency / Hz"	"Sound Pressure Level / dB (re 20 µPa/V)  [2.83  V @ 1. m]"	"Frequency / Hz"	"Sound Pressure Level / dB (re 20 µPa/V)  [2.83  V @ 1. m]"	"Frequency / Hz"	"Sound Pressure Level / dB (re 20 µPa/V)  [2.83  V @ 1. m]"	"Frequency / Hz"	"Sound Pressure Level / dB (re 20 µPa/V)  [2.83  V @ 1. m]"	"Frequency / Hz"	"Sound Pressure Level / dB (re 20 µPa/V)  [2.83  V @ 1. m]"	"Frequency / Hz"	"Sound Pressure Level / dB (re 20 µPa/V)  [2.83  V @ 1. m]"	"Frequency / Hz"	"Sound Pressure Level / dB (re 20 µPa/V)  [2.83  V @ 1. m]"	"Frequency / Hz"	"Sound Pressure Level / dB (re 20 µPa/V)  [2.83  V @ 1. m]"	"Frequency / Hz"	"Sound Pressure Level / dB (re 20 µPa/V)  [2.83  V @ 1. m]"	"Frequency / Hz"	"Sound Pressure Level / dB (re 20 µPa/V)  [2.83  V @ 1. m]"	"Frequency / Hz"	"Sound Pressure Level / dB (re 20 µPa/V)  [2.83  V @ 1. m]"	"Frequency / Hz"	"Sound Pressure Level / dB (re 20 µPa/V)  [2.83  V @ 1. m]"	"Frequency / Hz"	"Sound Pressure Level / dB (re 20 µPa/V)  [2.83  V @ 1. m]"	"Frequency / Hz"	"Sound Pressure Level / dB (re 20 µPa/V)  [2.83  V @ 1. m]"	"Frequency / Hz"	"Sound Pressure Level / dB (re 20 µPa/V)  [2.83  V @ 1. m]"	"Frequency / Hz"	"Sound Pressure Level / dB (re 20 µPa/V)  [2.83  V @ 1. m]"	"Frequency / Hz"	"Sound Pressure Level / dB (re 20 µPa/V)  [2.83  V @ 1. m]"	"Frequency / Hz"	"Sound Pressure Level / dB (re 20 µPa/V)  [2.83  V @ 1. m]"	"Frequency / Hz"	"Sound Pressure Level / dB (re 20 µPa/V)  [2.83  V @ 1. m]"	"Frequency / Hz"	"Sound Pressure Level / dB (re 20 µPa/V)  [2.83  V @ 1. m]"	"Frequency / Hz"	"Sound Pressure Level / dB (re 20 µPa/V)  [2.83  V @ 1. m]"	"Frequency / Hz"	"Sound Pressure Level / dB (re 20 µPa/V)  [2.83  V @ 1. m]"	"Frequency / Hz"	"Sound Pressure Level / dB (re 20 µPa/V)  [2.83  V @ 1. m]"	"Frequency / Hz"	"Sound Pressure Level / dB (re 20 µPa/V)  [2.83  V @ 1. m]"	"Frequency / Hz"	"Sound Pressure Level / dB (re 20 µPa/V)  [2.83  V @ 1. m]"	"Frequency / Hz"	"Sound Pressure Level / dB (re 20 µPa/V)  [2.83  V @ 1. m]"	"Frequency / Hz"	"Sound Pressure Level / dB (re 20 µPa/V)  [2.83  V @ 1. m]"	"Frequency / Hz"	"Sound Pressure Level / dB (re 20 µPa/V)  [2.83  V @ 1. m]"
20.5078	71.0347	20.5078	71.0777	20.5078	71.0216	20.5078	71.1594	20.5078	71.0348	20.5078	71.2943	20.5078	71.0766	20.5078	71.5008	20.5078	71.1562	20.5078	71.7997	20.5078	71.2903	20.5078	72.2094	20.5078	71.5019	20.5078	72.7397	20.5078	71.8171	20.5078	73.3866	20.5078	72.258	20.5078	74.1289	20.5078	72.8328	20.5078	74.9309	20.5078	73.5297	20.5078	75.7471	20.5078	74.3165	20.5078	76.5289	20.5078	75.1462	20.5078	77.231	20.5078	75.9674	20.5078	77.8152	20.5078	76.7317	20.5078	78.2539	20.5078	77.3992	20.5078	78.5298	20.5078	77.9402	20.5078	78.6349	20.5078	78.3342	20.5078	78.5685
21.9727	71.0428	21.9727	71.0627	21.9727	71.0305	21.9727	71.0965	21.9727	71.0257	21.9727	71.1574	21.9727	71.0356	21.9727	71.2653	21.9727	71.0749	21.9727	71.4455	21.9727	71.1676	21.9727	71.7253	21.9727	71.3458	21.9727	72.1278	21.9727	71.6442	21.9727	72.6631	21.9727	72.0901	21.9727	73.3217	21.9727	72.6909	21.9727	74.0739	21.9727	73.4267	21.9727	74.875	21.9727	74.2535	21.9727	75.6744	21.9727	75.1136	21.9727	76.4233	21.9727	75.9476	21.9727	77.08	21.9727	76.7023	21.9727	77.612	21.9727	77.3354	21.9727	77.9958	21.9727	77.8169	21.9727	78.2157	21.9727	78.1284	21.9727	78.2616
23.4375	71.8078	23.4375	71.8135	23.4375	71.8198	23.4375	71.8429	23.4375	71.849	23.4375	71.9073	23.4375	71.8999	23.4375	72.023	23.4375	71.9832	23.4375	72.2101	23.4375	72.1155	23.4375	72.4896	23.4375	72.3186	23.4375	72.8781	23.4375	72.6153	23.4375	73.382	23.4375	73.0238	23.4375	73.9925	23.4375	73.5496	23.4375	74.6848	23.4375	74.181	23.4375	75.4213	23.4375	74.8883	23.4375	76.1576	23.4375	75.6297	23.4375	76.8485	23.4375	76.3584	23.4375	77.4539	23.4375	77.0294	23.4375	77.9409	23.4375	77.6042	23.4375	78.2858	23.4375	78.0529	23.4375	78.4735	23.4375	78.3547	23.4375	78.4967
24.9023	73.5062	24.9023	73.5323	24.9023	73.5018	24.9023	73.5836	24.9023	73.5191	24.9023	73.6671	24.9023	73.562	24.9023	73.7931	24.9023	73.6389	24.9023	73.9745	24.9023	73.7618	24.9023	74.2251	24.9023	73.9462	24.9023	74.5569	24.9023	74.2085	24.9023	74.9762	24.9023	74.5619	24.9023	75.4803	24.9023	75.0114	24.9023	76.0546	24.9023	75.5497	24.9023	76.673	24.9023	76.156	24.9023	77.3008	24.9023	76.7979	24.9023	77.8995	24.9023	77.4364	24.9023	78.4313	24.9023	78.0315	24.9023	78.8638	24.9023	78.5468	24.9023	79.1721	24.9023	78.9527	24.9023	79.3399	24.9023	79.2278	24.9023	79.3589
26.3672	74.6194	26.3672	74.6361	26.3672	74.6244	26.3672	74.6767	26.3672	74.6515	26.3672	74.7459	26.3672	74.7035	26.3672	74.8507	26.3672	74.7858	26.3672	75.0002	26.3672	74.9068	26.3672	75.2047	26.3672	75.0768	26.3672	75.474	26.3672	75.3073	26.3672	75.8146	26.3672	75.6079	26.3672	76.2273	26.3672	75.9837	26.3672	76.7039	26.3672	76.431	26.3672	77.2265	26.3672	76.9361	26.3672	77.768	26.3672	77.4751	26.3672	78.2953	26.3672	78.0165	26.3672	78.7735	26.3672	78.5257	26.3672	79.1707	26.3672	78.9693	26.3672	79.461	26.3672	79.3189	26.3672	79.6264	26.3672	79.553	26.3672	79.6575
27.832	75.9439	27.832	75.9583	27.832	75.9434	27.832	75.9872	27.832	75.9579	27.832	76.0333	27.832	75.99	27.832	76.1011	27.832	76.0443	27.832	76.1975	27.832	76.1269	27.832	76.3312	27.832	76.2459	27.832	76.5121	27.832	76.4105	27.832	76.749	27.832	76.6293	27.832	77.047	27.832	76.9083	27.832	77.4046	27.832	77.2477	27.832	77.8116	27.832	77.6399	27.832	78.2478	27.832	78.0682	27.832	78.6852	27.832	78.5079	27.832	79.0921	27.832	78.929	27.832	79.4372	27.832	79.301	27.832	79.6945	27.832	79.5965	27.832	79.8451	27.832	79.7938	27.832	79.8788
29.2969	76.6745	29.2969	76.682	29.2969	76.6828	29.2969	76.7061	29.2969	76.7069	29.2969	76.7493	29.2969	76.7486	29.2969	76.8154	29.2969	76.8108	29.2969	76.9098	29.2969	76.8977	29.2969	77.0393	29.2969	77.0153	29.2969	77.2114	29.2969	77.1702	29.2969	77.4327	29.2969	77.369	29.2969	77.7073	29.2969	77.6167	29.2969	78.0339	29.2969	77.9145	29.2969	78.4035	29.2969	78.2573	29.2969	78.7988	29.2969	78.6322	29.2969	79.1948	29.2969	79.0189	29.2969	79.5622	29.2969	79.3919	29.2969	79.872	29.2969	79.7241	29.2969	80.1	29.2969	79.9906	29.2969	80.23	29.2969	80.1718	29.2969	80.2539
30.7617	77.2704	30.7617	77.2847	30.7617	77.2756	30.7617	77.3187	30.7617	77.3006	30.7617	77.3735	30.7617	77.3466	30.7617	77.4513	30.7617	77.4154	30.7617	77.5553	30.7617	77.5098	30.7617	77.6894	30.7617	77.6331	30.7617	77.8584	30.7617	77.7894	30.7617	78.0666	30.7617	77.9829	30.7617	78.3166	30.7617	78.2166	30.7617	78.6078	30.7617	78.4911	30.7617	78.934	30.7617	78.8022	30.7617	79.2823	30.7617	79.1396	30.7617	79.6327	30.7617	79.4866	30.7617	79.9606	30.7617	79.8212	30.7617	80.2399	30.7617	80.1195	30.7617	80.4481	30.7617	80.359	30.7617	80.5686	30.7617	80.5212	30.7617	80.5932
32.2266	78.2112	32.2266	78.2285	32.2266	78.2124	32.2266	78.2642	32.2266	78.2327	32.2266	78.3188	32.2266	78.2726	32.2266	78.393	32.2266	78.3334	32.2266	78.4886	32.2266	78.4166	32.2266	78.6077	32.2266	78.5243	32.2266	78.7532	32.2266	78.659	32.2266	78.9284	32.2266	78.8235	32.2266	79.1354	32.2266	79.0202	32.2266	79.3748	32.2266	79.2496	32.2266	79.6429	32.2266	79.5094	32.2266	79.9306	32.2266	79.7921	32.2266	80.2228	32.2266	80.0847	32.2266	80.499	32.2266	80.3694	32.2266	80.7366	32.2266	80.6256	32.2266	80.9148	32.2266	80.8331	32.2266	81.0182	32.2266	80.9747	32.2266	81.0385
33.6914	78.9029	33.6914	78.9098	33.6914	78.9127	33.6914	78.9334	33.6914	78.9391	33.6914	78.974	33.6914	78.9826	33.6914	79.0322	33.6914	79.0433	33.6914	79.1091	33.6914	79.1222	33.6914	79.2063	33.6914	79.2203	33.6914	79.3262	33.6914	79.3392	33.6914	79.4712	33.6914	79.4812	33.6914	79.6435	33.6914	79.6482	33.6914	79.8439	33.6914	79.8412	33.6914	80.0703	33.6914	80.0585	33.6914	80.3161	33.6914	80.2948	33.6914	80.5692	33.6914	80.5396	33.6914	80.8123	33.6914	80.7778	33.6914	81.0257	33.6914	80.9914	33.6914	81.1903	33.6914	81.1625	33.6914	81.2913	33.6914	81.2757	33.6914	81.3203
35.1562	79.5662	35.1562	79.5757	35.1562	79.5726	35.1562	79.6009	35.1562	79.5948	35.1562	79.6417	35.1562	79.6331	35.1562	79.6982	35.1562	79.6874	35.1562	79.7707	35.1562	79.7582	35.1562	79.8599	35.1562	79.8458	35.1562	79.967	35.1562	79.9512	35.1562	80.0936	35.1562	80.0758	35.1562	80.2413	35.1562	80.2208	35.1562	80.4109	35.1562	80.3872	35.1562	80.6013	35.1562	80.5741	35.1562	80.8078	35.1562	80.7773	35.1562	81.0213	35.1562	80.9887	35.1562	81.2279	35.1562	81.1953	35.1562	81.4109	35.1562	81.3816	35.1562	81.5536	35.1562	81.5312	35.1562	81.6422	35.1562	81.6301	35.1562	81.6684
36.6211	80.0848	36.6211	80.0935	36.6211	80.0903	36.6211	80.1161	36.6211	80.11	36.6211	80.1523	36.6211	80.1441	36.6211	80.2021	36.6211	80.1925	36.6211	80.2654	36.6211	80.2553	36.6211	80.3425	36.6211	80.3326	36.6211	80.4342	36.6211	80.4249	36.6211	80.5416	36.6211	80.5329	36.6211	80.6659	36.6211	80.6575	36.6211	80.808	36.6211	80.7995	36.6211	80.9673	36.6211	80.9582	36.6211	81.1406	36.6211	81.1305	36.6211	81.3208	36.6211	81.3096	36.6211	81.4967	36.6211	81.4851	36.6211	81.6542	36.6211	81.6433	36.6211	81.7785	36.6211	81.7699	36.6211	81.8574	36.6211	81.8526	36.6211	81.8829
38.0859	80.6231	38.0859	80.6309	38.0859	80.6297	38.0859	80.6529	38.0859	80.6506	38.0859	80.6886	38.0859	80.6856	38.0859	80.7376	38.0859	80.7343	38.0859	80.7993	38.0859	80.796	38.0859	80.8731	38.0859	80.8705	38.0859	80.9589	38.0859	80.9574	38.0859	81.0571	38.0859	81.0571	38.0859	81.1683	38.0859	81.1699	38.0859	81.293	38.0859	81.2964	38.0859	81.4311	38.0859	81.436	38.0859	81.5802	38.0859	81.5865	38.0859	81.7351	38.0859	81.7422	38.0859	81.887	38.0859	81.8942	38.0859	82.0242	38.0859	82.0306	38.0859	82.1341	38.0859	82.139	38.0859	82.2057	38.0859	82.2083	38.0859	82.2313
39.5508	81.2813	39.5508	81.291	39.5508	81.2849	39.5508	81.3135	39.5508	81.3019	39.5508	81.3479	39.5508	81.3323	39.5508	81.3935	39.5508	81.3755	39.5508	81.4495	39.5508	81.4309	39.5508	81.515	39.5508	81.4975	39.5508	81.5896	39.5508	81.5747	39.5508	81.6732	39.5508	81.6619	39.5508	81.7663	39.5508	81.759	39.5508	81.8692	39.5508	81.866	39.5508	81.9821	39.5508	81.9826	39.5508	82.1034	39.5508	82.1071	39.5508	82.2295	39.5508	82.2356	39.5508	82.3536	39.5508	82.361	39.5508	82.4662	39.5508	82.4737	39.5508	82.5572	39.5508	82.5632	39.5508	82.6169	39.5508	82.6203	39.5508	82.6388
41.0156	81.738	41.0156	81.7479	41.0156	81.7401	41.0156	81.7693	41.0156	81.7543	41.0156	81.8016	41.0156	81.7805	41.0156	81.8439	41.0156	81.8181	41.0156	81.8952	41.0156	81.8665	41.0156	81.9546	41.0156	81.9248	41.0156	82.0215	41.0156	81.9921	41.0156	82.0955	41.0156	82.0681	41.0156	82.1766	41.0156	82.1524	41.0156	82.2651	41.0156	82.2451	41.0156	82.361	41.0156	82.3463	41.0156	82.4635	41.0156	82.4545	41.0156	82.5697	41.0156	82.5666	41.0156	82.6746	41.0156	82.6763	41.0156	82.7703	41.0156	82.7752	41.0156	82.8483	41.0156	82.8537	41.0156	82.9001	41.0156	82.9035	41.0156	82.9194
42.4805	82.2797	42.4805	82.2906	42.4805	82.2792	42.4805	82.3114	42.4805	82.2895	42.4805	82.3414	42.4805	82.3105	42.4805	82.3797	42.4805	82.3421	42.4805	82.4254	42.4805	82.3836	42.4805	82.4775	42.4805	82.4341	42.4805	82.535	42.4805	82.4929	42.4805	82.5975	42.4805	82.559	42.4805	82.6646	42.4805	82.632	42.4805	82.7365	42.4805	82.7116	42.4805	82.8134	42.4805	82.7975	42.4805	82.8948	42.4805	82.8886	42.4805	82.9792	42.4805	82.9821	42.4805	83.063	42.4805	83.073	42.4805	83.1406	42.4805	83.1542	42.4805	83.205	42.4805	83.2177	42.4805	83.2491	42.4805	83.2568	42.4805	83.2674
43.9453	82.7332	43.9453	82.7429	43.9453	82.7359	43.9453	82.7652	43.9453	82.7507	43.9453	82.7999	43.9453	82.777	43.9453	82.8467	43.9453	82.8141	43.9453	82.9043	43.9453	82.8614	43.9453	82.9714	43.9453	82.9179	43.9453	83.0461	43.9453	82.9828	43.9453	83.1265	43.9453	83.0551	43.9453	83.2113	43.9453	83.1343	43.9453	83.299	43.9453	83.2199	43.9453	83.3889	43.9453	83.3113	43.9453	83.4798	43.9453	83.4076	43.9453	83.5694	43.9453	83.5061	43.9453	83.6543	43.9453	83.6024	43.9453	83.7289	43.9453	83.6899	43.9453	83.7869	43.9453	83.7613	43.9453	83.8223	43.9453	83.8097	43.9453	83.8305
45.4102	83.0896	45.4102	83.1018	45.4102	83.0887	45.4102	83.1247	45.4102	83.099	45.4102	83.1576	45.4102	83.1202	45.4102	83.1994	45.4102	83.1518	45.4102	83.2484	45.4102	83.1928	45.4102	83.3031	45.4102	83.2421	45.4102	83.3615	45.4102	83.2983	45.4102	83.4221	45.4102	83.3599	45.4102	83.4836	45.4102	83.4259	45.4102	83.5452	45.4102	83.4951	45.4102	83.6065	45.4102	83.5668	45.4102	83.6676	45.4102	83.6401	45.4102	83.7279	45.4102	83.7132	45.4102	83.7862	45.4102	83.7827	45.4102	83.8396	45.4102	83.8439	45.4102	83.8841	45.4102	83.8913	45.4102	83.915	45.4102	83.9201	45.4102	83.928
46.875	83.7681	46.875	83.7748	46.875	83.7682	46.875	83.7879	46.875	83.7753	46.875	83.8071	46.875	83.7892	46.875	83.8315	46.875	83.8095	46.875	83.8603	46.875	83.8354	46.875	83.8923	46.875	83.8659	46.875	83.9261	46.875	83.8997	46.875	83.9605	46.875	83.9353	46.875	83.9942	46.875	83.9715	46.875	84.0264	46.875	84.0076	46.875	84.0568	46.875	84.0431	46.875	84.0857	46.875	84.078	46.875	84.1134	46.875	84.1121	46.875	84.1399	46.875	84.1442	46.875	84.1646	46.875	84.1723	46.875	84.1859	46.875	84.1938	46.875	84.2013	46.875	84.2063	46.875	84.2087
48.3398	84.2853	48.3398	84.2951	48.3398	84.2794	48.3398	84.3082	48.3398	84.2778	48.3398	84.3237	48.3398	84.281	48.3398	84.3409	48.3398	84.2889	48.3398	84.3591	48.3398	84.3012	48.3398	84.3775	48.3398	84.3174	48.3398	84.3952	48.3398	84.3362	48.3398	84.4113	48.3398	84.3563	48.3398	84.4251	48.3398	84.3765	48.3398	84.4362	48.3398	84.3958	48.3398	84.4447	48.3398	84.4139	48.3398	84.4514	48.3398	84.4309	48.3398	84.4573	48.3398	84.4471	48.3398	84.4638	48.3398	84.4623	48.3398	84.4712	48.3398	84.4755	48.3398	84.4791	48.3398	84.4854	48.3398	84.4862	48.3398	84.4905	48.3398	84.4905
51.2695	84.8758	51.2695	84.8775	51.2695	84.8793	51.2695	84.8843	51.2695	84.888	51.2695	84.8958	51.2695	84.902	51.2695	84.9114	51.2695	84.9207	51.2695	84.9304	51.2695	84.9436	51.2695	84.9515	51.2695	84.9696	51.2695	84.9732	51.2695	84.9972	51.2695	84.9939	51.2695	85.0246	51.2695	85.012	51.2695	85.0499	51.2695	85.0265	51.2695	85.0716	51.2695	85.0372	51.2695	85.0888	51.2695	85.0447	51.2695	85.1014	51.2695	85.0508	51.2695	85.11	51.2695	85.0575	51.2695	85.1153	51.2695	85.0664	51.2695	85.1175	51.2695	85.0778	51.2695	85.1163	51.2695	85.0904	51.2695	85.1112	51.2695	85.1022
52.7344	85.2083	52.7344	85.2209	52.7344	85.2018	52.7344	85.2391	52.7344	85.2019	52.7344	85.262	52.7344	85.209	52.7344	85.2889	52.7344	85.2231	52.7344	85.3185	52.7344	85.2441	52.7344	85.3494	52.7344	85.2711	52.7344	85.3799	52.7344	85.3028	52.7344	85.4084	52.7344	85.3374	52.7344	85.433	52.7344	85.3727	52.7344	85.4526	52.7344	85.4066	52.7344	85.4669	52.7344	85.4375	52.7344	85.4766	52.7344	85.4645	52.7344	85.4835	52.7344	85.4873	52.7344	85.4899	52.7344	85.5055	52.7344	85.4975	52.7344	85.519	52.7344	85.5068	52.7344	85.5269	52.7344	85.5167	52.7344	85.5287	52.7344	85.5248
54.1992	85.5713	54.1992	85.5893	54.1992	85.5579	54.1992	85.6115	54.1992	85.5495	54.1992	85.6372	54.1992	85.5465	54.1992	85.6657	54.1992	85.5493	54.1992	85.6961	54.1992	85.5577	54.1992	85.727	54.1992	85.5713	54.1992	85.7566	54.1992	85.5889	54.1992	85.7827	54.1992	85.6091	54.1992	85.8031	54.1992	85.6299	54.1992	85.816	54.1992	85.6495	54.1992	85.8205	54.1992	85.6665	54.1992	85.8169	54.1992	85.6806	54.1992	85.8068	54.1992	85.6923	54.1992	85.793	54.1992	85.7026	54.1992	85.7781	54.1992	85.7123	54.1992	85.7642	54.1992	85.722	54.1992	85.7521	54.1992	85.7316	54.1992	85.7415
55.6641	85.9114	55.6641	85.9256	55.6641	85.9003	55.6641	85.943	55.6641	85.8926	55.6641	85.9634	55.6641	85.8885	55.6641	85.9867	55.6641	85.8879	55.6641	86.0124	55.6641	85.8908	55.6641	86.0392	55.6641	85.8967	55.6641	86.0653	55.6641	85.9045	55.6641	86.0883	55.6641	85.9128	55.6641	86.1055	55.6641	85.9197	55.6641	86.1144	55.6641	85.9239	55.6641	86.1132	55.6641	85.9246	55.6641	86.1018	55.6641	85.9224	55.6641	86.0815	55.6641	85.9189	55.6641	86.0552	55.6641	85.9165	55.6641	86.0263	55.6641	85.9175	55.6641	85.9979	55.6641	85.9233	55.6641	85.9724	55.6641	85.9346	55.6641	85.9511
58.5938	86.6561	58.5938	86.6584	58.5938	86.6552	58.5938	86.6626	58.5938	86.6557	58.5938	86.6691	58.5938	86.6576	58.5938	86.6783	58.5938	86.6608	58.5938	86.6902	58.5938	86.6653	58.5938	86.7042	58.5938	86.6703	58.5938	86.7191	58.5938	86.6747	58.5938	86.7327	58.5938	86.6766	58.5938	86.7425	58.5938	86.6741	58.5938	86.7461	58.5938	86.6654	58.5938	86.742	58.5938	86.6501	58.5938	86.7296	58.5938	86.6292	58.5938	86.7102	58.5938	86.606	58.5938	86.6858	58.5938	86.5848	58.5938	86.6591	58.5938	86.5703	58.5938	86.6322	58.5938	86.5656	58.5938	86.6071	58.5938	86.5712	58.5938	86.5859
60.0586	86.9056	60.0586	86.9083	60.0586	86.9049	60.0586	86.9132	60.0586	86.906	60.0586	86.9206	60.0586	86.909	60.0586	86.9309	60.0586	86.9142	60.0586	86.944	60.0586	86.9215	60.0586	86.9593	60.0586	86.9303	60.0586	86.9755	60.0586	86.9395	60.0586	86.9905	60.0586	86.9473	60.0586	87.0016	60.0586	86.9512	60.0586	87.0064	60.0586	86.9494	60.0586	87.0031	60.0586	86.9405	60.0586	86.9914	60.0586	86.925	60.0586	86.9725	60.0586	86.9053	60.0586	86.949	60.0586	86.8852	60.0586	86.924	60.0586	86.8689	60.0586	86.9006	60.0586	86.8596	60.0586	86.8808	60.0586	86.8588	60.0586	86.8663
62.9883	87.4718	62.9883	87.4741	62.9883	87.4686	62.9883	87.4757	62.9883	87.4648	62.9883	87.4772	62.9883	87.461	62.9883	87.4791	62.9883	87.4579	62.9883	87.482	62.9883	87.4562	62.9883	87.4857	62.9883	87.4557	62.9883	87.4892	62.9883	87.4557	62.9883	87.4906	62.9883	87.4542	62.9883	87.4875	62.9883	87.4488	62.9883	87.4771	62.9883	87.4368	62.9883	87.4575	62.9883	87.4164	62.9883	87.4286	62.9883	87.3872	62.9883	87.3919	62.9883	87.3515	62.9883	87.3512	62.9883	87.3136	62.9883	87.3112	62.9883	87.279	62.9883	87.2766	62.9883	87.2527	62.9883	87.2514	62.9883	87.2386	62.9883	87.2382
64.4531	87.7001	64.4531	87.7014	64.4531	87.6972	64.4531	87.7015	64.4531	87.6929	64.4531	87.7009	64.4531	87.6881	64.4531	87.7005	64.4531	87.6836	64.4531	87.7011	64.4531	87.6801	64.4531	87.7026	64.4531	87.6779	64.4531	87.7044	64.4531	87.6761	64.4531	87.7045	64.4531	87.673	64.4531	87.7003	64.4531	87.6659	64.4531	87.6892	64.4531	87.6521	64.4531	87.6691	64.4531	87.6297	64.4531	87.6393	64.4531	87.5983	64.4531	87.6015	64.4531	87.5601	64.4531	87.5594	64.4531	87.5198	64.4531	87.5178	64.4531	87.483	64.4531	87.4815	64.4531	87.4554	64.4531	87.4548	64.4531	87.4407	64.4531	87.4406
67.3828	88.1869	67.3828	88.1845	67.3828	88.1852	67.3828	88.1784	67.3828	88.1797	67.3828	88.1695	67.3828	88.1714	67.3828	88.1591	67.3828	88.1616	67.3828	88.1487	67.3828	88.1514	67.3828	88.1389	67.3828	88.1416	67.3828	88.1295	67.3828	88.1317	67.3828	88.1192	67.3828	88.1203	67.3828	88.1057	67.3828	88.1048	67.3828	88.0862	67.3828	88.0823	67.3828	88.0586	67.3828	88.0507	67.3828	88.0221	67.3828	88.0095	67.3828	87.9782	67.3828	87.9612	67.3828	87.9306	67.3828	87.9105	67.3828	87.8845	67.3828	87.8641	67.3828	87.8452	67.3828	87.8283	67.3828	87.8172	67.3828	87.8076	67.3828	87.804
