"SPL Horizontal"
"On-Axis"		"10°"		"-10°"		"20°"		"-20°"		"30°"		"-30°"		"40°"		"-40°"		"50°"		"-50°"		"60°"		"-60°"		"70°"		"-70°"		"80°"		"-80°"		"90°"		"-90°"		"100°"		"-100°"		"110°"		"-110°"		"120°"		"-120°"		"130°"		"-130°"		"140°"		"-140°"		"150°"		"-150°"		"160°"		"-160°"		"170°"		"-170°"		"180°"
"Frequency / Hz"	"Sound Pressure Level / dB (re 20 µPa/V)  [2.83  V @ 1. m]"	"Frequency / Hz"	"Sound Pressure Level / dB (re 20 µPa/V)  [2.83  V @ 1. m]"	"Frequency / Hz"	"Sound Pressure Level / dB (re 20 µPa/V)  [2.83  V @ 1. m]"	"Frequency / Hz"	"Sound Pressure Level / dB (re 20 µPa/V)  [2.83  V @ 1. m]"	"Frequency / Hz"	"Sound Pressure Level / dB (re 20 µPa/V)  [2.83  V @ 1. m]"	"Frequency / Hz"	"Sound Pressure Level / dB (re 20 µPa/V)  [2.83  V @ 1. m]"	"Frequency / Hz"	"Sound Pressure Level / dB (re 20 µPa/V)  [2.83  V @ 1. m]"	"Frequency / Hz"	"Sound Pressure Level / dB (re 20 µPa/V)  [2.83  V @ 1. m]"	"Frequency / Hz"	"Sound Pressure Level / dB (re 20 µPa/V)  [2.83  V @ 1. m]"	"Frequency / Hz"	"Sound Pressure Level / dB (re 20 µPa/V)  [2.83  V @ 1. m]"	"Frequency / Hz"	"Sound Pressure Level / dB (re 20 µPa/V)  [2.83  V @ 1. m]"	"Frequency / Hz"	"Sound Pressure Level / dB (re 20 µPa/V)  [2.83  V @ 1. m]"	"Frequency / Hz"	"Sound Pressure Level / dB (re 20 µPa/V)  [2.83  V @ 1. m]"	"Frequency / Hz"	"Sound Pressure Level / dB (re 20 µPa/V)  [2.83  V @ 1. m]"	"Frequency / Hz"	"Sound Pressure Level / dB (re 20 µPa/V)  [2.83  V @ 1. m]"	"Frequency / Hz"	"Sound Pressure Level / dB (re 20 µPa/V)  [2.83  V @ 1. m]"	"Frequency / Hz"	"Sound Pressure Level / dB (re 20 µPa/V)  [2.83  V @ 1. m]"	"Frequency / Hz"	"Sound Pressure Level / dB (re 20 µPa/V)  [2.83  V @ 1. m]"	"Frequency / Hz"	"Sound Pressure Level / dB (re 20 µPa/V)  [2.83  V @ 1. m]"	"Frequency / Hz"	"Sound Pressure Level / dB (re 20 µPa/V)  [2.83  V @ 1. m]"	"Frequency / Hz"	"Sound Pressure Level / dB (re 20 µPa/V)  [2.83  V @ 1. m]"	"Frequency / Hz"	"Sound Pressure Level / dB (re 20 µPa/V)  [2.83  V @ 1. m]"	"Frequency / Hz"	"Sound Pressure Level / dB (re 20 µPa/V)  [2.83  V @ 1. m]"	"Frequency / Hz"	"Sound Pressure Level / dB (re 20 µPa/V)  [2.83  V @ 1. m]"	"Frequency / Hz"	"Sound Pressure Level / dB (re 20 µPa/V)  [2.83  V @ 1. m]"	"Frequency / Hz"	"Sound Pressure Level / dB (re 20 µPa/V)  [2.83  V @ 1. m]"	"Frequency / Hz"	"Sound Pressure Level / dB (re 20 µPa/V)  [2.83  V @ 1. m]"	"Frequency / Hz"	"Sound Pressure Level / dB (re 20 µPa/V)  [2.83  V @ 1. m]"	"Frequency / Hz"	"Sound Pressure Level / dB (re 20 µPa/V)  [2.83  V @ 1. m]"	"Frequency / Hz"	"Sound Pressure Level / dB (re 20 µPa/V)  [2.83  V @ 1. m]"	"Frequency / Hz"	"Sound Pressure Level / dB (re 20 µPa/V)  [2.83  V @ 1. m]"	"Frequency / Hz"	"Sound Pressure Level / dB (re 20 µPa/V)  [2.83  V @ 1. m]"	"Frequency / Hz"	"Sound Pressure Level / dB (re 20 µPa/V)  [2.83  V @ 1. m]"	"Frequency / Hz"	"Sound Pressure Level / dB (re 20 µPa/V)  [2.83  V @ 1. m]"	"Frequency / Hz"	"Sound Pressure Level / dB (re 20 µPa/V)  [2.83  V @ 1. m]"	"Frequency / Hz"	"Sound Pressure Level / dB (re 20 µPa/V)  [2.83  V @ 1. m]"
20.5078	71.0347	20.5078	71.074	20.5078	71.0143	20.5078	71.1322	20.5078	71.0198	20.5078	71.2165	20.5078	71.0661	20.5078	71.3403	20.5078	71.174	20.5078	71.5213	20.5078	71.3687	20.5078	71.7792	20.5078	71.674	20.5078	72.1313	20.5078	72.1064	20.5078	72.5891	20.5078	72.6691	20.5078	73.1544	20.5078	73.3487	20.5078	73.8176	20.5078	74.1169	20.5078	74.558	20.5078	74.9343	20.5078	75.3446	20.5078	75.7566	20.5078	76.1374	20.5078	76.5394	20.5078	76.8891	20.5078	77.2412	20.5078	77.5498	20.5078	77.8249	20.5078	78.0724	20.5078	78.2576	20.5078	78.4196	20.5078	78.5119	20.5078	78.5685
21.9727	71.0428	21.9727	71.0357	21.9727	71.0509	21.9727	71.0307	21.9727	71.0667	21.9727	71.0366	21.9727	71.1046	21.9727	71.0703	21.9727	71.1862	21.9727	71.1561	21.9727	71.3386	21.9727	71.3237	21.9727	71.5906	21.9727	71.6029	21.9727	71.9653	21.9727	72.0167	21.9727	72.4732	21.9727	72.573	21.9727	73.1068	21.9727	73.2598	21.9727	73.8402	21.9727	74.0459	21.9727	74.6346	21.9727	74.8861	21.9727	75.4443	21.9727	75.7282	21.9727	76.2233	21.9727	76.5184	21.9727	76.9274	21.9727	77.206	21.9727	77.516	21.9727	77.7464	21.9727	77.9528	21.9727	78.1054	21.9727	78.2081	21.9727	78.2616
23.4375	71.8078	23.4375	71.7986	23.4375	71.8295	23.4375	71.8052	23.4375	71.8673	23.4375	71.8374	23.4375	71.9306	23.4375	71.9107	23.4375	72.035	23.4375	72.0451	23.4375	72.1996	23.4375	72.2617	23.4375	72.4446	23.4375	72.5785	23.4375	72.7866	23.4375	73.0054	23.4375	73.2338	23.4375	73.5403	23.4375	73.7824	23.4375	74.1681	23.4375	74.4163	23.4375	74.8631	23.4375	75.1088	23.4375	75.592	23.4375	75.8262	23.4375	76.3174	23.4375	76.5309	23.4375	76.9989	23.4375	77.1827	23.4375	77.5949	23.4375	77.7407	23.4375	78.0647	23.4375	78.1659	23.4375	78.3734	23.4375	78.4252	23.4375	78.4967
24.9023	73.5062	24.9023	73.5099	24.9023	73.518	24.9023	73.5325	24.9023	73.5462	24.9023	73.5817	24.9023	73.5964	24.9023	73.6688	24.9023	73.6788	24.9023	73.8077	24.9023	73.8068	24.9023	74.0125	24.9023	73.9961	24.9023	74.295	24.9023	74.2616	24.9023	74.662	24.9023	74.6141	24.9023	75.113	24.9023	75.0571	24.9023	75.6393	24.9023	75.5841	24.9023	76.224	24.9023	76.1785	24.9023	76.8436	24.9023	76.8139	24.9023	77.468	24.9023	77.4559	24.9023	78.0618	24.9023	78.0643	24.9023	78.5853	24.9023	78.5963	24.9023	78.9979	24.9023	79.0103	24.9023	79.2641	24.9023	79.272	24.9023	79.3589
26.3672	74.6194	26.3672	74.6584	26.3672	74.5977	26.3672	74.7164	26.3672	74.5951	26.3672	74.7977	26.3672	74.6164	26.3672	74.9088	26.3672	74.6697	26.3672	75.0579	26.3672	74.7655	26.3672	75.2535	26.3672	74.9161	26.3672	75.5029	26.3672	75.1332	26.3672	75.811	26.3672	75.4259	26.3672	76.1789	26.3672	75.7979	26.3672	76.6028	26.3672	76.2461	26.3672	77.0733	26.3672	76.7588	26.3672	77.575	26.3672	77.3158	26.3672	78.0862	26.3672	77.8881	26.3672	78.5782	26.3672	78.4391	26.3672	79.0168	26.3672	78.9282	26.3672	79.3645	26.3672	79.3149	26.3672	79.5868	26.3672	79.5652	26.3672	79.6575
27.832	75.9439	27.832	75.96	27.832	75.9384	27.832	75.9872	27.832	75.9449	27.832	76.0284	27.832	75.9672	27.832	76.0881	27.832	76.011	27.832	76.1728	27.832	76.0839	27.832	76.2901	27.832	76.1947	27.832	76.448	27.832	76.3526	27.832	76.6538	27.832	76.5657	27.832	76.9126	27.832	76.8394	27.832	77.2259	27.832	77.1748	27.832	77.5903	27.832	77.5667	27.832	77.9959	27.832	78.0021	27.832	78.4255	27.832	78.4589	27.832	78.8539	27.832	78.9064	27.832	79.2487	27.832	79.3074	27.832	79.5732	27.832	79.6233	27.832	79.7921	27.832	79.8209	27.832	79.8788
29.2969	76.6745	29.2969	76.6892	29.2969	76.6715	29.2969	76.7165	29.2969	76.681	29.2969	76.7588	29.2969	76.7056	29.2969	76.8205	29.2969	76.7498	29.2969	76.9068	29.2969	76.8195	29.2969	77.0241	29.2969	76.922	29.2969	77.1786	29.2969	77.0651	29.2969	77.3758	29.2969	77.2558	29.2969	77.6193	29.2969	77.4993	29.2969	77.9096	29.2969	77.7973	29.2969	78.2431	29.2969	78.1458	29.2969	78.6106	29.2969	78.5343	29.2969	78.996	29.2969	78.9437	29.2969	79.3766	29.2969	79.3471	29.2969	79.7234	29.2969	79.7116	29.2969	80.0042	29.2969	80.0027	29.2969	80.1886	29.2969	80.1901	29.2969	80.2539
30.7617	77.2704	30.7617	77.2854	30.7617	77.2708	30.7617	77.3166	30.7617	77.2871	30.7617	77.3658	30.7617	77.3211	30.7617	77.4359	30.7617	77.3756	30.7617	77.5306	30.7617	77.4549	30.7617	77.654	30.7617	77.5639	30.7617	77.8102	30.7617	77.7079	30.7617	78.0026	30.7617	77.8919	30.7617	78.2331	30.7617	78.1193	30.7617	78.5016	30.7617	78.3912	30.7617	78.8047	30.7617	78.7047	30.7617	79.1345	30.7617	79.0514	30.7617	79.478	30.7617	79.416	30.7617	79.8162	30.7617	79.7758	30.7617	80.124	30.7617	80.1021	30.7617	80.3733	30.7617	80.3641	30.7617	80.5366	30.7617	80.5339	30.7617	80.5932
32.2266	78.2112	32.2266	78.225	32.2266	78.2126	32.2266	78.2543	32.2266	78.2298	32.2266	78.3002	32.2266	78.2639	32.2266	78.364	32.2266	78.3168	32.2266	78.4482	32.2266	78.3913	32.2266	78.5552	32.2266	78.4903	32.2266	78.6878	32.2266	78.6175	32.2266	78.8487	32.2266	78.776	32.2266	79.0397	32.2266	78.9685	32.2266	79.2612	32.2266	79.196	32.2266	79.5115	32.2266	79.4569	32.2266	79.7853	32.2266	79.7453	32.2266	80.0731	32.2266	80.0497	32.2266	80.3596	32.2266	80.3517	32.2266	80.6237	32.2266	80.627	32.2266	80.8406	32.2266	80.8486	32.2266	80.9853	32.2266	80.9914	32.2266	81.0385
33.6914	78.9029	33.6914	78.9109	33.6914	78.9092	33.6914	78.9333	33.6914	78.93	33.6914	78.9708	33.6914	78.9659	33.6914	79.0246	33.6914	79.0179	33.6914	79.0961	33.6914	79.0878	33.6914	79.1874	33.6914	79.1773	33.6914	79.3005	33.6914	79.2887	33.6914	79.4376	33.6914	79.4243	33.6914	79.6003	33.6914	79.5862	33.6914	79.7889	33.6914	79.7756	33.6914	80.0023	33.6914	79.9916	33.6914	80.2363	33.6914	80.2305	33.6914	80.4832	33.6914	80.4838	33.6914	80.7299	33.6914	80.7369	33.6914	80.9584	33.6914	80.9696	33.6914	81.1469	33.6914	81.1583	33.6914	81.2733	33.6914	81.2804	33.6914	81.3203
35.1562	79.5662	35.1562	79.5706	35.1562	79.5758	35.1562	79.589	35.1562	79.5993	35.1562	79.6217	35.1562	79.6369	35.1562	79.6695	35.1562	79.6892	35.1562	79.7333	35.1562	79.7569	35.1562	79.8142	35.1562	79.8408	35.1562	79.9137	35.1562	79.9423	35.1562	80.0333	35.1562	80.0627	35.1562	80.1743	35.1562	80.2034	35.1562	80.3371	35.1562	80.3653	35.1562	80.5208	35.1562	80.5482	35.1562	80.7224	35.1562	80.7495	35.1562	80.9353	35.1562	80.9627	35.1562	81.1488	35.1562	81.1763	35.1562	81.3477	35.1562	81.3734	35.1562	81.5129	35.1562	81.5335	35.1562	81.6249	35.1562	81.6365	35.1562	81.6684
36.6211	80.0848	36.6211	80.088	36.6211	80.0943	36.6211	80.104	36.6211	80.1164	36.6211	80.133	36.6211	80.151	36.6211	80.1754	36.6211	80.1983	36.6211	80.2315	36.6211	80.2585	36.6211	80.3023	36.6211	80.3322	36.6211	80.3885	36.6211	80.4201	36.6211	80.4913	36.6211	80.5233	36.6211	80.6116	36.6211	80.6428	36.6211	80.7498	36.6211	80.7794	36.6211	80.9053	36.6211	80.9332	36.6211	81.0758	36.6211	81.1022	36.6211	81.2563	36.6211	81.2818	36.6211	81.4379	36.6211	81.4624	36.6211	81.6077	36.6211	81.63	36.6211	81.7493	36.6211	81.7668	36.6211	81.8455	36.6211	81.8553	36.6211	81.8829
38.0859	80.6231	38.0859	80.6218	38.0859	80.6369	38.0859	80.6333	38.0859	80.663	38.0859	80.6578	38.0859	80.701	38.0859	80.6955	38.0859	80.7506	38.0859	80.7465	38.0859	80.8115	38.0859	80.8114	38.0859	80.8836	38.0859	80.8907	38.0859	80.9669	38.0859	80.9851	38.0859	81.0618	38.0859	81.0951	38.0859	81.1689	38.0859	81.2208	38.0859	81.2888	38.0859	81.3614	38.0859	81.4216	38.0859	81.5147	38.0859	81.5662	38.0859	81.676	38.0859	81.719	38.0859	81.8376	38.0859	81.8726	38.0859	81.988	38.0859	82.0153	38.0859	82.113	38.0859	82.1323	38.0859	82.198	38.0859	82.2081	38.0859	82.2313
39.5508	81.2813	39.5508	81.283	39.5508	81.2915	39.5508	81.2967	39.5508	81.3134	39.5508	81.3222	39.5508	81.3464	39.5508	81.3594	39.5508	81.3902	39.5508	81.4081	39.5508	81.4441	39.5508	81.4681	39.5508	81.5077	39.5508	81.5395	39.5508	81.5806	39.5508	81.6223	39.5508	81.663	39.5508	81.7165	39.5508	81.7549	39.5508	81.822	39.5508	81.8569	39.5508	81.9381	39.5508	81.9688	39.5508	82.0631	39.5508	82.0897	39.5508	82.1934	39.5508	82.2165	39.5508	82.3232	39.5508	82.3434	39.5508	82.4438	39.5508	82.4609	39.5508	82.5441	39.5508	82.5571	39.5508	82.6123	39.5508	82.6194	39.5508	82.6388
41.0156	81.738	41.0156	81.7417	41.0156	81.7452	41.0156	81.7562	41.0156	81.7631	41.0156	81.7814	41.0156	81.7914	41.0156	81.8169	41.0156	81.8294	41.0156	81.8623	41.0156	81.8766	41.0156	81.9173	41.0156	81.9322	41.0156	81.9819	41.0156	81.9958	41.0156	82.0559	41.0156	82.0671	41.0156	82.1394	41.0156	82.1461	41.0156	82.2321	41.0156	82.2331	41.0156	82.3333	41.0156	82.3281	41.0156	82.4414	41.0156	82.4307	41.0156	82.5533	41.0156	82.5389	41.0156	82.6637	41.0156	82.6483	41.0156	82.7652	41.0156	82.7515	41.0156	82.848	41.0156	82.8381	41.0156	82.9021	41.0156	82.897	41.0156	82.9194
42.4805	82.2797	42.4805	82.2918	42.4805	82.2783	42.4805	82.3143	42.4805	82.2877	42.4805	82.3468	42.4805	82.3073	42.4805	82.3884	42.4805	82.3366	42.4805	82.4381	42.4805	82.3747	42.4805	82.4947	42.4805	82.4207	42.4805	82.5569	42.4805	82.4739	42.4805	82.6239	42.4805	82.5337	42.4805	82.6948	42.4805	82.6002	42.4805	82.7692	42.4805	82.6733	42.4805	82.8471	42.4805	82.7533	42.4805	82.9279	42.4805	82.8399	42.4805	83.0103	42.4805	82.9316	42.4805	83.0911	42.4805	83.0248	42.4805	83.1648	42.4805	83.1134	42.4805	83.2239	42.4805	83.1891	42.4805	83.2603	42.4805	83.2427	42.4805	83.2674
43.9453	82.7332	43.9453	82.7425	43.9453	82.7364	43.9453	82.7642	43.9453	82.7519	43.9453	82.7979	43.9453	82.7792	43.9453	82.8427	43.9453	82.8175	43.9453	82.8977	43.9453	82.8658	43.9453	82.9619	43.9453	82.9229	43.9453	83.0341	43.9453	82.9879	43.9453	83.1131	43.9453	83.0598	43.9453	83.1978	43.9453	83.1381	43.9453	83.287	43.9453	83.2222	43.9453	83.3792	43.9453	83.3114	43.9453	83.4724	43.9453	83.4047	43.9453	83.5642	43.9453	83.5002	43.9453	83.6507	43.9453	83.5944	43.9453	83.727	43.9453	83.6819	43.9453	83.7868	43.9453	83.7554	43.9453	83.8231	43.9453	83.8071	43.9453	83.8305
45.4102	83.0896	45.4102	83.1054	45.4102	83.0851	45.4102	83.1321	45.4102	83.0916	45.4102	83.1691	45.4102	83.1088	45.4102	83.2153	45.4102	83.1357	45.4102	83.2693	45.4102	83.1714	45.4102	83.3293	45.4102	83.2148	45.4102	83.3935	45.4102	83.2646	45.4102	83.4603	45.4102	83.3199	45.4102	83.528	45.4102	83.3798	45.4102	83.5954	45.4102	83.4437	45.4102	83.6613	45.4102	83.5112	45.4102	83.7245	45.4102	83.5817	45.4102	83.7838	45.4102	83.6543	45.4102	83.8374	45.4102	83.7269	45.4102	83.8826	45.4102	83.796	45.4102	83.9156	45.4102	83.8564	45.4102	83.932	45.4102	83.9021	45.4102	83.928
46.875	83.7681	46.875	83.779	46.875	83.7648	46.875	83.7974	46.875	83.7691	46.875	83.8224	46.875	83.7804	46.875	83.8533	46.875	83.798	46.875	83.8885	46.875	83.821	46.875	83.9268	46.875	83.848	46.875	83.9663	46.875	83.8779	46.875	84.0056	46.875	83.9096	46.875	84.0433	46.875	83.9422	46.875	84.0785	46.875	83.9749	46.875	84.1103	46.875	84.0076	46.875	84.1385	46.875	84.0403	46.875	84.1629	46.875	84.0732	46.875	84.1836	46.875	84.1063	46.875	84.2001	46.875	84.1388	46.875	84.2111	46.875	84.1687	46.875	84.2146	46.875	84.1929	46.875	84.2087
48.3398	84.2853	48.3398	84.2918	48.3398	84.2842	48.3398	84.3034	48.3398	84.2883	48.3398	84.3195	48.3398	84.2972	48.3398	84.3393	48.3398	84.31	48.3398	84.3614	48.3398	84.3258	48.3398	84.3844	48.3398	84.3435	48.3398	84.407	48.3398	84.3619	48.3398	84.4277	48.3398	84.3798	48.3398	84.4456	48.3398	84.3963	48.3398	84.46	48.3398	84.4109	48.3398	84.4709	48.3398	84.4233	48.3398	84.4787	48.3398	84.434	48.3398	84.4842	48.3398	84.4437	48.3398	84.4882	48.3398	84.4534	48.3398	84.4913	48.3398	84.4638	48.3398	84.4934	48.3398	84.4744	48.3398	84.4936	48.3398	84.4839	48.3398	84.4905
51.2695	84.8758	51.2695	84.8892	51.2695	84.8692	51.2695	84.9091	51.2695	84.8691	51.2695	84.935	51.2695	84.8752	51.2695	84.9656	51.2695	84.8863	51.2695	84.9997	51.2695	84.9012	51.2695	85.0354	51.2695	84.9183	51.2695	85.0707	51.2695	84.9359	51.2695	85.1037	51.2695	84.9526	51.2695	85.1324	51.2695	84.967	51.2695	85.1553	51.2695	84.9788	51.2695	85.1711	51.2695	84.9883	51.2695	85.1793	51.2695	84.9967	51.2695	85.1798	51.2695	85.0059	51.2695	85.1735	51.2695	85.018	51.2695	85.1614	51.2695	85.0343	51.2695	85.1449	51.2695	85.0549	51.2695	85.1248	51.2695	85.0782	51.2695	85.1022
52.7344	85.2083	52.7344	85.2176	52.7344	85.2069	52.7344	85.2347	52.7344	85.2133	52.7344	85.2592	52.7344	85.2267	52.7344	85.29	52.7344	85.246	52.7344	85.3255	52.7344	85.27	52.7344	85.3641	52.7344	85.2971	52.7344	85.4035	52.7344	85.3257	52.7344	85.4416	52.7344	85.354	52.7344	85.4763	52.7344	85.3807	52.7344	85.5057	52.7344	85.4047	52.7344	85.5285	52.7344	85.4255	52.7344	85.544	52.7344	85.4432	52.7344	85.5524	52.7344	85.4584	52.7344	85.5543	52.7344	85.4722	52.7344	85.5512	52.7344	85.4856	52.7344	85.5447	52.7344	85.4991	52.7344	85.5357	52.7344	85.5124	52.7344	85.5248
54.1992	85.5713	54.1992	85.5701	54.1992	85.5795	54.1992	85.5762	54.1992	85.5942	54.1992	85.589	54.1992	85.6145	54.1992	85.608	54.1992	85.6392	54.1992	85.6318	54.1992	85.6667	54.1992	85.6588	54.1992	85.6952	54.1992	85.687	54.1992	85.7229	54.1992	85.7142	54.1992	85.7477	54.1992	85.7382	54.1992	85.768	54.1992	85.7572	54.1992	85.7823	54.1992	85.7696	54.1992	85.7897	54.1992	85.7749	54.1992	85.7902	54.1992	85.7734	54.1992	85.7847	54.1992	85.7668	54.1992	85.7748	54.1992	85.7576	54.1992	85.7633	54.1992	85.7489	54.1992	85.7525	54.1992	85.743	54.1992	85.7448	54.1992	85.7415
55.6641	85.9114	55.6641	85.9068	55.6641	85.9224	55.6641	85.909	55.6641	85.9395	55.6641	85.9176	55.6641	85.9614	55.6641	85.9319	55.6641	85.987	55.6641	85.9505	55.6641	86.0144	55.6641	85.9718	55.6641	86.0417	55.6641	85.9935	55.6641	86.0665	55.6641	86.0132	55.6641	86.0866	55.6641	86.0286	55.6641	86.0999	55.6641	86.0377	55.6641	86.1045	55.6641	86.0388	55.6641	86.0995	55.6641	86.0318	55.6641	86.0851	55.6641	86.0175	55.6641	86.0625	55.6641	85.9985	55.6641	86.0348	55.6641	85.9785	55.6641	86.0057	55.6641	85.9617	55.6641	85.9797	55.6641	85.9517	55.6641	85.9607	55.6641	85.9511
58.5938	86.6561	58.5938	86.6545	58.5938	86.6635	58.5938	86.6591	58.5938	86.6764	58.5938	86.6693	58.5938	86.6939	58.5938	86.6844	58.5938	86.7147	58.5938	86.7029	58.5938	86.737	58.5938	86.723	58.5938	86.7589	58.5938	86.7423	58.5938	86.7779	58.5938	86.7581	58.5938	86.7915	58.5938	86.7676	58.5938	86.7974	58.5938	86.7686	58.5938	86.7938	58.5938	86.7596	58.5938	86.7795	58.5938	86.7404	58.5938	86.7548	58.5938	86.7124	58.5938	86.7217	58.5938	86.6789	58.5938	86.6838	58.5938	86.6444	58.5938	86.6461	58.5938	86.6143	58.5938	86.6142	58.5938	86.5935	58.5938	86.5931	58.5938	86.5859
60.0586	86.9056	60.0586	86.8969	60.0586	86.921	60.0586	86.8951	60.0586	86.9421	60.0586	86.9	60.0586	86.9682	60.0586	86.9111	60.0586	86.9977	60.0586	86.9272	60.0586	87.0286	60.0586	86.9465	60.0586	87.0589	60.0586	86.9667	60.0586	87.0857	60.0586	86.9851	60.0586	87.1062	60.0586	86.9986	60.0586	87.1179	60.0586	87.0045	60.0586	87.1182	60.0586	87.0008	60.0586	87.1059	60.0586	86.9869	60.0586	87.0808	60.0586	86.9639	60.0586	87.0447	60.0586	86.935	60.0586	87.0012	60.0586	86.905	60.0586	86.9556	60.0586	86.8801	60.0586	86.9142	60.0586	86.8658	60.0586	86.883	60.0586	86.8663
62.9883	87.4718	62.9883	87.4656	62.9883	87.4832	62.9883	87.4648	62.9883	87.4991	62.9883	87.4692	62.9883	87.5188	62.9883	87.4781	62.9883	87.541	62.9883	87.4903	62.9883	87.5638	62.9883	87.5038	62.9883	87.5851	62.9883	87.5162	62.9883	87.6023	62.9883	87.5243	62.9883	87.6123	62.9883	87.5251	62.9883	87.6122	62.9883	87.5157	62.9883	87.5994	62.9883	87.4942	62.9883	87.5722	62.9883	87.4602	62.9883	87.5306	62.9883	87.4155	62.9883	87.4767	62.9883	87.3643	62.9883	87.4148	62.9883	87.3133	62.9883	87.352	62.9883	87.2704	62.9883	87.2966	62.9883	87.2435	62.9883	87.2567	62.9883	87.2382
64.4531	87.7001	64.4531	87.6874	64.4531	87.7176	64.4531	87.6801	64.4531	87.7393	64.4531	87.678	64.4531	87.7642	64.4531	87.6809	64.4531	87.7909	64.4531	87.6876	64.4531	87.8175	64.4531	87.6965	64.4531	87.8419	64.4531	87.7051	64.4531	87.8611	64.4531	87.7104	64.4531	87.8721	64.4531	87.7094	64.4531	87.8717	64.4531	87.699	64.4531	87.8572	64.4531	87.6773	64.4531	87.8269	64.4531	87.6436	64.4531	87.7806	64.4531	87.5998	64.4531	87.7204	64.4531	87.5502	64.4531	87.651	64.4531	87.5015	64.4531	87.5796	64.4531	87.462	64.4531	87.5152	64.4531	87.4397	64.4531	87.4667	64.4531	87.4406
67.3828	88.1869	67.3828	88.1691	67.3828	88.2084	67.3828	88.1553	67.3828	88.2327	67.3828	88.146	67.3828	88.2589	67.3828	88.1408	67.3828	88.2855	67.3828	88.1391	67.3828	88.3109	67.3828	88.1392	67.3828	88.3326	67.3828	88.1389	67.3828	88.348	67.3828	88.1354	67.3828	88.3536	67.3828	88.1254	67.3828	88.3463	67.3828	88.1059	67.3828	88.3231	67.3828	88.0749	67.3828	88.2821	67.3828	88.032	67.3828	88.2233	67.3828	87.9792	67.3828	88.1488	67.3828	87.9215	67.3828	88.0639	67.3828	87.8663	67.3828	87.9769	67.3828	87.8226	67.3828	87.8982	67.3828	87.7997	67.3828	87.8379	67.3828	87.804
