"SPL Horizontal"
"On-Axis"		"10°"		"-10°"		"20°"		"-20°"		"30°"		"-30°"		"40°"		"-40°"		"50°"		"-50°"		"60°"		"-60°"		"70°"		"-70°"		"80°"		"-80°"		"90°"		"-90°"		"100°"		"-100°"		"110°"		"-110°"		"120°"		"-120°"		"130°"		"-130°"		"140°"		"-140°"		"150°"		"-150°"		"160°"		"-160°"		"170°"		"-170°"		"180°"
"Frequency [Hz]"	"Sound Pessure Level [dB]  / [2.83V 1m] "	"Frequency [Hz]"	"Sound Pessure Level [dB]  / [2.83V 1m] "	"Frequency [Hz]"	"Sound Pessure Level [dB]  / [2.83V 1m] "	"Frequency [Hz]"	"Sound Pessure Level [dB]  / [2.83V 1m] "	"Frequency [Hz]"	"Sound Pessure Level [dB]  / [2.83V 1m] "	"Frequency [Hz]"	"Sound Pessure Level [dB]  / [2.83V 1m] "	"Frequency [Hz]"	"Sound Pessure Level [dB]  / [2.83V 1m] "	"Frequency [Hz]"	"Sound Pessure Level [dB]  / [2.83V 1m] "	"Frequency [Hz]"	"Sound Pessure Level [dB]  / [2.83V 1m] "	"Frequency [Hz]"	"Sound Pessure Level [dB]  / [2.83V 1m] "	"Frequency [Hz]"	"Sound Pessure Level [dB]  / [2.83V 1m] "	"Frequency [Hz]"	"Sound Pessure Level [dB]  / [2.83V 1m] "	"Frequency [Hz]"	"Sound Pessure Level [dB]  / [2.83V 1m] "	"Frequency [Hz]"	"Sound Pessure Level [dB]  / [2.83V 1m] "	"Frequency [Hz]"	"Sound Pessure Level [dB]  / [2.83V 1m] "	"Frequency [Hz]"	"Sound Pessure Level [dB]  / [2.83V 1m] "	"Frequency [Hz]"	"Sound Pessure Level [dB]  / [2.83V 1m] "	"Frequency [Hz]"	"Sound Pessure Level [dB]  / [2.83V 1m] "	"Frequency [Hz]"	"Sound Pessure Level [dB]  / [2.83V 1m] "	"Frequency [Hz]"	"Sound Pessure Level [dB]  / [2.83V 1m] "	"Frequency [Hz]"	"Sound Pessure Level [dB]  / [2.83V 1m] "	"Frequency [Hz]"	"Sound Pessure Level [dB]  / [2.83V 1m] "	"Frequency [Hz]"	"Sound Pessure Level [dB]  / [2.83V 1m] "	"Frequency [Hz]"	"Sound Pessure Level [dB]  / [2.83V 1m] "	"Frequency [Hz]"	"Sound Pessure Level [dB]  / [2.83V 1m] "	"Frequency [Hz]"	"Sound Pessure Level [dB]  / [2.83V 1m] "	"Frequency [Hz]"	"Sound Pessure Level [dB]  / [2.83V 1m] "	"Frequency [Hz]"	"Sound Pessure Level [dB]  / [2.83V 1m] "	"Frequency [Hz]"	"Sound Pessure Level [dB]  / [2.83V 1m] "	"Frequency [Hz]"	"Sound Pessure Level [dB]  / [2.83V 1m] "	"Frequency [Hz]"	"Sound Pessure Level [dB]  / [2.83V 1m] "	"Frequency [Hz]"	"Sound Pessure Level [dB]  / [2.83V 1m] "	"Frequency [Hz]"	"Sound Pessure Level [dB]  / [2.83V 1m] "	"Frequency [Hz]"	"Sound Pessure Level [dB]  / [2.83V 1m] "	"Frequency [Hz]"	"Sound Pessure Level [dB]  / [2.83V 1m] "	"Frequency [Hz]"	"Sound Pessure Level [dB]  / [2.83V 1m] "
20.5078	73.6252	20.5078	73.6188	20.5078	73.635	20.5078	73.6163	20.5078	73.6475	20.5078	73.6183	20.5078	73.6623	20.5078	73.625	20.5078	73.6788	20.5078	73.6369	20.5078	73.6968	20.5078	73.654	20.5078	73.7159	20.5078	73.6762	20.5078	73.7358	20.5078	73.7032	20.5078	73.7568	20.5078	73.7345	20.5078	73.7786	20.5078	73.7688	20.5078	73.8016	20.5078	73.805	20.5078	73.8257	20.5078	73.8412	20.5078	73.8508	20.5078	73.8756	20.5078	73.8762	20.5078	73.9062	20.5078	73.9009	20.5078	73.9314	20.5078	73.9236	20.5078	73.9496	20.5078	73.9423	20.5078	73.9598	20.5078	73.9555	20.5078	73.9616
23.4375	77.7321	23.4375	77.746	23.4375	77.7239	23.4375	77.7655	23.4375	77.7213	23.4375	77.7902	23.4375	77.7244	23.4375	77.8198	23.4375	77.7329	23.4375	77.8536	23.4375	77.7467	23.4375	77.8909	23.4375	77.7654	23.4375	77.9306	23.4375	77.7888	23.4375	77.9717	23.4375	77.8162	23.4375	78.0129	23.4375	77.8474	23.4375	78.0526	23.4375	77.8816	23.4375	78.0893	23.4375	77.9184	23.4375	78.1214	23.4375	77.9569	23.4375	78.1476	23.4375	77.9961	23.4375	78.1665	23.4375	78.035	23.4375	78.1772	23.4375	78.0722	23.4375	78.1792	23.4375	78.106	23.4375	78.1725	23.4375	78.1349	23.4375	78.1575
26.3672	80.6149	26.3672	80.6282	26.3672	80.6082	26.3672	80.6478	26.3672	80.6082	26.3672	80.6733	26.3672	80.6149	26.3672	80.704	26.3672	80.6279	26.3672	80.7393	26.3672	80.6469	26.3672	80.7782	26.3672	80.6714	26.3672	80.8195	26.3672	80.7007	26.3672	80.8619	26.3672	80.7341	26.3672	80.9043	26.3672	80.7708	26.3672	80.945	26.3672	80.8097	26.3672	80.9828	26.3672	80.85	26.3672	81.0162	26.3672	80.8905	26.3672	81.0441	26.3672	80.9302	26.3672	81.0653	26.3672	80.9678	26.3672	81.0792	26.3672	81.0021	26.3672	81.0852	26.3672	81.0318	26.3672	81.0831	26.3672	81.0558	26.3672	81.0732
29.2969	83.1002	29.2969	83.1146	29.2969	83.0927	29.2969	83.1355	29.2969	83.0921	29.2969	83.1622	29.2969	83.0987	29.2969	83.1942	29.2969	83.1122	29.2969	83.2307	29.2969	83.1323	29.2969	83.2705	29.2969	83.1584	29.2969	83.3126	29.2969	83.1899	29.2969	83.3557	29.2969	83.226	29.2969	83.3986	29.2969	83.2656	29.2969	83.4398	29.2969	83.3077	29.2969	83.4781	29.2969	83.3509	29.2969	83.5122	29.2969	83.394	29.2969	83.5409	29.2969	83.4357	29.2969	83.5632	29.2969	83.4745	29.2969	83.5785	29.2969	83.5093	29.2969	83.5861	29.2969	83.5387	29.2969	83.5858	29.2969	83.5617	29.2969	83.5776
32.2266	84.6309	32.2266	84.6419	32.2266	84.6284	32.2266	84.6609	32.2266	84.6342	32.2266	84.6876	32.2266	84.6481	32.2266	84.7213	32.2266	84.6695	32.2266	84.7611	32.2266	84.6978	32.2266	84.806	32.2266	84.7321	32.2266	84.8545	32.2266	84.7711	32.2266	84.9052	32.2266	84.8138	32.2266	84.9564	32.2266	84.859	32.2266	85.0063	32.2266	84.9054	32.2266	85.0532	32.2266	84.9518	32.2266	85.0953	32.2266	84.9972	32.2266	85.131	32.2266	85.0404	32.2266	85.1592	32.2266	85.0802	32.2266	85.1789	32.2266	85.1155	32.2266	85.1896	32.2266	85.1453	32.2266	85.1912	32.2266	85.1684	32.2266	85.184
35.1562	86.3571	35.1562	86.3701	35.1562	86.3517	35.1562	86.3902	35.1562	86.354	35.1562	86.417	35.1562	86.3641	35.1562	86.4496	35.1562	86.3818	35.1562	86.4872	35.1562	86.4064	35.1562	86.5288	35.1562	86.4375	35.1562	86.5732	35.1562	86.4741	35.1562	86.6192	35.1562	86.5152	35.1562	86.6655	35.1562	86.5596	35.1562	86.7106	35.1562	86.606	35.1562	86.7533	35.1562	86.653	35.1562	86.7921	35.1562	86.6993	35.1562	86.8258	35.1562	86.7433	35.1562	86.8532	35.1562	86.7836	35.1562	86.8732	35.1562	86.8189	35.1562	86.8852	35.1562	86.848	35.1562	86.8887	35.1562	86.8698	35.1562	86.8835
38.0859	87.5037	38.0859	87.5179	38.0859	87.4969	38.0859	87.5392	38.0859	87.4977	38.0859	87.567	38.0859	87.5061	38.0859	87.6005	38.0859	87.522	38.0859	87.6389	38.0859	87.5449	38.0859	87.6811	38.0859	87.5742	38.0859	87.726	38.0859	87.6092	38.0859	87.7722	38.0859	87.6489	38.0859	87.8184	38.0859	87.6921	38.0859	87.8631	38.0859	87.7377	38.0859	87.905	38.0859	87.7842	38.0859	87.9426	38.0859	87.8302	38.0859	87.9747	38.0859	87.8743	38.0859	88.0001	38.0859	87.9151	38.0859	88.0179	38.0859	87.9513	38.0859	88.0275	38.0859	87.9817	38.0859	88.0286	38.0859	88.0052	38.0859	88.021
41.0156	88.4327	41.0156	88.4462	41.0156	88.4263	41.0156	88.4663	41.0156	88.427	41.0156	88.4927	41.0156	88.4348	41.0156	88.5246	41.0156	88.4495	41.0156	88.5612	41.0156	88.4708	41.0156	88.6015	41.0156	88.4981	41.0156	88.6443	41.0156	88.5308	41.0156	88.6885	41.0156	88.5678	41.0156	88.7326	41.0156	88.6083	41.0156	88.7752	41.0156	88.651	41.0156	88.8149	41.0156	88.6948	41.0156	88.8505	41.0156	88.7383	41.0156	88.8806	41.0156	88.7801	41.0156	88.9043	41.0156	88.819	41.0156	88.9206	41.0156	88.8536	41.0156	88.9291	41.0156	88.8829	41.0156	88.9294	41.0156	88.9058	41.0156	88.9215
43.9453	89.0281	43.9453	89.0414	43.9453	89.0214	43.9453	89.0609	43.9453	89.0214	43.9453	89.0861	43.9453	89.0281	43.9453	89.1164	43.9453	89.0414	43.9453	89.151	43.9453	89.0609	43.9453	89.1888	43.9453	89.0861	43.9453	89.2289	43.9453	89.1164	43.9453	89.27	43.9453	89.1509	43.9453	89.3108	43.9453	89.1887	43.9453	89.3501	43.9453	89.2287	43.9453	89.3867	43.9453	89.2697	43.9453	89.4193	43.9453	89.3105	43.9453	89.4469	43.9453	89.3497	43.9453	89.4685	43.9453	89.3863	43.9453	89.4834	43.9453	89.4189	43.9453	89.4909	43.9453	89.4466	43.9453	89.4908	43.9453	89.4682	43.9453	89.4832
46.875	89.18	46.875	89.1927	46.875	89.1739	46.875	89.2116	46.875	89.1745	46.875	89.2362	46.875	89.1818	46.875	89.266	46.875	89.1956	46.875	89.3002	46.875	89.2158	46.875	89.3378	46.875	89.2418	46.875	89.3779	46.875	89.2729	46.875	89.4194	46.875	89.3084	46.875	89.4609	46.875	89.3474	46.875	89.5014	46.875	89.3887	46.875	89.5394	46.875	89.431	46.875	89.5739	46.875	89.4732	46.875	89.6034	46.875	89.5137	46.875	89.6271	46.875	89.5514	46.875	89.644	46.875	89.5848	46.875	89.6534	46.875	89.6127	46.875	89.655	46.875	89.6342	46.875	89.6485
49.8047	88.9959	49.8047	89.0106	49.8047	88.988	49.8047	89.0319	49.8047	88.9873	49.8047	89.0591	49.8047	88.9939	49.8047	89.0914	49.8047	89.0075	49.8047	89.128	49.8047	89.0279	49.8047	89.1679	49.8047	89.0545	49.8047	89.2099	49.8047	89.0865	49.8047	89.2529	49.8047	89.1232	49.8047	89.2956	49.8047	89.1635	49.8047	89.3367	49.8047	89.2061	49.8047	89.375	49.8047	89.2499	49.8047	89.4093	49.8047	89.2935	49.8047	89.4384	49.8047	89.3354	49.8047	89.4612	49.8047	89.3745	49.8047	89.4771	49.8047	89.4093	49.8047	89.4852	49.8047	89.4387	49.8047	89.4853	49.8047	89.4617	49.8047	89.4774
55.6641	88.2936	55.6641	88.3075	55.6641	88.287	55.6641	88.3282	55.6641	88.288	55.6641	88.3551	55.6641	88.2964	55.6641	88.3874	55.6641	88.3121	55.6641	88.4241	55.6641	88.3347	55.6641	88.4643	55.6641	88.3635	55.6641	88.5067	55.6641	88.3976	55.6641	88.5502	55.6641	88.4361	55.6641	88.5934	55.6641	88.4777	55.6641	88.635	55.6641	88.5211	55.6641	88.6739	55.6641	88.5652	55.6641	88.7088	55.6641	88.6085	55.6641	88.7385	55.6641	88.6497	55.6641	88.7622	55.6641	88.6876	55.6641	88.779	55.6641	88.7208	55.6641	88.7883	55.6641	88.7485	55.6641	88.7899	55.6641	88.7696	55.6641	88.7836
58.5938	87.7854	58.5938	87.7937	58.5938	87.7844	58.5938	87.8091	58.5938	87.791	58.5938	87.8308	58.5938	87.8048	58.5938	87.8583	58.5938	87.8254	58.5938	87.8904	58.5938	87.8522	58.5938	87.9261	58.5938	87.8841	58.5938	87.9644	58.5938	87.9202	58.5938	88.0039	58.5938	87.9591	58.5938	88.0437	58.5938	87.9998	58.5938	88.0824	58.5938	88.0408	58.5938	88.1191	58.5938	88.0811	58.5938	88.1528	58.5938	88.1192	58.5938	88.1825	58.5938	88.1542	58.5938	88.2076	58.5938	88.1848	58.5938	88.2273	58.5938	88.2102	58.5938	88.241	58.5938	88.2297	58.5938	88.2483	58.5938	88.2426	58.5938	88.2489
61.5234	87.3642	61.5234	87.3754	61.5234	87.3593	61.5234	87.3924	61.5234	87.3607	61.5234	87.4147	61.5234	87.3686	61.5234	87.4417	61.5234	87.3827	61.5234	87.4725	61.5234	87.4027	61.5234	87.5062	61.5234	87.4279	61.5234	87.5419	61.5234	87.4576	61.5234	87.5785	61.5234	87.4909	61.5234	87.6148	61.5234	87.5267	61.5234	87.6497	61.5234	87.5637	61.5234	87.6823	61.5234	87.6009	61.5234	87.7115	61.5234	87.6369	61.5234	87.7364	61.5234	87.6706	61.5234	87.7562	61.5234	87.7011	61.5234	87.7703	61.5234	87.7276	61.5234	87.7785	61.5234	87.7492	61.5234	87.7803	61.5234	87.7655	61.5234	87.7759
67.3828	86.4649	67.3828	86.4781	67.3828	86.4584	67.3828	86.4977	67.3828	86.4588	67.3828	86.5231	67.3828	86.4663	67.3828	86.5537	67.3828	86.4806	67.3828	86.5886	67.3828	86.5014	67.3828	86.6268	67.3828	86.528	67.3828	86.6672	67.3828	86.5599	67.3828	86.7087	67.3828	86.596	67.3828	86.7499	67.3828	86.6353	67.3828	86.7897	67.3828	86.6766	67.3828	86.8267	67.3828	86.7185	67.3828	86.8597	67.3828	86.7597	67.3828	86.8876	67.3828	86.799	67.3828	86.9096	67.3828	86.8351	67.3828	86.925	67.3828	86.8669	67.3828	86.9332	67.3828	86.8933	67.3828	86.934	67.3828	86.9138	67.3828	86.9275
73.2422	86.2026	73.2422	86.2158	73.2422	86.1969	73.2422	86.2359	73.2422	86.1989	73.2422	86.2626	73.2422	86.2085	73.2422	86.2951	73.2422	86.2257	73.2422	86.3326	73.2422	86.2501	73.2422	86.3741	73.2422	86.2812	73.2422	86.4184	73.2422	86.3181	73.2422	86.4644	73.2422	86.3598	73.2422	86.5106	73.2422	86.4051	73.2422	86.5558	73.2422	86.4526	73.2422	86.5984	73.2422	86.5007	73.2422	86.6372	73.2422	86.5479	73.2422	86.6709	73.2422	86.5924	73.2422	86.6984	73.2422	86.6329	73.2422	86.7187	73.2422	86.668	73.2422	86.731	73.2422	86.6965	73.2422	86.7351	73.2422	86.7176	73.2422	86.7306
76.1719	86.3664	76.1719	86.3822	76.1719	86.3581	76.1719	86.4052	76.1719	86.3578	76.1719	86.4348	76.1719	86.3654	76.1719	86.4701	76.1719	86.3809	76.1719	86.5103	76.1719	86.4039	76.1719	86.5542	76.1719	86.4339	76.1719	86.6007	76.1719	86.47	76.1719	86.6482	76.1719	86.5113	76.1719	86.6955	76.1719	86.5564	76.1719	86.741	76.1719	86.6042	76.1719	86.7834	76.1719	86.6529	76.1719	86.8212	76.1719	86.7011	76.1719	86.8532	76.1719	86.7472	76.1719	86.8785	76.1719	86.7897	76.1719	86.8961	76.1719	86.8271	76.1719	86.9055	76.1719	86.8584	76.1719	86.9064	76.1719	86.8825	76.1719	86.8986
82.0312	86.7334	82.0312	86.7497	82.0312	86.7244	82.0312	86.7729	82.0312	86.723	82.0312	86.8024	82.0312	86.7293	82.0312	86.8372	82.0312	86.7434	82.0312	86.8766	82.0312	86.765	82.0312	86.9195	82.0312	86.7934	82.0312	86.9645	82.0312	86.8281	82.0312	87.0103	82.0312	86.868	82.0312	87.0556	82.0312	86.9118	82.0312	87.0988	82.0312	86.958	82.0312	87.1385	82.0312	87.0052	82.0312	87.1735	82.0312	87.0516	82.0312	87.2028	82.0312	87.0957	82.0312	87.2253	82.0312	87.1362	82.0312	87.2406	82.0312	87.1717	82.0312	87.2483	82.0312	87.2013	82.0312	87.248	82.0312	87.2243	82.0312	87.24
87.8906	87.4345	87.8906	87.4514	87.8906	87.4254	87.8906	87.4754	87.8906	87.4242	87.8906	87.506	87.8906	87.4312	87.8906	87.5424	87.8906	87.4462	87.8906	87.5835	87.8906	87.469	87.8906	87.6281	87.8906	87.4989	87.8906	87.675	87.8906	87.535	87.8906	87.7227	87.8906	87.5764	87.8906	87.7697	87.8906	87.6217	87.8906	87.8144	87.8906	87.6692	87.8906	87.8553	87.8906	87.7175	87.8906	87.8912	87.8906	87.7649	87.8906	87.9209	87.8906	87.8098	87.8906	87.9436	87.8906	87.8509	87.8906	87.9588	87.8906	87.887	87.8906	87.966	87.8906	87.9171	87.8906	87.9653	87.8906	87.9406	87.8906	87.9568
93.75	88.0877	93.75	88.1009	93.75	88.0814	93.75	88.1207	93.75	88.0823	93.75	88.1467	93.75	88.0904	93.75	88.1781	93.75	88.1056	93.75	88.2142	93.75	88.1277	93.75	88.2539	93.75	88.1561	93.75	88.2963	93.75	88.1902	93.75	88.3399	93.75	88.229	93.75	88.3834	93.75	88.2713	93.75	88.4255	93.75	88.3156	93.75	88.4646	93.75	88.3605	93.75	88.4996	93.75	88.4044	93.75	88.5293	93.75	88.4458	93.75	88.5528	93.75	88.4832	93.75	88.5695	93.75	88.5157	93.75	88.5789	93.75	88.5423	93.75	88.5808	93.75	88.5623	93.75	88.5752
102.539	88.6766	102.539	88.6909	102.539	88.6694	102.539	88.7117	102.539	88.6694	102.539	88.7386	102.539	88.6768	102.539	88.7708	102.539	88.6914	102.539	88.8075	102.539	88.7129	102.539	88.8477	102.539	88.7409	102.539	88.8903	102.539	88.7746	102.539	88.934	102.539	88.813	102.539	88.9774	102.539	88.8548	102.539	89.0191	102.539	88.8988	102.539	89.0579	102.539	88.9433	102.539	89.0924	102.539	88.987	102.539	89.1214	102.539	89.0284	102.539	89.1442	102.539	89.0662	102.539	89.1599	102.539	89.0992	102.539	89.1682	102.539	89.1267	102.539	89.1689	102.539	89.1478	102.539	89.162
108.398	88.8341	108.398	88.8457	108.398	88.8299	108.398	88.8642	108.398	88.8331	108.398	88.8892	108.398	88.8439	108.398	88.92	108.398	88.8619	108.398	88.9556	108.398	88.8868	108.398	88.9952	108.398	88.9179	108.398	89.0374	108.398	88.9542	108.398	89.0811	108.398	88.9946	108.398	89.1249	108.398	89.0377	108.398	89.1674	108.398	89.0821	108.398	89.2071	108.398	89.1262	108.398	89.2429	108.398	89.1687	108.398	89.2735	108.398	89.2081	108.398	89.2982	108.398	89.2434	108.398	89.3161	108.398	89.2735	108.398	89.3269	108.398	89.2978	108.398	89.3305	108.398	89.3157	108.398	89.3267
117.188	88.9298	117.188	88.9393	117.188	88.9278	117.188	88.9561	117.188	88.9334	117.188	88.9797	117.188	88.9465	117.188	89.0096	117.188	88.9668	117.188	89.045	117.188	88.9939	117.188	89.0849	117.188	89.0271	117.188	89.1282	117.188	89.0655	117.188	89.1735	117.188	89.108	117.188	89.2195	117.188	89.1532	117.188	89.2646	117.188	89.1996	117.188	89.3073	117.188	89.2455	117.188	89.3463	117.188	89.2896	117.188	89.3802	117.188	89.3303	117.188	89.4082	117.188	89.3664	117.188	89.4294	117.188	89.3969	117.188	89.4431	117.188	89.4209	117.188	89.4492	117.188	89.4379	117.188	89.4474
125.977	88.5299	125.977	88.5423	125.977	88.5244	125.977	88.5613	125.977	88.526	125.977	88.5866	125.977	88.5349	125.977	88.6176	125.977	88.551	125.977	88.6537	125.977	88.5742	125.977	88.6941	125.977	88.6041	125.977	88.7379	125.977	88.64	125.977	88.7837	125.977	88.6809	125.977	88.8302	125.977	88.7256	125.977	88.876	125.977	88.7726	125.977	88.9193	125.977	88.8203	125.977	88.9587	125.977	88.867	125.977	88.9927	125.977	88.9112	125.977	89.0202	125.977	88.9514	125.977	89.0401	125.977	88.9863	125.977	89.0519	125.977	89.0149	125.977	89.0551	125.977	89.0363	125.977	89.0499
134.766	87.7407	134.766	87.7547	134.766	87.7338	134.766	87.7752	134.766	87.7343	134.766	87.8019	134.766	87.7423	134.766	87.8341	134.766	87.7578	134.766	87.871	134.766	87.7806	134.766	87.9116	134.766	87.8103	134.766	87.9549	134.766	87.8462	134.766	87.9996	134.766	87.8871	134.766	88.0443	134.766	87.9317	134.766	88.0875	134.766	87.9785	134.766	88.1278	134.766	88.0256	134.766	88.1639	134.766	88.0714	134.766	88.1945	134.766	88.1142	134.766	88.2189	134.766	88.1526	134.766	88.2364	134.766	88.1855	134.766	88.2465	134.766	88.2121	134.766	88.2491	134.766	88.2318	134.766	88.2442
143.555	86.9061	143.555	86.9232	143.555	86.8963	143.555	86.9469	143.555	86.8942	143.555	86.9763	143.555	86.9001	143.555	87.0106	143.555	86.9142	143.555	87.0487	143.555	86.9362	143.555	87.0895	143.555	86.9656	143.555	87.1318	143.555	87.0015	143.555	87.1743	143.555	87.0426	143.555	87.2156	143.555	87.0873	143.555	87.2546	143.555	87.1339	143.555	87.2901	143.555	87.1804	143.555	87.3211	143.555	87.2249	143.555	87.3468	143.555	87.2659	143.555	87.3668	143.555	87.302	143.555	87.3807	143.555	87.3324	143.555	87.3884	143.555	87.3564	143.555	87.3899	143.555	87.374	143.555	87.3851
155.273	86.3982	155.273	86.4141	155.273	86.3904	155.273	86.4377	155.273	86.391	155.273	86.4684	155.273	86.3999	155.273	86.5053	155.273	86.4169	155.273	86.5473	155.273	86.4418	155.273	86.593	155.273	86.4738	155.273	86.641	155.273	86.5122	155.273	86.6896	155.273	86.5557	155.273	86.7371	155.273	86.6028	155.273	86.782	155.273	86.6518	155.273	86.8228	155.273	86.701	155.273	86.8582	155.273	86.7484	155.273	86.8874	155.273	86.7924	155.273	86.9096	155.273	86.8316	155.273	86.9246	155.273	86.8652	155.273	86.9323	155.273	86.8923	155.273	86.9328	155.273	86.9127	155.273	86.9263
164.062	86.534	164.062	86.5454	164.062	86.5306	164.062	86.5644	164.062	86.5352	164.062	86.5906	164.062	86.5476	164.062	86.6235	164.062	86.5676	164.062	86.6622	164.062	86.5947	164.062	86.7055	164.062	86.6282	164.062	86.7522	164.062	86.6671	164.062	86.8008	164.062	86.7101	164.062	86.8496	164.062	86.756	164.062	86.8972	164.062	86.8031	164.062	86.9416	164.062	86.8501	164.062	86.9815	164.062	86.8954	164.062	87.0154	164.062	86.9377	164.062	87.0423	164.062	86.9759	164.062	87.0614	164.062	87.0088	164.062	87.0723	164.062	87.0359	164.062	87.0749	164.062	87.0562	164.062	87.0694
175.781	86.492	175.781	86.5097	175.781	86.4817	175.781	86.5341	175.781	86.4794	175.781	86.5648	175.781	86.4855	175.781	86.6007	175.781	86.5	175.781	86.6411	175.781	86.5229	175.781	86.6847	175.781	86.5537	175.781	86.7305	175.781	86.5914	175.781	86.7771	175.781	86.6346	175.781	86.8231	175.781	86.6819	175.781	86.8671	175.781	86.7314	175.781	86.9079	175.781	86.7813	175.781	86.9442	175.781	86.8299	175.781	86.975	175.781	86.8757	175.781	86.9993	175.781	86.9171	175.781	87.0163	175.781	86.9531	175.781	87.0256	175.781	86.9827	175.781	87.0269	175.781	87.0052	175.781	87.02
190.43	85.9209	190.43	85.9381	190.43	85.9128	190.43	85.9638	190.43	85.9138	190.43	85.9975	190.43	85.924	190.43	86.0381	190.43	85.9433	190.43	86.0844	190.43	85.9709	190.43	86.1348	190.43	86.0062	190.43	86.1872	190.43	86.0481	190.43	86.2396	190.43	86.0952	190.43	86.2898	190.43	86.1459	190.43	86.3359	190.43	86.1987	190.43	86.3763	190.43	86.2514	190.43	86.4102	190.43	86.302	190.43	86.4371	190.43	86.3485	190.43	86.4572	190.43	86.389	190.43	86.4709	190.43	86.4224	190.43	86.4785	190.43	86.4479	190.43	86.4804	190.43	86.4657	190.43	86.4763
