"SPL Horizontal"
"On-Axis"		"10°"		"-10°"		"20°"		"-20°"		"30°"		"-30°"		"40°"		"-40°"		"50°"		"-50°"		"60°"		"-60°"		"70°"		"-70°"		"80°"		"-80°"		"90°"		"-90°"		"100°"		"-100°"		"110°"		"-110°"		"120°"		"-120°"		"130°"		"-130°"		"140°"		"-140°"		"150°"		"-150°"		"160°"		"-160°"		"170°"		"-170°"		"180°"
"Frequency [Hz]"	"Sound Pessure Level [dB]  / [2.83V 1m] "	"Frequency [Hz]"	"Sound Pessure Level [dB]  / [2.83V 1m] "	"Frequency [Hz]"	"Sound Pessure Level [dB]  / [2.83V 1m] "	"Frequency [Hz]"	"Sound Pessure Level [dB]  / [2.83V 1m] "	"Frequency [Hz]"	"Sound Pessure Level [dB]  / [2.83V 1m] "	"Frequency [Hz]"	"Sound Pessure Level [dB]  / [2.83V 1m] "	"Frequency [Hz]"	"Sound Pessure Level [dB]  / [2.83V 1m] "	"Frequency [Hz]"	"Sound Pessure Level [dB]  / [2.83V 1m] "	"Frequency [Hz]"	"Sound Pessure Level [dB]  / [2.83V 1m] "	"Frequency [Hz]"	"Sound Pessure Level [dB]  / [2.83V 1m] "	"Frequency [Hz]"	"Sound Pessure Level [dB]  / [2.83V 1m] "	"Frequency [Hz]"	"Sound Pessure Level [dB]  / [2.83V 1m] "	"Frequency [Hz]"	"Sound Pessure Level [dB]  / [2.83V 1m] "	"Frequency [Hz]"	"Sound Pessure Level [dB]  / [2.83V 1m] "	"Frequency [Hz]"	"Sound Pessure Level [dB]  / [2.83V 1m] "	"Frequency [Hz]"	"Sound Pessure Level [dB]  / [2.83V 1m] "	"Frequency [Hz]"	"Sound Pessure Level [dB]  / [2.83V 1m] "	"Frequency [Hz]"	"Sound Pessure Level [dB]  / [2.83V 1m] "	"Frequency [Hz]"	"Sound Pessure Level [dB]  / [2.83V 1m] "	"Frequency [Hz]"	"Sound Pessure Level [dB]  / [2.83V 1m] "	"Frequency [Hz]"	"Sound Pessure Level [dB]  / [2.83V 1m] "	"Frequency [Hz]"	"Sound Pessure Level [dB]  / [2.83V 1m] "	"Frequency [Hz]"	"Sound Pessure Level [dB]  / [2.83V 1m] "	"Frequency [Hz]"	"Sound Pessure Level [dB]  / [2.83V 1m] "	"Frequency [Hz]"	"Sound Pessure Level [dB]  / [2.83V 1m] "	"Frequency [Hz]"	"Sound Pessure Level [dB]  / [2.83V 1m] "	"Frequency [Hz]"	"Sound Pessure Level [dB]  / [2.83V 1m] "	"Frequency [Hz]"	"Sound Pessure Level [dB]  / [2.83V 1m] "	"Frequency [Hz]"	"Sound Pessure Level [dB]  / [2.83V 1m] "	"Frequency [Hz]"	"Sound Pessure Level [dB]  / [2.83V 1m] "	"Frequency [Hz]"	"Sound Pessure Level [dB]  / [2.83V 1m] "	"Frequency [Hz]"	"Sound Pessure Level [dB]  / [2.83V 1m] "	"Frequency [Hz]"	"Sound Pessure Level [dB]  / [2.83V 1m] "	"Frequency [Hz]"	"Sound Pessure Level [dB]  / [2.83V 1m] "	"Frequency [Hz]"	"Sound Pessure Level [dB]  / [2.83V 1m] "	"Frequency [Hz]"	"Sound Pessure Level [dB]  / [2.83V 1m] "
20.5078	57.9395	20.5078	58.065	20.5078	57.8642	20.5078	58.2356	20.5078	57.84	20.5078	58.4439	20.5078	57.8636	20.5078	58.6805	20.5078	57.9284	20.5078	58.9345	20.5078	58.0257	20.5078	59.1918	20.5078	58.1452	20.5078	59.4348	20.5078	58.275	20.5078	59.6428	20.5078	58.4012	20.5078	59.7956	20.5078	58.51	20.5078	59.8772	20.5078	58.5903	20.5078	59.8797	20.5078	58.6363	20.5078	59.8041	20.5078	58.6492	20.5078	59.6603	20.5078	58.6368	20.5078	59.466	20.5078	58.6114	20.5078	59.2453	20.5078	58.5879	20.5078	59.0268	20.5078	58.5835	20.5078	58.8378	20.5078	58.6155	20.5078	58.6983
21.9727	53.306	21.9727	53.7597	21.9727	52.8224	21.9727	54.1813	21.9727	52.3103	21.9727	54.5684	21.9727	51.7703	21.9727	54.9196	21.9727	51.204	21.9727	55.2333	21.9727	50.6182	21.9727	55.5066	21.9727	50.0292	21.9727	55.7325	21.9727	49.4676	21.9727	55.8984	21.9727	48.9798	21.9727	55.9876	21.9727	48.6227	21.9727	55.9826	21.9727	48.45	21.9727	55.8699	21.9727	48.495	21.9727	55.6444	21.9727	48.7587	21.9727	55.3106	21.9727	49.2111	21.9727	54.8816	21.9727	49.8021	21.9727	54.3755	21.9727	50.4748	21.9727	53.8107	21.9727	51.179	21.9727	53.2014	21.9727	51.8791	21.9727	52.5559
23.4375	46.2119	23.4375	45.0626	23.4375	47.2406	23.4375	43.7687	23.4375	48.1672	23.4375	42.3119	23.4375	49.0034	23.4375	40.7271	23.4375	49.7552	23.4375	39.2258	23.4375	50.4226	23.4375	38.3393	23.4375	50.9977	23.4375	38.5779	23.4375	51.4636	23.4375	39.6834	23.4375	51.7956	23.4375	41.0049	23.4375	51.9646	23.4375	42.1659	23.4375	51.9421	23.4375	43.0502	23.4375	51.705	23.4375	43.6451	23.4375	51.2374	23.4375	43.9684	23.4375	50.5321	23.4375	44.0555	23.4375	49.592	23.4375	43.9819	23.4375	48.4383	23.4375	43.905	23.4375	47.1322	23.4375	44.0765	23.4375	45.8132	23.4375	44.7176
24.9023	55.5517	24.9023	55.5996	24.9023	55.498	24.9023	55.6414	24.9023	55.4395	24.9023	55.6779	24.9023	55.3786	24.9023	55.7107	24.9023	55.3196	24.9023	55.7421	24.9023	55.2697	24.9023	55.7747	24.9023	55.2385	24.9023	55.8113	24.9023	55.2369	24.9023	55.8545	24.9023	55.2749	24.9023	55.9083	24.9023	55.3585	24.9023	55.978	24.9023	55.4878	24.9023	56.0696	24.9023	55.6571	24.9023	56.1866	24.9023	55.8561	24.9023	56.3267	24.9023	56.0715	24.9023	56.4791	24.9023	56.2877	24.9023	56.6255	24.9023	56.4878	24.9023	56.7442	24.9023	56.6542	24.9023	56.8156	24.9023	56.7708	24.9023	56.826
26.3672	40.4984	26.3672	40.9416	26.3672	40.1987	26.3672	41.4767	26.3672	40.0923	26.3672	42.0574	26.3672	40.2072	26.3672	42.6417	26.3672	40.5283	26.3672	43.1893	26.3672	40.9903	26.3672	43.6594	26.3672	41.4937	26.3672	44.0111	26.3672	41.9281	26.3672	44.2045	26.3672	42.1898	26.3672	44.2001	26.3672	42.1882	26.3672	43.9586	26.3672	41.8456	26.3672	43.4375	26.3672	41.0934	26.3672	42.5875	26.3672	39.8672	26.3672	41.3474	26.3672	38.0995	26.3672	39.6378	26.3672	35.7055	26.3672	37.3484	26.3672	32.543	26.3672	34.307	26.3672	28.3096	26.3672	30.2032	26.3672	23.1803	26.3672	24.74
27.832	51.9525	27.832	51.536	27.832	52.3665	27.832	51.1213	27.832	52.7743	27.832	50.7141	27.832	53.1729	27.832	50.3222	27.832	53.5597	27.832	49.9572	27.832	53.9319	27.832	49.6351	27.832	54.2845	27.832	49.376	27.832	54.6095	27.832	49.2009	27.832	54.8949	27.832	49.1276	27.832	55.1258	27.832	49.1674	27.832	55.2861	27.832	49.325	27.832	55.361	27.832	49.5996	27.832	55.3388	27.832	49.9872	27.832	55.2116	27.832	50.4789	27.832	54.9757	27.832	51.0587	27.832	54.6314	27.832	51.7007	27.832	54.1837	27.832	52.3704	27.832	53.6435	27.832	53.0298
29.2969	46.181	29.2969	46.3409	29.2969	46.0897	29.2969	46.5502	29.2969	46.0896	29.2969	46.7943	29.2969	46.2017	29.2969	47.06	29.2969	46.4351	29.2969	47.3322	29.2969	46.7778	29.2969	47.5915	29.2969	47.1928	29.2969	47.8139	29.2969	47.6241	29.2969	47.9742	29.2969	48.008	29.2969	48.05	29.2969	48.284	29.2969	48.025	29.2969	48.4027	29.2969	47.8889	29.2969	48.3304	29.2969	47.6373	29.2969	48.0519	29.2969	47.2705	29.2969	47.5758	29.2969	46.798	29.2969	46.9412	29.2969	46.2489	29.2969	46.2287	29.2969	45.6873	29.2969	45.5674	29.2969	45.2236	29.2969	45.1163	29.2969	44.9985
30.7617	57.0694	30.7617	56.9882	30.7617	57.1516	30.7617	56.9084	30.7617	57.234	30.7617	56.8306	30.7617	57.3155	30.7617	56.7555	30.7617	57.3951	30.7617	56.6854	30.7617	57.472	30.7617	56.6239	30.7617	57.545	30.7617	56.5757	30.7617	57.6128	30.7617	56.5456	30.7617	57.6726	30.7617	56.5374	30.7617	57.7209	30.7617	56.5534	30.7617	57.7537	30.7617	56.5943	30.7617	57.7679	30.7617	56.6594	30.7617	57.7618	30.7617	56.7464	30.7617	57.7355	30.7617	56.8515	30.7617	57.69	30.7617	56.9695	30.7617	57.6266	30.7617	57.0943	30.7617	57.5462	30.7617	57.2198	30.7617	57.45	30.7617	57.34
32.2266	60.9196	32.2266	60.9211	32.2266	60.9069	32.2266	60.9127	32.2266	60.882	32.2266	60.8953	32.2266	60.8447	32.2266	60.8704	32.2266	60.7957	32.2266	60.8399	32.2266	60.7373	32.2266	60.8069	32.2266	60.6735	32.2266	60.776	32.2266	60.6101	32.2266	60.752	32.2266	60.5538	32.2266	60.7394	32.2266	60.5117	32.2266	60.74	32.2266	60.4895	32.2266	60.7528	32.2266	60.4907	32.2266	60.7735	32.2266	60.515	32.2266	60.7966	32.2266	60.5582	32.2266	60.8166	32.2266	60.6132	32.2266	60.8292	32.2266	60.6715	32.2266	60.8321	32.2266	60.7258	32.2266	60.8237	32.2266	60.7706	32.2266	60.8034
33.6914	64.1743	33.6914	64.1306	33.6914	64.2183	33.6914	64.0876	33.6914	64.262	33.6914	64.0456	33.6914	64.3049	33.6914	64.0051	33.6914	64.347	33.6914	63.9673	33.6914	64.3882	33.6914	63.9343	33.6914	64.4291	33.6914	63.9097	33.6914	64.4699	33.6914	63.8973	33.6914	64.5106	33.6914	63.9007	33.6914	64.5506	33.6914	63.9221	33.6914	64.5882	33.6914	63.9616	33.6914	64.6213	33.6914	64.0175	33.6914	64.6469	33.6914	64.0866	33.6914	64.6617	33.6914	64.1655	33.6914	64.6628	33.6914	64.2503	33.6914	64.6474	33.6914	64.3369	33.6914	64.6143	33.6914	64.4211	33.6914	64.5639	33.6914	64.4983
35.1562	67.8636	35.1562	67.857	35.1562	67.8701	35.1562	67.8507	35.1562	67.8763	35.1562	67.8447	35.1562	67.8817	35.1562	67.8389	35.1562	67.8859	35.1562	67.8332	35.1562	67.8885	35.1562	67.8276	35.1562	67.8887	35.1562	67.8225	35.1562	67.8861	35.1562	67.8183	35.1562	67.8801	35.1562	67.8155	35.1562	67.8707	35.1562	67.8138	35.1562	67.8589	35.1562	67.8131	35.1562	67.8469	35.1562	67.8132	35.1562	67.8371	35.1562	67.8142	35.1562	67.8315	35.1562	67.8165	35.1562	67.8305	35.1562	67.8207	35.1562	67.833	35.1562	67.8264	35.1562	67.8364	35.1562	67.8324	35.1562	67.8382	35.1562	67.8368
36.6211	70.5196	36.6211	70.5374	36.6211	70.4946	36.6211	70.5484	36.6211	70.4624	36.6211	70.5523	36.6211	70.4225	36.6211	70.5489	36.6211	70.3748	36.6211	70.5378	36.6211	70.3193	36.6211	70.5185	36.6211	70.2566	36.6211	70.4911	36.6211	70.1884	36.6211	70.4557	36.6211	70.1174	36.6211	70.413	36.6211	70.0475	36.6211	70.3641	36.6211	69.9839	36.6211	70.3109	36.6211	69.9316	36.6211	70.2553	36.6211	69.8945	36.6211	70.1994	36.6211	69.8745	36.6211	70.1454	36.6211	69.8712	36.6211	70.0947	36.6211	69.8821	36.6211	70.048	36.6211	69.9038	36.6211	70.0056	36.6211	69.9329	36.6211	69.9672
38.0859	73.7763	38.0859	73.7691	38.0859	73.7799	38.0859	73.7578	38.0859	73.7806	38.0859	73.742	38.0859	73.7784	38.0859	73.7212	38.0859	73.7736	38.0859	73.6949	38.0859	73.766	38.0859	73.6632	38.0859	73.755	38.0859	73.6266	38.0859	73.7397	38.0859	73.5859	38.0859	73.7191	38.0859	73.5424	38.0859	73.6919	38.0859	73.4978	38.0859	73.6573	38.0859	73.4535	38.0859	73.6155	38.0859	73.4112	38.0859	73.5675	38.0859	73.3727	38.0859	73.5157	38.0859	73.3401	38.0859	73.463	38.0859	73.3155	38.0859	73.413	38.0859	73.3014	38.0859	73.369	38.0859	73.2994	38.0859	73.3341	38.0859	73.3104
39.5508	76.3093	39.5508	76.3351	39.5508	76.2748	39.5508	76.3519	39.5508	76.2315	39.5508	76.36	39.5508	76.18	39.5508	76.3592	39.5508	76.1206	39.5508	76.3497	39.5508	76.0543	39.5508	76.3317	39.5508	75.9826	39.5508	76.3054	39.5508	75.9076	39.5508	76.2711	39.5508	75.8326	39.5508	76.2293	39.5508	75.7617	39.5508	76.1806	39.5508	75.6994	39.5508	76.1259	39.5508	75.6496	39.5508	76.0664	39.5508	75.615	39.5508	76.0037	39.5508	75.5967	39.5508	75.9395	39.5508	75.5942	39.5508	75.8758	39.5508	75.6059	39.5508	75.8146	39.5508	75.6298	39.5508	75.7579	39.5508	75.6641	39.5508	75.7073
41.0156	79.6616	41.0156	79.6849	41.0156	79.6398	41.0156	79.7088	41.0156	79.6192	41.0156	79.7316	41.0156	79.599	41.0156	79.7508	41.0156	79.5773	41.0156	79.7634	41.0156	79.5518	41.0156	79.7661	41.0156	79.5203	41.0156	79.756	41.0156	79.4808	41.0156	79.7307	41.0156	79.4323	41.0156	79.6885	41.0156	79.3746	41.0156	79.6289	41.0156	79.3086	41.0156	79.5524	41.0156	79.2361	41.0156	79.4616	41.0156	79.1601	41.0156	79.3606	41.0156	79.0853	41.0156	79.2554	41.0156	79.0173	41.0156	79.1533	41.0156	78.9632	41.0156	79.0623	41.0156	78.9295	41.0156	78.9897	41.0156	78.9214	41.0156	78.9416
42.4805	81.4011	42.4805	81.4023	42.4805	81.3942	42.4805	81.3981	42.4805	81.382	42.4805	81.3886	42.4805	81.3648	42.4805	81.3742	42.4805	81.3429	42.4805	81.3556	42.4805	81.3172	42.4805	81.3335	42.4805	81.2883	42.4805	81.3087	42.4805	81.2572	42.4805	81.2821	42.4805	81.225	42.4805	81.2543	42.4805	81.1931	42.4805	81.2258	42.4805	81.1625	42.4805	81.1972	42.4805	81.1344	42.4805	81.1691	42.4805	81.1094	42.4805	81.1419	42.4805	81.088	42.4805	81.1165	42.4805	81.0707	42.4805	81.0937	42.4805	81.0578	42.4805	81.0746	42.4805	81.0498	42.4805	81.0601	42.4805	81.0474	42.4805	81.0508
43.9453	83.4187	43.9453	83.4148	43.9453	83.4171	43.9453	83.4053	43.9453	83.4098	43.9453	83.3906	43.9453	83.397	43.9453	83.371	43.9453	83.379	43.9453	83.347	43.9453	83.356	43.9453	83.3188	43.9453	83.3286	43.9453	83.287	43.9453	83.2973	43.9453	83.252	43.9453	83.2627	43.9453	83.2144	43.9453	83.2256	43.9453	83.1749	43.9453	83.1865	43.9453	83.1345	43.9453	83.1464	43.9453	83.0947	43.9453	83.1061	43.9453	83.0568	43.9453	83.067	43.9453	83.0226	43.9453	83.0308	43.9453	82.9938	43.9453	82.9995	43.9453	82.9719	43.9453	82.9753	43.9453	82.9584	43.9453	82.9599	43.9453	82.9542
45.4102	85.4195	45.4102	85.4179	45.4102	85.4139	45.4102	85.4092	45.4102	85.4012	45.4102	85.3935	45.4102	85.3816	45.4102	85.3712	45.4102	85.3557	45.4102	85.3428	45.4102	85.3239	45.4102	85.309	45.4102	85.287	45.4102	85.2704	45.4102	85.2459	45.4102	85.2279	45.4102	85.2016	45.4102	85.1824	45.4102	85.1554	45.4102	85.1351	45.4102	85.1084	45.4102	85.0874	45.4102	85.0621	45.4102	85.0407	45.4102	85.0177	45.4102	84.9966	45.4102	84.9766	45.4102	84.9568	45.4102	84.9403	45.4102	84.923	45.4102	84.9102	45.4102	84.8968	45.4102	84.888	45.4102	84.8795	45.4102	84.875	45.4102	84.8721
46.875	87.295	46.875	87.2945	46.875	87.2877	46.875	87.2864	46.875	87.2729	46.875	87.2709	46.875	87.2508	46.875	87.2485	46.875	87.222	46.875	87.2199	46.875	87.1871	46.875	87.1858	46.875	87.1471	46.875	87.1472	46.875	87.1029	46.875	87.1051	46.875	87.056	46.875	87.0606	46.875	87.0077	46.875	87.0148	46.875	86.9595	46.875	86.9689	46.875	86.9128	46.875	86.9241	46.875	86.8691	46.875	86.8816	46.875	86.8298	46.875	86.8425	46.875	86.7965	46.875	86.8083	46.875	86.7707	46.875	86.7803	46.875	86.7535	46.875	86.7598	46.875	86.7458	46.875	86.7481
48.3398	89.0185	48.3398	89.0176	48.3398	89.0115	48.3398	89.0089	48.3398	88.9968	48.3398	88.9924	48.3398	88.9749	48.3398	88.9686	48.3398	88.9462	48.3398	88.9382	48.3398	88.9116	48.3398	88.9019	48.3398	88.872	48.3398	88.8609	48.3398	88.8286	48.3398	88.8162	48.3398	88.7826	48.3398	88.7694	48.3398	88.7354	48.3398	88.7217	48.3398	88.6883	48.3398	88.6749	48.3398	88.6428	48.3398	88.6304	48.3398	88.6003	48.3398	88.5895	48.3398	88.5621	48.3398	88.5535	48.3398	88.5296	48.3398	88.5233	48.3398	88.5039	48.3398	88.4997	48.3398	88.486	48.3398	88.4837	48.3398	88.4765	48.3398	88.4758
51.2695	91.8951	51.2695	91.8941	51.2695	91.8874	51.2695	91.8844	51.2695	91.8711	51.2695	91.8664	51.2695	91.8468	51.2695	91.8407	51.2695	91.8152	51.2695	91.8082	51.2695	91.7772	51.2695	91.77	51.2695	91.7341	51.2695	91.7273	51.2695	91.687	51.2695	91.6815	51.2695	91.6377	51.2695	91.6341	51.2695	91.5877	51.2695	91.5865	51.2695	91.5387	51.2695	91.54	51.2695	91.4922	51.2695	91.4961	51.2695	91.4498	51.2695	91.4558	51.2695	91.4129	51.2695	91.4203	51.2695	91.3826	51.2695	91.3903	51.2695	91.3597	51.2695	91.3665	51.2695	91.3449	51.2695	91.3495	51.2695	91.3384	51.2695	91.34
52.7344	93.0515	52.7344	93.0506	52.7344	93.0434	52.7344	93.0408	52.7344	93.0266	52.7344	93.0224	52.7344	93.0016	52.7344	92.9962	52.7344	92.9692	52.7344	92.963	52.7344	92.9304	52.7344	92.9241	52.7344	92.8867	52.7344	92.8808	52.7344	92.8394	52.7344	92.8346	52.7344	92.7902	52.7344	92.787	52.7344	92.7408	52.7344	92.7397	52.7344	92.6927	52.7344	92.694	52.7344	92.6477	52.7344	92.6513	52.7344	92.6071	52.7344	92.6126	52.7344	92.5722	52.7344	92.5788	52.7344	92.5439	52.7344	92.5506	52.7344	92.5227	52.7344	92.5285	52.7344	92.5091	52.7344	92.513	52.7344	92.503	52.7344	92.5044
54.1992	94.0411	54.1992	94.0399	54.1992	94.0331	54.1992	94.0294	54.1992	94.0161	54.1992	94.0102	54.1992	93.9906	54.1992	93.9829	54.1992	93.9576	54.1992	93.9485	54.1992	93.918	54.1992	93.9083	54.1992	93.8735	54.1992	93.8637	54.1992	93.8255	54.1992	93.8164	54.1992	93.7757	54.1992	93.768	54.1992	93.726	54.1992	93.7203	54.1992	93.6781	54.1992	93.6747	54.1992	93.6335	54.1992	93.6327	54.1992	93.5936	54.1992	93.5952	54.1992	93.5596	54.1992	93.563	54.1992	93.5323	54.1992	93.5366	54.1992	93.5121	54.1992	93.5162	54.1992	93.4991	54.1992	93.5021	54.1992	93.4933	54.1992	93.4943
55.6641	94.88	55.6641	94.8759	55.6641	94.8737	55.6641	94.8617	55.6641	94.8573	55.6641	94.8377	55.6641	94.8314	55.6641	94.805	55.6641	94.7969	55.6641	94.7647	55.6641	94.7551	55.6641	94.7183	55.6641	94.7074	55.6641	94.6676	55.6641	94.6556	55.6641	94.6146	55.6641	94.6017	55.6641	94.5612	55.6641	94.5475	55.6641	94.5095	55.6641	94.4948	55.6641	94.461	55.6641	94.4456	55.6641	94.4173	55.6641	94.4013	55.6641	94.3793	55.6641	94.3633	55.6641	94.3475	55.6641	94.3324	55.6641	94.3222	55.6641	94.3092	55.6641	94.3034	55.6641	94.2938	55.6641	94.2909	55.6641	94.2858	55.6641	94.285
58.5938	96.1515	58.5938	96.1451	58.5938	96.1463	58.5938	96.1273	58.5938	96.1297	58.5938	96.0986	58.5938	96.1021	58.5938	96.0602	58.5938	96.0648	58.5938	96.0134	58.5938	96.0189	58.5938	95.96	58.5938	95.9662	58.5938	95.902	58.5938	95.9085	58.5938	95.8416	58.5938	95.848	58.5938	95.7809	58.5938	95.7869	58.5938	95.7222	58.5938	95.7271	58.5938	95.6672	58.5938	95.6707	58.5938	95.6175	58.5938	95.6194	58.5938	95.5744	58.5938	95.5746	58.5938	95.5385	58.5938	95.5374	58.5938	95.5103	58.5938	95.5084	58.5938	95.4899	58.5938	95.488	58.5938	95.4773	58.5938	95.4762	58.5938	95.4727
60.0586	96.6971	60.0586	96.6915	60.0586	96.6913	60.0586	96.6744	60.0586	96.674	60.0586	96.6466	60.0586	96.6461	60.0586	96.6091	60.0586	96.6084	60.0586	96.5633	60.0586	96.5624	60.0586	96.5109	60.0586	96.5098	60.0586	96.4538	60.0586	96.4525	60.0586	96.3943	60.0586	96.3927	60.0586	96.3344	60.0586	96.3326	60.0586	96.2763	60.0586	96.2741	60.0586	96.2218	60.0586	96.2192	60.0586	96.1724	60.0586	96.1694	60.0586	96.1294	60.0586	96.126	60.0586	96.0934	60.0586	96.09	60.0586	96.065	60.0586	96.0618	60.0586	96.0444	60.0586	96.0418	60.0586	96.0316	60.0586	96.0302	60.0586	96.0269
62.9883	97.5567	62.9883	97.5482	62.9883	97.553	62.9883	97.5276	62.9883	97.5372	62.9883	97.4959	62.9883	97.5098	62.9883	97.454	62.9883	97.4719	62.9883	97.4036	62.9883	97.4248	62.9883	97.3464	62.9883	97.3702	62.9883	97.2847	62.9883	97.3102	62.9883	97.2206	62.9883	97.2467	62.9883	97.1564	62.9883	97.1822	62.9883	97.0943	62.9883	97.1187	62.9883	97.0363	62.9883	97.0584	62.9883	96.984	62.9883	97.003	62.9883	96.9385	62.9883	96.9539	62.9883	96.9008	62.9883	96.9125	62.9883	96.8714	62.9883	96.8795	62.9883	96.8504	62.9883	96.8554	62.9883	96.8382	62.9883	96.8405	62.9883	96.8348
64.4531	97.8823	64.4531	97.871	64.4531	97.8816	64.4531	97.8481	64.4531	97.8691	64.4531	97.8143	64.4531	97.8454	64.4531	97.771	64.4531	97.8115	64.4531	97.7197	64.4531	97.7687	64.4531	97.6624	64.4531	97.7187	64.4531	97.6013	64.4531	97.6635	64.4531	97.5388	64.4531	97.605	64.4531	97.4773	64.4531	97.5454	64.4531	97.4188	64.4531	97.4866	64.4531	97.3652	64.4531	97.4303	64.4531	97.3179	64.4531	97.3779	64.4531	97.2779	64.4531	97.3308	64.4531	97.2459	64.4531	97.29	64.4531	97.2221	64.4531	97.2561	64.4531	97.2068	64.4531	97.2298	64.4531	97.1999	64.4531	97.2115	64.4531	97.2015
67.3828	98.4294	67.3828	98.4164	67.3828	98.4304	67.3828	98.3917	67.3828	98.4194	67.3828	98.3562	67.3828	98.3971	67.3828	98.3114	67.3828	98.3646	67.3828	98.259	67.3828	98.3232	67.3828	98.2011	67.3828	98.2749	67.3828	98.1402	67.3828	98.2216	67.3828	98.0787	67.3828	98.1654	67.3828	98.0188	67.3828	98.1083	67.3828	97.9628	67.3828	98.0523	67.3828	97.9123	67.3828	97.9989	67.3828	97.8687	67.3828	97.9494	67.3828	97.8328	67.3828	97.9048	67.3828	97.8051	67.3828	97.8657	67.3828	97.7855	67.3828	97.8328	67.3828	97.7742	67.3828	97.8065	67.3828	97.7708	67.3828	97.7872	67.3828	97.7752
68.8477	98.6745	68.8477	98.6622	68.8477	98.6746	68.8477	98.638	68.8477	98.6626	68.8477	98.6029	68.8477	98.6392	68.8477	98.5582	68.8477	98.6057	68.8477	98.5059	68.8477	98.5635	68.8477	98.4481	68.8477	98.5146	68.8477	98.3873	68.8477	98.4612	68.8477	98.326	68.8477	98.4054	68.8477	98.2668	68.8477	98.3496	68.8477	98.2118	68.8477	98.2956	68.8477	98.1628	68.8477	98.245	68.8477	98.1212	68.8477	98.199	68.8477	98.0877	68.8477	98.1582	68.8477	98.0625	68.8477	98.1229	68.8477	98.0457	68.8477	98.0934	68.8477	98.0366	68.8477	98.0696	68.8477	98.0349	68.8477	98.0518	68.8477	98.0401
