"SPL Vertical"
"On-Axis"		"10°"		"-10°"		"20°"		"-20°"		"30°"		"-30°"		"40°"		"-40°"		"50°"		"-50°"		"60°"		"-60°"		"70°"		"-70°"		"80°"		"-80°"		"90°"		"-90°"		"100°"		"-100°"		"110°"		"-110°"		"120°"		"-120°"		"130°"		"-130°"		"140°"		"-140°"		"150°"		"-150°"		"160°"		"-160°"		"170°"		"-170°"		"180°"
"Frequency [Hz]"	"Sound Pessure Level [dB]   [2.83V at 1m]"	"Frequency [Hz]"	"Sound Pessure Level [dB]   [2.83V at 1m]"	"Frequency [Hz]"	"Sound Pessure Level [dB]   [2.83V at 1m]"	"Frequency [Hz]"	"Sound Pessure Level [dB]   [2.83V at 1m]"	"Frequency [Hz]"	"Sound Pessure Level [dB]   [2.83V at 1m]"	"Frequency [Hz]"	"Sound Pessure Level [dB]   [2.83V at 1m]"	"Frequency [Hz]"	"Sound Pessure Level [dB]   [2.83V at 1m]"	"Frequency [Hz]"	"Sound Pessure Level [dB]   [2.83V at 1m]"	"Frequency [Hz]"	"Sound Pessure Level [dB]   [2.83V at 1m]"	"Frequency [Hz]"	"Sound Pessure Level [dB]   [2.83V at 1m]"	"Frequency [Hz]"	"Sound Pessure Level [dB]   [2.83V at 1m]"	"Frequency [Hz]"	"Sound Pessure Level [dB]   [2.83V at 1m]"	"Frequency [Hz]"	"Sound Pessure Level [dB]   [2.83V at 1m]"	"Frequency [Hz]"	"Sound Pessure Level [dB]   [2.83V at 1m]"	"Frequency [Hz]"	"Sound Pessure Level [dB]   [2.83V at 1m]"	"Frequency [Hz]"	"Sound Pessure Level [dB]   [2.83V at 1m]"	"Frequency [Hz]"	"Sound Pessure Level [dB]   [2.83V at 1m]"	"Frequency [Hz]"	"Sound Pessure Level [dB]   [2.83V at 1m]"	"Frequency [Hz]"	"Sound Pessure Level [dB]   [2.83V at 1m]"	"Frequency [Hz]"	"Sound Pessure Level [dB]   [2.83V at 1m]"	"Frequency [Hz]"	"Sound Pessure Level [dB]   [2.83V at 1m]"	"Frequency [Hz]"	"Sound Pessure Level [dB]   [2.83V at 1m]"	"Frequency [Hz]"	"Sound Pessure Level [dB]   [2.83V at 1m]"	"Frequency [Hz]"	"Sound Pessure Level [dB]   [2.83V at 1m]"	"Frequency [Hz]"	"Sound Pessure Level [dB]   [2.83V at 1m]"	"Frequency [Hz]"	"Sound Pessure Level [dB]   [2.83V at 1m]"	"Frequency [Hz]"	"Sound Pessure Level [dB]   [2.83V at 1m]"	"Frequency [Hz]"	"Sound Pessure Level [dB]   [2.83V at 1m]"	"Frequency [Hz]"	"Sound Pessure Level [dB]   [2.83V at 1m]"	"Frequency [Hz]"	"Sound Pessure Level [dB]   [2.83V at 1m]"	"Frequency [Hz]"	"Sound Pessure Level [dB]   [2.83V at 1m]"	"Frequency [Hz]"	"Sound Pessure Level [dB]   [2.83V at 1m]"	"Frequency [Hz]"	"Sound Pessure Level [dB]   [2.83V at 1m]"	"Frequency [Hz]"	"Sound Pessure Level [dB]   [2.83V at 1m]"	"Frequency [Hz]"	"Sound Pessure Level [dB]   [2.83V at 1m]"	"Frequency [Hz]"	"Sound Pessure Level [dB]   [2.83V at 1m]"
20.5078	37.556	20.5078	40.5439	20.5078	35.2477	20.5078	43.5124	20.5078	34.502	20.5078	46.1812	20.5078	35.4107	20.5078	48.4737	20.5078	37.297	20.5078	50.3797	20.5078	39.4925	20.5078	51.905	20.5078	41.5867	20.5078	53.0595	20.5078	43.392	20.5078	53.8562	20.5078	44.8536	20.5078	54.3148	20.5078	45.9825	20.5078	54.4637	20.5078	46.8202	20.5078	54.341	20.5078	47.4232	20.5078	53.9928	20.5078	47.855	20.5078	53.4712	20.5078	48.1813	20.5078	52.8309	20.5078	48.4654	20.5078	52.1259	20.5078	48.7632	20.5078	51.4069	20.5078	49.1183	20.5078	50.7181	20.5078	49.5588	20.5078	50.0945
21.9727	45.9976	21.9727	46.9508	21.9727	45.4085	21.9727	48.2683	21.9727	45.1026	21.9727	49.8204	21.9727	45.0357	21.9727	51.4206	21.9727	45.2443	21.9727	52.9118	21.9727	45.7771	21.9727	54.1928	21.9727	46.5961	21.9727	55.2086	21.9727	47.567	21.9727	55.9363	21.9727	48.5402	21.9727	56.3765	21.9727	49.4147	21.9727	56.5485	21.9727	50.1479	21.9727	56.4864	21.9727	50.7396	21.9727	56.2352	21.9727	51.2133	21.9727	55.8454	21.9727	51.6025	21.9727	55.3676	21.9727	51.9422	21.9727	54.8478	21.9727	52.2647	21.9727	54.324	21.9727	52.597	21.9727	53.8249	21.9727	52.9602	21.9727	53.3681
23.4375	58.3985	23.4375	58.7129	23.4375	58.185	23.4375	59.1175	23.4375	58.0727	23.4375	59.5894	23.4375	58.0532	23.4375	60.0936	23.4375	58.1108	23.4375	60.5855	23.4375	58.223	23.4375	61.0171	23.4375	58.3623	23.4375	61.3439	23.4375	58.4999	23.4375	61.5324	23.4375	58.6105	23.4375	61.5649	23.4375	58.6768	23.4375	61.442	23.4375	58.6926	23.4375	61.1825	23.4375	58.6632	23.4375	60.8197	23.4375	58.6032	23.4375	60.396	23.4375	58.5323	23.4375	59.9557	23.4375	58.4713	23.4375	59.5385	23.4375	58.4393	23.4375	59.174	23.4375	58.4524	23.4375	58.8802	23.4375	58.5238	23.4375	58.664
24.9023	58.352	24.9023	58.4355	24.9023	58.3045	24.9023	58.5895	24.9023	58.2735	24.9023	58.8498	24.9023	58.2584	24.9023	59.2309	24.9023	58.2724	24.9023	59.7079	24.9023	58.3315	24.9023	60.2185	24.9023	58.4409	24.9023	60.6832	24.9023	58.5867	24.9023	61.0305	24.9023	58.7389	24.9023	61.2139	24.9023	58.8636	24.9023	61.2172	24.9023	58.9363	24.9023	61.0532	24.9023	58.9492	24.9023	60.758	24.9023	58.9112	24.9023	60.3818	24.9023	58.8429	24.9023	59.9789	24.9023	58.7699	24.9023	59.5975	24.9023	58.7165	24.9023	59.2717	24.9023	58.702	24.9023	59.0191	24.9023	58.7408	24.9023	58.8436
26.3672	61.5424	26.3672	61.6966	26.3672	61.4453	26.3672	61.9188	26.3672	61.3967	26.3672	62.2149	26.3672	61.3928	26.3672	62.5773	26.3672	61.4331	26.3672	62.9794	26.3672	61.5145	26.3672	63.3776	26.3672	61.6272	26.3672	63.7209	26.3672	61.7526	26.3672	63.9634	26.3672	61.8674	26.3672	64.0751	26.3672	61.9506	26.3672	64.0472	26.3672	61.9901	26.3672	63.8928	26.3672	61.9859	26.3672	63.6413	26.3672	61.9489	26.3672	63.331	26.3672	61.8966	26.3672	63.0006	26.3672	61.8486	26.3672	62.6828	26.3672	61.8225	26.3672	62.4015	26.3672	61.8324	26.3672	62.1719	26.3672	61.8893	26.3672	62.001
27.832	63.7971	27.832	63.9594	27.832	63.6845	27.832	64.177	27.832	63.6172	27.832	64.4509	27.832	63.593	27.832	64.7725	27.832	63.6109	27.832	65.1191	27.832	63.6677	27.832	65.4555	27.832	63.7538	27.832	65.7403	27.832	63.8532	27.832	65.9357	27.832	63.9467	27.832	66.0168	27.832	64.0177	27.832	65.9773	27.832	64.0579	27.832	65.8302	27.832	64.0686	27.832	65.604	27.832	64.0598	27.832	65.3345	27.832	64.0451	27.832	65.0568	27.832	64.0381	27.832	64.7981	27.832	64.0493	27.832	64.5748	27.832	64.0857	27.832	64.3933	27.832	64.1525	27.832	64.2536
29.2969	65.0375	29.2969	65.1958	29.2969	64.9273	29.2969	65.4077	29.2969	64.8609	29.2969	65.6753	29.2969	64.8367	29.2969	65.9909	29.2969	64.8544	29.2969	66.3332	29.2969	64.9112	29.2969	66.6678	29.2969	64.9982	29.2969	66.9544	29.2969	65.0999	29.2969	67.156	29.2969	65.1974	29.2969	67.2482	29.2969	65.2748	29.2969	67.2254	29.2969	65.3243	29.2969	67.1006	29.2969	65.3479	29.2969	66.9014	29.2969	65.3556	29.2969	66.6619	29.2969	65.3611	29.2969	66.4141	29.2969	65.377	29.2969	66.1815	29.2969	65.4119	29.2969	65.9773	29.2969	65.4704	29.2969	65.8056	29.2969	65.5545	29.2969	65.6655
30.7617	68.0035	30.7617	68.1302	30.7617	67.9071	30.7617	68.2886	30.7617	67.8395	30.7617	68.4772	30.7617	67.7993	30.7617	68.6885	30.7617	67.7844	30.7617	68.9069	30.7617	67.7901	30.7617	69.1082	30.7617	67.8078	30.7617	69.2633	30.7617	67.8255	30.7617	69.3449	30.7617	67.8303	30.7617	69.3349	30.7617	67.8129	30.7617	69.2302	30.7617	67.7711	30.7617	69.0443	30.7617	67.7106	30.7617	68.8038	30.7617	67.6432	30.7617	68.5415	30.7617	67.5826	30.7617	68.2878	30.7617	67.5402	30.7617	68.0647	30.7617	67.523	30.7617	67.8827	30.7617	67.5336	30.7617	67.7429	30.7617	67.5726	30.7617	67.6413
32.2266	69.7705	32.2266	69.8628	32.2266	69.6907	32.2266	69.9715	32.2266	69.6213	32.2266	70.0992	32.2266	69.5617	32.2266	70.2447	32.2266	69.5127	32.2266	70.399	32.2266	69.4742	32.2266	70.5446	32.2266	69.4434	32.2266	70.6575	32.2266	69.4139	32.2266	70.7131	32.2266	69.3778	32.2266	70.6938	32.2266	69.3285	32.2266	70.5947	32.2266	69.2639	32.2266	70.4257	32.2266	69.1881	32.2266	70.2081	32.2266	69.1105	32.2266	69.9689	32.2266	69.0423	32.2266	69.7333	32.2266	68.9937	32.2266	69.5203	32.2266	68.9716	32.2266	69.3406	32.2266	68.9796	32.2266	69.1977	32.2266	69.0191	32.2266	69.0912
33.6914	71.331	33.6914	71.4113	33.6914	71.2591	33.6914	71.5032	33.6914	71.1939	33.6914	71.6094	33.6914	71.1356	33.6914	71.7291	33.6914	71.0853	33.6914	71.8555	33.6914	71.0434	33.6914	71.9737	33.6914	71.0083	33.6914	72.0633	33.6914	70.975	33.6914	72.1031	33.6914	70.9375	33.6914	72.0781	33.6914	70.8908	33.6914	71.9849	33.6914	70.8341	33.6914	71.8336	33.6914	70.7717	33.6914	71.6446	33.6914	70.7118	33.6914	71.4422	33.6914	70.6633	33.6914	71.2484	33.6914	70.6334	33.6914	71.0776	33.6914	70.6259	33.6914	70.9362	33.6914	70.6414	33.6914	70.8246	33.6914	70.6795	33.6914	70.74
35.1562	72.8964	35.1562	72.9717	35.1562	72.825	35.1562	73.0532	35.1562	72.756	35.1562	73.1435	35.1562	72.69	35.1562	73.2422	35.1562	72.6282	35.1562	73.3435	35.1562	72.5718	35.1562	73.4353	35.1562	72.5199	35.1562	73.5002	35.1562	72.4694	35.1562	73.5202	35.1562	72.4163	35.1562	73.4831	35.1562	72.358	35.1562	73.3869	35.1562	72.2952	35.1562	73.2418	35.1562	72.233	35.1562	73.0667	35.1562	72.179	35.1562	72.8839	35.1562	72.1409	35.1562	72.7118	35.1562	72.1236	35.1562	72.5618	35.1562	72.1284	35.1562	72.4378	35.1562	72.1541	35.1562	72.3382	35.1562	72.1982	35.1562	72.2593
36.6211	74.3818	36.6211	74.4464	36.6211	74.3144	36.6211	74.5107	36.6211	74.2433	36.6211	74.5773	36.6211	74.169	36.6211	74.6465	36.6211	74.0934	36.6211	74.7141	36.6211	74.0182	36.6211	74.7705	36.6211	73.944	36.6211	74.8012	36.6211	73.8696	36.6211	74.7913	36.6211	73.7929	36.6211	74.7304	36.6211	73.7128	36.6211	74.6177	36.6211	73.6311	36.6211	74.4632	36.6211	73.5531	36.6211	74.2846	36.6211	73.486	36.6211	74.1025	36.6211	73.4369	36.6211	73.934	36.6211	73.4098	36.6211	73.7895	36.6211	73.4056	36.6211	73.6721	36.6211	73.4223	36.6211	73.5801	36.6211	73.4574	36.6211	73.5096
38.0859	75.7126	38.0859	75.7739	38.0859	75.6484	38.0859	75.834	38.0859	75.5809	38.0859	75.8946	38.0859	75.511	38.0859	75.9557	38.0859	75.4406	38.0859	76.0134	38.0859	75.3712	38.0859	76.0593	38.0859	75.3031	38.0859	76.0807	38.0859	75.2347	38.0859	76.0647	38.0859	75.1638	38.0859	76.0028	38.0859	75.0891	38.0859	75.8948	38.0859	75.0121	38.0859	75.7503	38.0859	74.9379	38.0859	75.5857	38.0859	74.8732	38.0859	75.4194	38.0859	74.8246	38.0859	75.2663	38.0859	74.7964	38.0859	75.1351	38.0859	74.7895	38.0859	75.0285	38.0859	74.8024	38.0859	74.9445	38.0859	74.8331	38.0859	74.8803
39.5508	77.3944	39.5508	77.426	39.5508	77.3546	39.5508	77.4506	39.5508	77.3068	39.5508	77.4696	39.5508	77.2527	39.5508	77.4837	39.5508	77.1941	39.5508	77.4914	39.5508	77.1325	39.5508	77.4876	39.5508	77.0676	39.5508	77.465	39.5508	76.9975	39.5508	77.416	39.5508	76.9198	39.5508	77.3364	39.5508	76.8338	39.5508	77.2284	39.5508	76.7424	39.5508	77.1009	39.5508	76.6518	39.5508	76.9669	39.5508	76.5707	39.5508	76.8395	39.5508	76.5065	39.5508	76.7283	39.5508	76.4633	39.5508	76.6377	39.5508	76.4415	39.5508	76.5674	39.5508	76.4385	39.5508	76.5148	39.5508	76.451	39.5508	76.4765
41.0156	78.6335	41.0156	78.6616	41.0156	78.5928	41.0156	78.678	41.0156	78.5398	41.0156	78.6846	41.0156	78.4763	41.0156	78.6823	41.0156	78.4045	41.0156	78.6707	41.0156	78.3267	41.0156	78.6462	41.0156	78.2437	41.0156	78.6031	41.0156	78.1549	41.0156	78.5358	41.0156	78.0595	41.0156	78.4418	41.0156	77.9582	41.0156	78.3243	41.0156	77.8551	41.0156	78.1925	41.0156	77.7571	41.0156	78.0587	41.0156	77.6727	41.0156	77.9351	41.0156	77.6089	41.0156	77.8296	41.0156	77.5688	41.0156	77.7452	41.0156	77.5513	41.0156	77.6803	41.0156	77.5525	41.0156	77.6313	41.0156	77.568	41.0156	77.5945
42.4805	79.8148	42.4805	79.8427	42.4805	79.7708	42.4805	79.8552	42.4805	79.711	42.4805	79.8541	42.4805	79.6376	42.4805	79.8406	42.4805	79.5531	42.4805	79.8148	42.4805	79.4602	42.4805	79.7741	42.4805	79.3603	42.4805	79.7145	42.4805	79.2539	42.4805	79.6319	42.4805	79.1413	42.4805	79.525	42.4805	79.0244	42.4805	79.3979	42.4805	78.908	42.4805	79.2598	42.4805	78.8	42.4805	79.1224	42.4805	78.709	42.4805	78.9967	42.4805	78.6419	42.4805	78.8897	42.4805	78.6014	42.4805	78.8033	42.4805	78.5857	42.4805	78.7356	42.4805	78.5905	42.4805	78.6828	42.4805	78.6104	42.4805	78.6416
43.9453	80.9481	43.9453	80.9682	43.9453	80.9084	43.9453	80.9693	43.9453	80.8495	43.9453	80.9533	43.9453	80.7734	43.9453	80.9218	43.9453	80.6827	43.9453	80.8753	43.9453	80.5803	43.9453	80.8127	43.9453	80.468	43.9453	80.7315	43.9453	80.3471	43.9453	80.629	43.9453	80.2186	43.9453	80.5056	43.9453	80.0855	43.9453	80.3659	43.9453	79.9533	43.9453	80.219	43.9453	79.8302	43.9453	80.0763	43.9453	79.7251	43.9453	79.9477	43.9453	79.6449	43.9453	79.8397	43.9453	79.5926	43.9453	79.7536	43.9453	79.5665	43.9453	79.6875	43.9453	79.5623	43.9453	79.6375	43.9453	79.5749	43.9453	79.6004
45.4102	81.8973	45.4102	81.9158	45.4102	81.8545	45.4102	81.9108	45.4102	81.7879	45.4102	81.8845	45.4102	81.6999	45.4102	81.8394	45.4102	81.594	45.4102	81.777	45.4102	81.4742	45.4102	81.6975	45.4102	81.3438	45.4102	81.5999	45.4102	81.2057	45.4102	81.4828	45.4102	81.0624	45.4102	81.3472	45.4102	80.9175	45.4102	81.1977	45.4102	80.7766	45.4102	81.0429	45.4102	80.6471	45.4102	80.8931	45.4102	80.537	45.4102	80.7577	45.4102	80.4521	45.4102	80.6428	45.4102	80.3946	45.4102	80.5503	45.4102	80.3633	45.4102	80.479	45.4102	80.3544	45.4102	80.4257	45.4102	80.3635	45.4102	80.3876
46.875	82.5949	46.875	82.6139	46.875	82.5506	46.875	82.6087	46.875	82.482	46.875	82.5814	46.875	82.392	46.875	82.5352	46.875	82.2849	46.875	82.4726	46.875	82.1654	46.875	82.3951	46.875	82.0379	46.875	82.3032	46.875	81.9065	46.875	82.197	46.875	81.7744	46.875	82.0784	46.875	81.6459	46.875	81.9522	46.875	81.5266	46.875	81.8258	46.875	81.4234	46.875	81.7076	46.875	81.3425	46.875	81.6042	46.875	81.2878	46.875	81.5187	46.875	81.2593	46.875	81.4506	46.875	81.2534	46.875	81.3968	46.875	81.2645	46.875	81.3534	46.875	81.2871	46.875	81.3172
48.3398	83.2905	48.3398	83.3041	48.3398	83.251	48.3398	83.2926	48.3398	83.1867	48.3398	83.2586	48.3398	83.1005	48.3398	83.2054	48.3398	82.9969	48.3398	83.1362	48.3398	82.8809	48.3398	83.0535	48.3398	82.7573	48.3398	82.959	48.3398	82.6305	48.3398	82.8543	48.3398	82.5046	48.3398	82.7424	48.3398	82.3842	48.3398	82.6288	48.3398	82.2754	48.3398	82.5204	48.3398	82.1848	48.3398	82.4243	48.3398	82.1181	48.3398	82.3449	48.3398	82.0779	48.3398	82.2831	48.3398	82.0627	48.3398	82.2363	48.3398	82.0678	48.3398	82.1998	48.3398	82.0863	48.3398	82.1689	48.3398	82.1119	48.3398	82.14
51.2695	84.6361	51.2695	84.6431	51.2695	84.599	51.2695	84.6209	51.2695	84.5328	51.2695	84.5721	51.2695	84.4409	51.2695	84.5006	51.2695	84.3282	51.2695	84.4109	51.2695	84.2005	51.2695	84.3071	51.2695	84.064	51.2695	84.1929	51.2695	83.9245	51.2695	84.0725	51.2695	83.788	51.2695	83.9513	51.2695	83.661	51.2695	83.8361	51.2695	83.5506	51.2695	83.7345	51.2695	83.4641	51.2695	83.6525	51.2695	83.4064	51.2695	83.5927	51.2695	83.3785	51.2695	83.5532	51.2695	83.3767	51.2695	83.5284	51.2695	83.3937	51.2695	83.5113	51.2695	83.4207	51.2695	83.4951	51.2695	83.4496	51.2695	83.4751
52.7344	85.2425	52.7344	85.2462	52.7344	85.2065	52.7344	85.2185	52.7344	85.1392	52.7344	85.1622	52.7344	85.0441	52.7344	85.0816	52.7344	84.9265	52.7344	84.9816	52.7344	84.7924	52.7344	84.8674	52.7344	84.6488	52.7344	84.7439	52.7344	84.5022	52.7344	84.6165	52.7344	84.3594	52.7344	84.4915	52.7344	84.2278	52.7344	84.3766	52.7344	84.1153	52.7344	84.2792	52.7344	84.0293	52.7344	84.2045	52.7344	83.9745	52.7344	84.1538	52.7344	83.9514	52.7344	84.1238	52.7344	83.9553	52.7344	84.1077	52.7344	83.9779	52.7344	84.0975	52.7344	84.0094	52.7344	84.0857	52.7344	84.0413	52.7344	84.0675
54.1992	85.7555	54.1992	85.7567	54.1992	85.7197	54.1992	85.724	54.1992	85.6504	54.1992	85.6607	54.1992	85.5512	54.1992	85.5715	54.1992	85.4277	54.1992	85.4618	54.1992	85.2866	54.1992	85.3378	54.1992	85.1354	54.1992	85.2056	54.1992	84.9815	54.1992	85.0719	54.1992	84.8329	54.1992	84.9441	54.1992	84.6979	54.1992	84.8305	54.1992	84.5851	54.1992	84.7384	54.1992	84.5022	54.1992	84.6724	54.1992	84.4534	54.1992	84.6324	54.1992	84.4383	54.1992	84.6135	54.1992	84.4509	54.1992	84.6076	54.1992	84.4817	54.1992	84.6055	54.1992	84.5197	54.1992	84.599	54.1992	84.5556	54.1992	84.5829
55.6641	86.2097	55.6641	86.2081	55.6641	86.1736	55.6641	86.17	55.6641	86.1012	55.6641	86.0985	55.6641	85.9965	55.6641	85.9988	55.6641	85.8652	55.6641	85.877	55.6641	85.7147	55.6641	85.7402	55.6641	85.5531	55.6641	85.5956	55.6641	85.3889	55.6641	85.4512	55.6641	85.2309	55.6641	85.3158	55.6641	85.0885	55.6641	85.1981	55.6641	84.9709	55.6641	85.106	55.6641	84.8862	55.6641	85.0435	55.6641	84.8387	55.6641	85.0097	55.6641	84.8271	55.6641	84.9984	55.6641	84.8446	55.6641	85.0001	55.6641	84.8804	55.6641	85.0045	55.6641	84.9227	55.6641	85.0026	55.6641	84.9612	55.6641	84.9887
58.5938	87.1443	58.5938	87.1338	58.5938	87.1119	58.5938	87.0817	58.5938	87.0381	58.5938	86.9916	58.5938	86.9272	58.5938	86.8694	58.5938	86.7855	58.5938	86.7228	58.5938	86.6215	58.5938	86.5606	58.5938	86.4444	58.5938	86.3927	58.5938	86.2642	58.5938	86.2296	58.5938	86.0912	58.5938	86.0826	58.5938	85.9364	58.5938	85.9623	58.5938	85.8106	58.5938	85.8765	58.5938	85.7227	58.5938	85.8277	58.5938	85.6771	58.5938	85.8121	58.5938	85.6716	58.5938	85.8202	58.5938	85.6973	58.5938	85.8399	58.5938	85.7415	58.5938	85.8589	58.5938	85.7904	58.5938	85.8672	58.5938	85.8321	58.5938	85.8588
60.0586	87.4853	60.0586	87.47	60.0586	87.4553	60.0586	87.4108	60.0586	87.3817	60.0586	87.3115	60.0586	87.2687	60.0586	87.1783	60.0586	87.1233	60.0586	87.0195	60.0586	86.9539	60.0586	86.8448	60.0586	86.7705	60.0586	86.6652	60.0586	86.5837	60.0586	86.4927	60.0586	86.4047	60.0586	86.3397	60.0586	86.2451	60.0586	86.2177	60.0586	86.1164	60.0586	86.1346	60.0586	86.0278	60.0586	86.0925	60.0586	85.9836	60.0586	86.0863	60.0586	85.9811	60.0586	86.1051	60.0586	86.0105	60.0586	86.1354	60.0586	86.0581	60.0586	86.1636	60.0586	86.1091	60.0586	86.1792	60.0586	86.151	60.0586	86.1755
62.9883	88.1442	62.9883	88.1149	62.9883	88.1223	62.9883	88.036	62.9883	88.0509	62.9883	87.9117	62.9883	87.9345	62.9883	87.749	62.9883	87.7801	62.9883	87.5573	62.9883	87.597	62.9883	87.348	62.9883	87.3959	62.9883	87.1344	62.9883	87.1888	62.9883	86.9311	62.9883	86.9884	62.9883	86.7533	62.9883	86.8083	62.9883	86.6146	62.9883	86.6617	62.9883	86.5246	62.9883	86.5592	62.9883	86.4851	62.9883	86.5053	62.9883	86.4896	62.9883	86.497	62.9883	86.5247	62.9883	86.523	62.9883	86.5739	62.9883	86.5678	62.9883	86.6212	62.9883	86.6147	62.9883	86.6539	62.9883	86.6499	62.9883	86.6642
64.4531	88.4373	64.4531	88.4031	64.4531	88.417	64.4531	88.316	64.4531	88.344	64.4531	88.1804	64.4531	88.2227	64.4531	88.0035	64.4531	88.0603	64.4531	87.7951	64.4531	87.8664	64.4531	87.5669	64.4531	87.652	64.4531	87.3329	64.4531	87.4295	64.4531	87.1083	64.4531	87.2124	64.4531	86.9094	64.4531	87.0147	64.4531	86.751	64.4531	86.8506	64.4531	86.6437	64.4531	86.7313	64.4531	86.5908	64.4531	86.6622	64.4531	86.5861	64.4531	86.6405	64.4531	86.6164	64.4531	86.6554	64.4531	86.6646	64.4531	86.6907	64.4531	86.7139	64.4531	86.7297	64.4531	86.7505	64.4531	86.758	64.4531	86.7661
67.3828	88.9379	67.3828	88.9132	67.3828	88.9069	67.3828	88.8342	67.3828	88.8219	67.3828	88.706	67.3828	88.688	67.3828	88.5364	67.3828	88.5132	67.3828	88.3356	67.3828	88.3082	67.3828	88.1159	67.3828	88.0854	67.3828	87.8909	67.3828	87.8577	67.3828	87.6749	67.3828	87.6386	67.3828	87.4816	67.3828	87.4411	67.3828	87.3232	67.3828	87.2773	67.3828	87.2078	67.3828	87.1562	67.3828	87.1373	67.3828	87.0817	67.3828	87.1071	67.3828	87.051	67.3828	87.107	67.3828	87.055	67.3828	87.1238	67.3828	87.0806	67.3828	87.1445	67.3828	87.1136	67.3828	87.1581	67.3828	87.1421	67.3828	87.158
68.8477	89.139	68.8477	89.1108	68.8477	89.1115	68.8477	89.0287	68.8477	89.0302	68.8477	88.8982	68.8477	88.9004	68.8477	88.7277	68.8477	88.7307	68.8477	88.5289	68.8477	88.5325	68.8477	88.3154	68.8477	88.319	68.8477	88.1023	68.8477	88.1043	68.8477	87.9051	68.8477	87.9028	68.8477	87.7383	68.8477	87.7278	68.8477	87.6128	68.8477	87.5912	68.8477	87.5343	68.8477	87.5006	68.8477	87.5015	68.8477	87.4576	68.8477	87.5062	68.8477	87.4568	68.8477	87.5356	68.8477	87.4869	68.8477	87.5753	68.8477	87.5332	68.8477	87.6119	68.8477	87.5811	68.8477	87.6347	68.8477	87.6186	68.8477	87.6375
