"SPL Horizontal"
"On-Axis"		"10°"		"-10°"		"20°"		"-20°"		"30°"		"-30°"		"40°"		"-40°"		"50°"		"-50°"		"60°"		"-60°"		"70°"		"-70°"		"80°"		"-80°"		"90°"		"-90°"		"100°"		"-100°"		"110°"		"-110°"		"120°"		"-120°"		"130°"		"-130°"		"140°"		"-140°"		"150°"		"-150°"		"160°"		"-160°"		"170°"		"-170°"		"180°"
"Frequency / Hz"	"Sound Pressure Level / dB (re 20 µPa/V)  [2.83  V @ 1. m]"	"Frequency / Hz"	"Sound Pressure Level / dB (re 20 µPa/V)  [2.83  V @ 1. m]"	"Frequency / Hz"	"Sound Pressure Level / dB (re 20 µPa/V)  [2.83  V @ 1. m]"	"Frequency / Hz"	"Sound Pressure Level / dB (re 20 µPa/V)  [2.83  V @ 1. m]"	"Frequency / Hz"	"Sound Pressure Level / dB (re 20 µPa/V)  [2.83  V @ 1. m]"	"Frequency / Hz"	"Sound Pressure Level / dB (re 20 µPa/V)  [2.83  V @ 1. m]"	"Frequency / Hz"	"Sound Pressure Level / dB (re 20 µPa/V)  [2.83  V @ 1. m]"	"Frequency / Hz"	"Sound Pressure Level / dB (re 20 µPa/V)  [2.83  V @ 1. m]"	"Frequency / Hz"	"Sound Pressure Level / dB (re 20 µPa/V)  [2.83  V @ 1. m]"	"Frequency / Hz"	"Sound Pressure Level / dB (re 20 µPa/V)  [2.83  V @ 1. m]"	"Frequency / Hz"	"Sound Pressure Level / dB (re 20 µPa/V)  [2.83  V @ 1. m]"	"Frequency / Hz"	"Sound Pressure Level / dB (re 20 µPa/V)  [2.83  V @ 1. m]"	"Frequency / Hz"	"Sound Pressure Level / dB (re 20 µPa/V)  [2.83  V @ 1. m]"	"Frequency / Hz"	"Sound Pressure Level / dB (re 20 µPa/V)  [2.83  V @ 1. m]"	"Frequency / Hz"	"Sound Pressure Level / dB (re 20 µPa/V)  [2.83  V @ 1. m]"	"Frequency / Hz"	"Sound Pressure Level / dB (re 20 µPa/V)  [2.83  V @ 1. m]"	"Frequency / Hz"	"Sound Pressure Level / dB (re 20 µPa/V)  [2.83  V @ 1. m]"	"Frequency / Hz"	"Sound Pressure Level / dB (re 20 µPa/V)  [2.83  V @ 1. m]"	"Frequency / Hz"	"Sound Pressure Level / dB (re 20 µPa/V)  [2.83  V @ 1. m]"	"Frequency / Hz"	"Sound Pressure Level / dB (re 20 µPa/V)  [2.83  V @ 1. m]"	"Frequency / Hz"	"Sound Pressure Level / dB (re 20 µPa/V)  [2.83  V @ 1. m]"	"Frequency / Hz"	"Sound Pressure Level / dB (re 20 µPa/V)  [2.83  V @ 1. m]"	"Frequency / Hz"	"Sound Pressure Level / dB (re 20 µPa/V)  [2.83  V @ 1. m]"	"Frequency / Hz"	"Sound Pressure Level / dB (re 20 µPa/V)  [2.83  V @ 1. m]"	"Frequency / Hz"	"Sound Pressure Level / dB (re 20 µPa/V)  [2.83  V @ 1. m]"	"Frequency / Hz"	"Sound Pressure Level / dB (re 20 µPa/V)  [2.83  V @ 1. m]"	"Frequency / Hz"	"Sound Pressure Level / dB (re 20 µPa/V)  [2.83  V @ 1. m]"	"Frequency / Hz"	"Sound Pressure Level / dB (re 20 µPa/V)  [2.83  V @ 1. m]"	"Frequency / Hz"	"Sound Pressure Level / dB (re 20 µPa/V)  [2.83  V @ 1. m]"	"Frequency / Hz"	"Sound Pressure Level / dB (re 20 µPa/V)  [2.83  V @ 1. m]"	"Frequency / Hz"	"Sound Pressure Level / dB (re 20 µPa/V)  [2.83  V @ 1. m]"	"Frequency / Hz"	"Sound Pressure Level / dB (re 20 µPa/V)  [2.83  V @ 1. m]"	"Frequency / Hz"	"Sound Pressure Level / dB (re 20 µPa/V)  [2.83  V @ 1. m]"	"Frequency / Hz"	"Sound Pressure Level / dB (re 20 µPa/V)  [2.83  V @ 1. m]"	"Frequency / Hz"	"Sound Pressure Level / dB (re 20 µPa/V)  [2.83  V @ 1. m]"	"Frequency / Hz"	"Sound Pressure Level / dB (re 20 µPa/V)  [2.83  V @ 1. m]"
20.1416	49.1495	20.1416	49.1689	20.1416	49.1154	20.1416	49.1777	20.1416	49.0653	20.1416	49.1824	20.1416	49.0012	20.1416	49.1908	20.1416	48.9275	20.1416	49.2103	20.1416	48.8515	20.1416	49.2464	20.1416	48.7825	20.1416	49.3023	20.1416	48.7331	20.1416	49.3793	20.1416	48.7188	20.1416	49.4771	20.1416	48.758	20.1416	49.5935	20.1416	48.8697	20.1416	49.7234	20.1416	49.068	20.1416	49.8622	20.1416	49.355	20.1416	50.0096	20.1416	49.7131	20.1416	50.1726	20.1416	50.1013	20.1416	50.3579	20.1416	50.4611	20.1416	50.5591	20.1416	50.7315	20.1416	50.7451	20.1416	50.8696	20.1416	50.8653
20.5078	41.2469	20.5078	41.2798	20.5078	41.1927	20.5078	41.3044	20.5078	41.1111	20.5078	41.3378	20.5078	41.0051	20.5078	41.3971	20.5078	40.8882	20.5078	41.4946	20.5078	40.7837	20.5078	41.6349	20.5078	40.7233	20.5078	41.8167	20.5078	40.7452	20.5078	42.0376	20.5078	40.891	20.5078	42.2968	20.5078	41.1968	20.5078	42.5932	20.5078	41.6766	20.5078	42.9228	20.5078	42.3106	20.5078	43.2801	20.5078	43.0483	20.5078	43.6645	20.5078	43.8195	20.5078	44.08	20.5078	44.5453	20.5078	44.5254	20.5078	45.1456	20.5078	44.9765	20.5078	45.5515	20.5078	45.3769	20.5078	45.7203	20.5078	45.6488
21.2402	49.5505	21.2402	49.3825	21.2402	49.6983	21.2402	49.1959	21.2402	49.8246	21.2402	48.9917	21.2402	49.9288	21.2402	48.7691	21.2402	50.0113	21.2402	48.5253	21.2402	50.0735	21.2402	48.2559	21.2402	50.1174	21.2402	47.957	21.2402	50.1433	21.2402	47.6281	21.2402	50.1471	21.2402	47.2745	21.2402	50.1174	21.2402	46.909	21.2402	50.0359	21.2402	46.5519	21.2402	49.8814	21.2402	46.2308	21.2402	49.6362	21.2402	45.9787	21.2402	49.2922	21.2402	45.8317	21.2402	48.8546	21.2402	45.8223	21.2402	48.3423	21.2402	45.9702	21.2402	47.786	21.2402	46.2729	21.2402	47.2251	21.2402	46.705
21.9727	48.6967	21.9727	48.2849	21.9727	49.1054	21.9727	47.875	21.9727	49.5081	21.9727	47.4733	21.9727	49.9038	21.9727	47.0858	21.9727	50.2923	21.9727	46.7172	21.9727	50.6729	21.9727	46.3707	21.9727	51.044	21.9727	46.0505	21.9727	51.4016	21.9727	45.7647	21.9727	51.738	21.9727	45.5278	21.9727	52.0389	21.9727	45.3612	21.9727	52.2811	21.9727	45.292	21.9727	52.4339	21.9727	45.3496	21.9727	52.4629	21.9727	45.5636	21.9727	52.3364	21.9727	45.959	21.9727	52.0324	21.9727	46.5464	21.9727	51.5424	21.9727	47.3103	21.9727	50.8752	21.9727	48.2015	21.9727	50.0595	21.9727	49.1449
22.7051	34.7559	22.7051	35.6357	22.7051	33.7297	22.7051	36.4	22.7051	32.4948	22.7051	37.0629	22.7051	30.9354	22.7051	37.6322	22.7051	28.8381	22.7051	38.1149	22.7051	25.7711	22.7051	38.5188	22.7051	20.6364	22.7051	38.8519	22.7051	12.8235	22.7051	39.1201	22.7051	20.6312	22.7051	39.3263	22.7051	26.1244	22.7051	39.4674	22.7051	29.3899	22.7051	39.5318	22.7051	31.4806	22.7051	39.4958	22.7051	32.7234	22.7051	39.3202	22.7051	33.2176	22.7051	38.9493	22.7051	33.0205	22.7051	38.3115	22.7051	32.3408	22.7051	37.3272	22.7051	31.8607	22.7051	35.9355	22.7051	32.5323	22.7051	34.1918
23.8037	53.8599	23.8037	53.6992	23.8037	54.0576	23.8037	53.5792	23.8037	54.2852	23.8037	53.5007	23.8037	54.5322	23.8037	53.4624	23.8037	54.7856	23.8037	53.4619	23.8037	55.032	23.8037	53.4953	23.8037	55.2586	23.8037	53.5586	23.8037	55.4538	23.8037	53.6484	23.8037	55.6075	23.8037	53.7623	23.8037	55.7114	23.8037	53.8987	23.8037	55.7597	23.8037	54.0563	23.8037	55.7502	23.8037	54.2333	23.8037	55.6878	23.8037	54.4251	23.8037	55.5872	23.8037	54.6225	23.8037	55.4722	23.8037	54.8113	23.8037	55.3688	23.8037	54.9741	23.8037	55.2921	23.8037	55.0978	23.8037	55.2368	23.8037	55.1805
24.5361	46.7689	24.5361	46.5642	24.5361	47.0197	24.5361	46.415	24.5361	47.3017	24.5361	46.3256	24.5361	47.5954	24.5361	46.2964	24.5361	47.8804	24.5361	46.3266	24.5361	48.1378	24.5361	46.4146	24.5361	48.3529	24.5361	46.5579	24.5361	48.5178	24.5361	46.7531	24.5361	48.6316	24.5361	46.9949	24.5361	48.6997	24.5361	47.2762	24.5361	48.7308	24.5361	47.5866	24.5361	48.7345	24.5361	47.9105	24.5361	48.7205	24.5361	48.2262	24.5361	48.7013	24.5361	48.5069	24.5361	48.6932	24.5361	48.7264	24.5361	48.7127	24.5361	48.8658	24.5361	48.7654	24.5361	48.9203	24.5361	48.8386	24.5361	48.902
25.2686	32.6511	25.2686	32.9737	25.2686	32.5828	25.2686	33.4993	25.2686	32.7798	25.2686	34.1604	25.2686	33.2098	25.2686	34.895	25.2686	33.8169	25.2686	35.6576	25.2686	34.5446	25.2686	36.4202	25.2686	35.3442	25.2686	37.1683	25.2686	36.1707	25.2686	37.8946	25.2686	36.9769	25.2686	38.5909	25.2686	37.7115	25.2686	39.2401	25.2686	38.325	25.2686	39.8097	25.2686	38.7784	25.2686	40.2518	25.2686	39.0513	25.2686	40.5114	25.2686	39.146	25.2686	40.5427	25.2686	39.0901	25.2686	40.3315	25.2686	38.9419	25.2686	39.9194	25.2686	38.7978	25.2686	39.4193	25.2686	38.7834	25.2686	38.9957
26.3672	28.3006	26.3672	28.9618	26.3672	27.9199	26.3672	29.8109	26.3672	27.8918	26.3672	30.7536	26.3672	28.2609	26.3672	31.7112	26.3672	29.0336	26.3672	32.6277	26.3672	30.1543	26.3672	33.4669	26.3672	31.4988	26.3672	34.2059	26.3672	32.9137	26.3672	34.8279	26.3672	34.2673	26.3672	35.3192	26.3672	35.472	26.3672	35.6714	26.3672	36.4804	26.3672	35.8889	26.3672	37.2726	26.3672	35.9975	26.3672	37.8454	26.3672	36.0482	26.3672	38.2053	26.3672	36.1095	26.3672	38.3633	26.3672	36.2487	26.3672	38.3316	26.3672	36.5085	26.3672	38.1261	26.3672	36.8879	26.3672	37.7763	26.3672	37.3373
27.0996	39.1741	27.0996	39.0902	27.0996	39.3185	27.0996	39.0609	27.0996	39.5311	27.0996	39.0832	27.0996	39.8191	27.0996	39.1561	27.0996	40.1849	27.0996	39.2795	27.0996	40.6231	27.0996	39.4536	27.0996	41.1188	27.0996	39.6789	27.0996	41.6479	27.0996	39.9576	27.0996	42.1818	27.0996	40.2919	27.0996	42.6925	27.0996	40.6802	27.0996	43.1572	27.0996	41.1105	27.0996	43.5594	27.0996	41.5578	27.0996	43.8862	27.0996	41.9897	27.0996	44.1243	27.0996	42.381	27.0996	44.2581	27.0996	42.7269	27.0996	44.2737	27.0996	43.045	27.0996	44.1672	27.0996	43.3582	27.0996	43.954	27.0996	43.6701
28.1982	41.0523	28.1982	41.3563	28.1982	40.7187	28.1982	41.6176	28.1982	40.3764	28.1982	41.8306	28.1982	40.054	28.1982	41.9958	28.1982	39.7849	28.1982	42.1168	28.1982	39.6024	28.1982	42.1971	28.1982	39.5322	28.1982	42.2374	28.1982	39.5882	28.1982	42.2342	28.1982	39.7762	28.1982	42.181	28.1982	40.0988	28.1982	42.0735	28.1982	40.5502	28.1982	41.9159	28.1982	41.0999	28.1982	41.73	28.1982	41.6864	28.1982	41.5624	28.1982	42.2334	28.1982	41.4837	28.1982	42.6715	28.1982	41.566	28.1982	42.9494	28.1982	41.8335	28.1982	43.0356	28.1982	42.2267	28.1982	42.9203	28.1982	42.6272
29.2969	34.2775	29.2969	34.3919	29.2969	34.2787	29.2969	34.5754	29.2969	34.4562	29.2969	34.8017	29.2969	34.8574	29.2969	35.0588	29.2969	35.4771	29.2969	35.3442	29.2969	36.2416	29.2969	35.6607	29.2969	37.0381	29.2969	36.015	29.2969	37.7628	29.2969	36.4149	29.2969	38.3522	29.2969	36.8663	29.2969	38.7906	29.2969	37.3697	29.2969	39.0998	29.2969	37.9164	29.2969	39.3189	29.2969	38.4846	29.2969	39.4859	29.2969	39.0392	29.2969	39.6308	29.2969	39.5372	29.2969	39.7764	29.2969	39.9376	29.2969	39.9366	29.2969	40.2113	29.2969	40.1071	29.2969	40.3474	29.2969	40.2606	29.2969	40.3545
30.0293	39.5068	30.0293	39.0041	30.0293	39.9535	30.0293	38.5251	30.0293	40.287	30.0293	38.168	30.0293	40.4669	30.0293	38.0242	30.0293	40.4645	30.0293	38.136	30.0293	40.2603	30.0293	38.4735	30.0293	39.8474	30.0293	38.9574	30.0293	39.2438	30.0293	39.5037	30.0293	38.5194	30.0293	40.053	30.0293	37.835	30.0293	40.5735	30.0293	37.4402	30.0293	41.0518	30.0293	37.5347	30.0293	41.4805	30.0293	38.0847	30.0293	41.8506	30.0293	38.8781	30.0293	42.1474	30.0293	39.7208	30.0293	42.3497	30.0293	40.508	30.0293	42.4317	30.0293	41.1918	30.0293	42.3674	30.0293	41.743	30.0293	42.139
31.1279	51.5629	31.1279	51.2335	31.1279	51.9114	31.1279	50.9468	31.1279	52.2565	31.1279	50.7242	31.1279	52.5784	31.1279	50.5822	31.1279	52.8617	31.1279	50.5302	31.1279	53.0961	31.1279	50.569	31.1279	53.2772	31.1279	50.6919	31.1279	53.4048	31.1279	50.8866	31.1279	53.4819	31.1279	51.1368	31.1279	53.5125	31.1279	51.424	31.1279	53.5014	31.1279	51.7279	31.1279	53.4551	31.1279	52.0279	31.1279	53.384	31.1279	52.3046	31.1279	53.3027	31.1279	52.5429	31.1279	53.2259	31.1279	52.734	31.1279	53.164	31.1279	52.8762	31.1279	53.1182	31.1279	52.9741	31.1279	53.0807	31.1279	53.0378
32.2266	52.2467	32.2266	52.1371	32.2266	52.397	32.2266	52.0796	32.2266	52.5741	32.2266	52.0815	32.2266	52.7643	32.2266	52.1449	32.2266	52.9554	32.2266	52.2672	32.2266	53.1382	32.2266	52.4419	32.2266	53.3065	32.2266	52.66	32.2266	53.4567	32.2266	52.9104	32.2266	53.5863	32.2266	53.1806	32.2266	53.6936	32.2266	53.4566	32.2266	53.7771	32.2266	53.7231	32.2266	53.8374	32.2266	53.9637	32.2266	53.8791	32.2266	54.1624	32.2266	53.9119	32.2266	54.3052	32.2266	53.9491	32.2266	54.3838	32.2266	54.0031	32.2266	54.3976	32.2266	54.0799	32.2266	54.3553	32.2266	54.1751	32.2266	54.2739
33.3252	54.2416	33.3252	53.978	33.3252	54.5417	33.3252	53.7624	33.3252	54.865	33.3252	53.6025	33.3252	55.1971	33.3252	53.5018	33.3252	55.5248	33.3252	53.4602	33.3252	55.8365	33.3252	53.4749	33.3252	56.122	33.3252	53.5423	33.3252	56.3731	33.3252	53.6584	33.3252	56.5824	33.3252	53.8195	33.3252	56.7433	33.3252	54.0212	33.3252	56.8504	33.3252	54.2575	33.3252	56.9002	33.3252	54.5198	33.3252	56.8927	33.3252	54.7968	33.3252	56.832	33.3252	55.0757	33.3252	56.7267	33.3252	55.3453	33.3252	56.5871	33.3252	55.598	33.3252	56.4232	33.3252	55.8307	33.3252	56.2415	33.3252	56.0444
34.79	53	34.79	53.0478	34.79	53.0214	34.79	53.163	34.79	53.1078	34.79	53.338	34.79	53.2511	34.79	53.5602	34.79	53.4411	34.79	53.8149	34.79	53.6675	34.79	54.0879	34.79	53.9204	34.79	54.3672	34.79	54.1912	34.79	54.6443	34.79	54.4715	34.79	54.9138	34.79	54.7531	34.79	55.1724	34.79	55.0274	34.79	55.4166	34.79	55.286	34.79	55.6421	34.79	55.5211	34.79	55.8425	34.79	55.7267	34.79	56.0107	34.79	55.8996	34.79	56.1398	34.79	56.0395	34.79	56.2252	34.79	56.1472	34.79	56.2658	34.79	56.2226	34.79	56.2635
35.8887	56.552	35.8887	56.3467	35.8887	56.7749	35.8887	56.1735	35.8887	57.0001	35.8887	56.0447	35.8887	57.2135	35.8887	55.9682	35.8887	57.4028	35.8887	55.946	35.8887	57.5585	35.8887	55.9739	35.8887	57.6735	35.8887	56.0421	35.8887	57.7438	35.8887	56.1367	35.8887	57.7673	35.8887	56.2422	35.8887	57.7437	35.8887	56.3437	35.8887	57.6744	35.8887	56.4286	35.8887	57.5624	35.8887	56.4878	35.8887	57.413	35.8887	56.5165	35.8887	57.2346	35.8887	56.5152	35.8887	57.0398	35.8887	56.4913	35.8887	56.8459	35.8887	56.4605	35.8887	56.6736	35.8887	56.4448	35.8887	56.5432	35.8887	56.4673
36.9873	58.7869	36.9873	58.6133	36.9873	58.9754	36.9873	58.4604	36.9873	59.171	36.9873	58.332	36.9873	59.3647	36.9873	58.229	36.9873	59.5479	36.9873	58.1504	36.9873	59.7125	36.9873	58.0938	36.9873	59.8518	36.9873	58.056	36.9873	59.9602	36.9873	58.0335	36.9873	60.0337	36.9873	58.0232	36.9873	60.0686	36.9873	58.0229	36.9873	60.0624	36.9873	58.0325	36.9873	60.0132	36.9873	58.0542	36.9873	59.9209	36.9873	58.0932	36.9873	59.7872	36.9873	58.1568	36.9873	59.617	36.9873	58.2522	36.9873	59.4176	36.9873	58.3846	36.9873	59.1988	36.9873	58.5536	36.9873	58.9729	36.9873	58.7534
38.4521	62.5339	38.4521	62.3873	38.4521	62.6962	38.4521	62.2625	38.4521	62.8668	38.4521	62.1642	38.4521	63.038	38.4521	62.095	38.4521	63.2026	38.4521	62.0554	38.4521	63.3545	38.4521	62.0445	38.4521	63.4886	38.4521	62.0603	38.4521	63.6015	38.4521	62.0997	38.4521	63.6907	38.4521	62.1596	38.4521	63.7547	38.4521	62.2369	38.4521	63.793	38.4521	62.3289	38.4521	63.8052	38.4521	62.4335	38.4521	63.7918	38.4521	62.5492	38.4521	63.7533	38.4521	62.6753	38.4521	63.6908	38.4521	62.8105	38.4521	63.6059	38.4521	62.9527	38.4521	63.5006	38.4521	63.0983	38.4521	63.3779	38.4521	63.242
39.917	64.6503	39.917	64.5283	39.917	64.7787	39.917	64.4185	39.917	64.907	39.917	64.3254	39.917	65.0286	39.917	64.2518	39.917	65.1375	39.917	64.1994	39.917	65.2286	39.917	64.1681	39.917	65.2985	39.917	64.1572	39.917	65.3453	39.917	64.165	39.917	65.3686	39.917	64.1896	39.917	65.3702	39.917	64.2284	39.917	65.3528	39.917	64.279	39.917	65.3197	39.917	64.3393	39.917	65.2737	39.917	64.4074	39.917	65.2171	39.917	64.4821	39.917	65.151	39.917	64.5621	39.917	65.0768	39.917	64.6464	39.917	64.9959	39.917	64.7336	39.917	64.9103	39.917	64.8222
41.3818	68.294	41.3818	68.2152	41.3818	68.3623	41.3818	68.1302	41.3818	68.4154	41.3818	68.0431	41.3818	68.4493	41.3818	67.9569	41.3818	68.461	41.3818	67.8736	41.3818	68.4483	41.3818	67.7935	41.3818	68.41	41.3818	67.7163	41.3818	68.3461	41.3818	67.6411	41.3818	68.2576	41.3818	67.5672	41.3818	68.1474	41.3818	67.4947	41.3818	68.0203	41.3818	67.425	41.3818	67.8831	41.3818	67.3602	41.3818	67.7441	41.3818	67.3032	41.3818	67.612	41.3818	67.257	41.3818	67.494	41.3818	67.224	41.3818	67.3947	41.3818	67.2063	41.3818	67.3164	41.3818	67.2055	41.3818	67.2593	41.3818	67.2227
42.8467	70.5125	42.8467	70.4436	42.8467	70.5843	42.8467	70.3788	42.8467	70.6567	42.8467	70.3184	42.8467	70.7267	42.8467	70.2622	42.8467	70.7907	42.8467	70.2094	42.8467	70.8442	42.8467	70.1594	42.8467	70.8827	42.8467	70.1117	42.8467	70.9016	42.8467	70.0667	42.8467	70.8974	42.8467	70.0259	42.8467	70.8679	42.8467	69.9911	42.8467	70.8127	42.8467	69.9649	42.8467	70.7342	42.8467	69.9492	42.8467	70.6372	42.8467	69.9448	42.8467	70.5285	42.8467	69.9512	42.8467	70.4165	42.8467	69.9673	42.8467	70.3096	42.8467	69.9923	42.8467	70.2147	42.8467	70.0271	42.8467	70.1359	42.8467	70.074
44.3115	72.2338	44.3115	72.1261	44.3115	72.339	44.3115	72.0195	44.3115	72.4379	44.3115	71.9174	44.3115	72.527	44.3115	71.8229	44.3115	72.6027	44.3115	71.7379	44.3115	72.6619	44.3115	71.6639	44.3115	72.7015	44.3115	71.6016	44.3115	72.7189	44.3115	71.5514	44.3115	72.7122	44.3115	71.5133	44.3115	72.6802	44.3115	71.4877	44.3115	72.6233	44.3115	71.4749	44.3115	72.5434	44.3115	71.4754	44.3115	72.4437	44.3115	71.4894	44.3115	72.3294	44.3115	71.5168	44.3115	72.2065	44.3115	71.5572	44.3115	72.0819	44.3115	71.6105	44.3115	71.9624	44.3115	71.6771	44.3115	71.8533	44.3115	71.7579
45.7764	74.1858	45.7764	74.1066	45.7764	74.26	45.7764	74.0251	45.7764	74.3265	45.7764	73.9435	45.7764	74.3825	45.7764	73.8639	45.7764	74.4252	45.7764	73.788	45.7764	74.4519	45.7764	73.7171	45.7764	74.4604	45.7764	73.6522	45.7764	74.4487	45.7764	73.5943	45.7764	74.4162	45.7764	73.5443	45.7764	74.3631	45.7764	73.5029	45.7764	74.291	45.7764	73.4708	45.7764	74.2029	45.7764	73.4484	45.7764	74.103	45.7764	73.4361	45.7764	73.9962	45.7764	73.4341	45.7764	73.8883	45.7764	73.4429	45.7764	73.7849	45.7764	73.4635	45.7764	73.6911	45.7764	73.4973	45.7764	73.6108	45.7764	73.5461
47.2412	76.0479	47.2412	75.9797	47.2412	76.1148	47.2412	75.9124	47.2412	76.1777	47.2412	75.8472	47.2412	76.2335	47.2412	75.785	47.2412	76.2789	47.2412	75.726	47.2412	76.3107	47.2412	75.6699	47.2412	76.3259	47.2412	75.6163	47.2412	76.3222	47.2412	75.5649	47.2412	76.298	47.2412	75.5159	47.2412	76.2532	47.2412	75.4698	47.2412	76.1887	47.2412	75.4276	47.2412	76.1067	47.2412	75.391	47.2412	76.0107	47.2412	75.3621	47.2412	75.9051	47.2412	75.3437	47.2412	75.7953	47.2412	75.3385	47.2412	75.6872	47.2412	75.3496	47.2412	75.5867	47.2412	75.3795	47.2412	75.4995	47.2412	75.4296
49.0723	78.2511	49.0723	78.1601	49.0723	78.3302	49.0723	78.061	49.0723	78.3942	49.0723	77.9577	49.0723	78.4402	49.0723	77.8541	49.0723	78.4659	49.0723	77.754	49.0723	78.4696	49.0723	77.6606	49.0723	78.4508	49.0723	77.5766	49.0723	78.4096	49.0723	77.504	49.0723	78.3473	49.0723	77.4437	49.0723	78.2662	49.0723	77.396	49.0723	78.1699	49.0723	77.3604	49.0723	78.0628	49.0723	77.3363	49.0723	77.9501	49.0723	77.323	49.0723	77.8374	49.0723	77.3202	49.0723	77.73	49.0723	77.3278	49.0723	77.6323	49.0723	77.3464	49.0723	77.5472	49.0723	77.3767	49.0723	77.4763	49.0723	77.4197
50.9033	80.3768	50.9033	80.3083	50.9033	80.4305	50.9033	80.2269	50.9033	80.4676	50.9033	80.1352	50.9033	80.4866	50.9033	80.0356	50.9033	80.4865	50.9033	79.931	50.9033	80.4667	50.9033	79.8241	50.9033	80.4273	50.9033	79.718	50.9033	80.3687	50.9033	79.6158	50.9033	80.2923	50.9033	79.5207	50.9033	80.2001	50.9033	79.4358	50.9033	80.0951	50.9033	79.3637	50.9033	79.9811	50.9033	79.3068	50.9033	79.8626	50.9033	79.2661	50.9033	79.7448	50.9033	79.2421	50.9033	79.6324	50.9033	79.2345	50.9033	79.5299	50.9033	79.2431	50.9033	79.4405	50.9033	79.2678	50.9033	79.3665	50.9033	79.3088
52.7344	82.5323	52.7344	82.4813	52.7344	82.5711	52.7344	82.4198	52.7344	82.5963	52.7344	82.3498	52.7344	82.6067	52.7344	82.2733	52.7344	82.6018	52.7344	82.1927	52.7344	82.5813	52.7344	82.1103	52.7344	82.5454	52.7344	82.0285	52.7344	82.4948	52.7344	81.9498	52.7344	82.4307	52.7344	81.8766	52.7344	82.3549	52.7344	81.8111	52.7344	82.2699	52.7344	81.7552	52.7344	82.1787	52.7344	81.7098	52.7344	82.0852	52.7344	81.6753	52.7344	81.9934	52.7344	81.6516	52.7344	81.9074	52.7344	81.6389	52.7344	81.8303	52.7344	81.6378	52.7344	81.7648	52.7344	81.6491	52.7344	81.7124	52.7344	81.6738
