"SPL Horizontal"
"On-Axis"		"10°"		"-10°"		"20°"		"-20°"		"30°"		"-30°"		"40°"		"-40°"		"50°"		"-50°"		"60°"		"-60°"		"70°"		"-70°"		"80°"		"-80°"		"90°"		"-90°"		"100°"		"-100°"		"110°"		"-110°"		"120°"		"-120°"		"130°"		"-130°"		"140°"		"-140°"		"150°"		"-150°"		"160°"		"-160°"		"170°"		"-170°"		"180°"
"Frequency / Hz"	"Sound Pressure Level / dB (re 20 µPa/V)  [2.83  V @ 1. m]"	"Frequency / Hz"	"Sound Pressure Level / dB (re 20 µPa/V)  [2.83  V @ 1. m]"	"Frequency / Hz"	"Sound Pressure Level / dB (re 20 µPa/V)  [2.83  V @ 1. m]"	"Frequency / Hz"	"Sound Pressure Level / dB (re 20 µPa/V)  [2.83  V @ 1. m]"	"Frequency / Hz"	"Sound Pressure Level / dB (re 20 µPa/V)  [2.83  V @ 1. m]"	"Frequency / Hz"	"Sound Pressure Level / dB (re 20 µPa/V)  [2.83  V @ 1. m]"	"Frequency / Hz"	"Sound Pressure Level / dB (re 20 µPa/V)  [2.83  V @ 1. m]"	"Frequency / Hz"	"Sound Pressure Level / dB (re 20 µPa/V)  [2.83  V @ 1. m]"	"Frequency / Hz"	"Sound Pressure Level / dB (re 20 µPa/V)  [2.83  V @ 1. m]"	"Frequency / Hz"	"Sound Pressure Level / dB (re 20 µPa/V)  [2.83  V @ 1. m]"	"Frequency / Hz"	"Sound Pressure Level / dB (re 20 µPa/V)  [2.83  V @ 1. m]"	"Frequency / Hz"	"Sound Pressure Level / dB (re 20 µPa/V)  [2.83  V @ 1. m]"	"Frequency / Hz"	"Sound Pressure Level / dB (re 20 µPa/V)  [2.83  V @ 1. m]"	"Frequency / Hz"	"Sound Pressure Level / dB (re 20 µPa/V)  [2.83  V @ 1. m]"	"Frequency / Hz"	"Sound Pressure Level / dB (re 20 µPa/V)  [2.83  V @ 1. m]"	"Frequency / Hz"	"Sound Pressure Level / dB (re 20 µPa/V)  [2.83  V @ 1. m]"	"Frequency / Hz"	"Sound Pressure Level / dB (re 20 µPa/V)  [2.83  V @ 1. m]"	"Frequency / Hz"	"Sound Pressure Level / dB (re 20 µPa/V)  [2.83  V @ 1. m]"	"Frequency / Hz"	"Sound Pressure Level / dB (re 20 µPa/V)  [2.83  V @ 1. m]"	"Frequency / Hz"	"Sound Pressure Level / dB (re 20 µPa/V)  [2.83  V @ 1. m]"	"Frequency / Hz"	"Sound Pressure Level / dB (re 20 µPa/V)  [2.83  V @ 1. m]"	"Frequency / Hz"	"Sound Pressure Level / dB (re 20 µPa/V)  [2.83  V @ 1. m]"	"Frequency / Hz"	"Sound Pressure Level / dB (re 20 µPa/V)  [2.83  V @ 1. m]"	"Frequency / Hz"	"Sound Pressure Level / dB (re 20 µPa/V)  [2.83  V @ 1. m]"	"Frequency / Hz"	"Sound Pressure Level / dB (re 20 µPa/V)  [2.83  V @ 1. m]"	"Frequency / Hz"	"Sound Pressure Level / dB (re 20 µPa/V)  [2.83  V @ 1. m]"	"Frequency / Hz"	"Sound Pressure Level / dB (re 20 µPa/V)  [2.83  V @ 1. m]"	"Frequency / Hz"	"Sound Pressure Level / dB (re 20 µPa/V)  [2.83  V @ 1. m]"	"Frequency / Hz"	"Sound Pressure Level / dB (re 20 µPa/V)  [2.83  V @ 1. m]"	"Frequency / Hz"	"Sound Pressure Level / dB (re 20 µPa/V)  [2.83  V @ 1. m]"	"Frequency / Hz"	"Sound Pressure Level / dB (re 20 µPa/V)  [2.83  V @ 1. m]"	"Frequency / Hz"	"Sound Pressure Level / dB (re 20 µPa/V)  [2.83  V @ 1. m]"	"Frequency / Hz"	"Sound Pressure Level / dB (re 20 µPa/V)  [2.83  V @ 1. m]"	"Frequency / Hz"	"Sound Pressure Level / dB (re 20 µPa/V)  [2.83  V @ 1. m]"	"Frequency / Hz"	"Sound Pressure Level / dB (re 20 µPa/V)  [2.83  V @ 1. m]"	"Frequency / Hz"	"Sound Pressure Level / dB (re 20 µPa/V)  [2.83  V @ 1. m]"
20.5078	58.9748	20.5078	59.1033	20.5078	58.7016	20.5078	59.0882	20.5078	58.2773	20.5078	58.9254	20.5078	57.6884	20.5078	58.6082	20.5078	56.9129	20.5078	58.1293	20.5078	55.919	20.5078	57.4865	20.5078	54.6627	20.5078	56.6906	20.5078	53.092	20.5078	55.7805	20.5078	51.1761	20.5078	54.8461	20.5078	49.0508	20.5078	54.0467	20.5078	47.4607	20.5078	53.5825	20.5078	47.6909	20.5078	53.5774	20.5078	49.4388	20.5078	53.9696	20.5078	51.4036	20.5078	54.5641	20.5078	53.0476	20.5078	55.1663	20.5078	54.2932	20.5078	55.6442	20.5078	55.1686	20.5078	55.9213	20.5078	55.7117	20.5078	55.9537
21.9727	51.503	21.9727	51.6787	21.9727	50.9852	21.9727	51.5131	21.9727	50.086	21.9727	50.968	21.9727	48.7183	21.9727	49.9541	21.9727	46.7313	21.9727	48.2993	21.9727	43.9806	21.9727	45.6919	21.9727	41.3505	21.9727	41.8651	21.9727	42.7485	21.9727	40.4956	21.9727	46.6462	21.9727	45.1685	21.9727	50.0242	21.9727	49.3808	21.9727	52.6701	21.9727	52.4532	21.9727	54.7629	21.9727	54.7631	21.9727	56.4354	21.9727	56.5419	21.9727	57.7675	21.9727	57.9158	21.9727	58.806	21.9727	58.9551	21.9727	59.5772	21.9727	59.7004	21.9727	60.0957	21.9727	60.176	21.9727	60.3681	21.9727	60.3959
23.4375	56.6131	23.4375	56.6414	23.4375	56.3873	23.4375	56.4748	23.4375	55.9602	23.4375	56.1179	23.4375	55.33	23.4375	55.5851	23.4375	54.5094	23.4375	54.9188	23.4375	53.5614	23.4375	54.2239	23.4375	52.676	23.4375	53.7114	23.4375	52.2435	23.4375	53.6736	23.4375	52.6676	23.4375	54.2861	23.4375	53.8996	23.4375	55.4214	23.4375	55.4998	23.4375	56.786	23.4375	57.1028	23.4375	58.1439	23.4375	58.5401	23.4375	59.3686	23.4375	59.756	23.4375	60.4045	23.4375	60.7386	23.4375	61.2293	23.4375	61.4888	23.4375	61.8342	23.4375	62.0099	23.4375	62.2157	23.4375	62.304	23.4375	62.3725
24.9023	58.9034	24.9023	58.9817	24.9023	58.6066	24.9023	58.8431	24.9023	58.0798	24.9023	58.4804	24.9023	57.3013	24.9023	57.879	24.9023	56.2434	24.9023	57.0243	24.9023	54.8911	24.9023	55.924	24.9023	53.323	24.9023	54.6811	24.9023	51.9606	24.9023	53.6591	24.9023	51.7741	24.9023	53.5411	24.9023	53.1851	24.9023	54.6412	24.9023	55.2951	24.9023	56.4004	24.9023	57.3384	24.9023	58.2005	24.9023	59.0806	24.9023	59.7757	24.9023	60.4961	24.9023	61.0591	24.9023	61.6064	24.9023	62.0485	24.9023	62.4363	24.9023	62.7572	24.9023	63.0033	24.9023	63.1987	24.9023	63.3178	24.9023	63.3835
26.3672	60.9431	26.3672	60.9647	26.3672	60.7428	26.3672	60.8074	26.3672	60.3629	26.3672	60.4704	26.3672	59.8032	26.3672	59.9572	26.3672	59.0729	26.3672	59.2876	26.3672	58.2116	26.3672	58.5219	26.3672	57.3349	26.3672	57.8042	26.3672	56.6945	26.3672	57.3923	26.3672	56.6421	26.3672	57.5618	26.3672	57.3458	26.3672	58.3615	26.3672	58.5862	26.3672	59.5552	26.3672	60.0047	26.3672	60.8531	26.3672	61.36	26.3672	62.0685	26.3672	62.5422	26.3672	63.1126	26.3672	63.511	26.3672	63.9491	26.3672	64.2544	26.3672	64.565	26.3672	64.7703	26.3672	64.9559	26.3672	65.0588	26.3672	65.1206
27.832	62.4896	27.832	62.5548	27.832	62.234	27.832	62.4346	27.832	61.7782	27.832	62.1313	27.832	61.109	27.832	61.6483	27.832	60.2151	27.832	60.9995	27.832	59.1065	27.832	60.2301	27.832	57.8711	27.832	59.4542	27.832	56.8019	27.832	58.8959	27.832	56.4692	27.832	58.8449	27.832	57.2508	27.832	59.4377	27.832	58.7817	27.832	60.5071	27.832	60.4785	27.832	61.7568	27.832	62.0309	27.832	62.9664	27.832	63.3393	27.832	64.0224	27.832	64.3857	27.832	64.8759	27.832	65.1753	27.832	65.5075	27.832	65.7167	27.832	65.91	27.832	66.017	27.832	66.0805
29.2969	60.8689	29.2969	60.7727	29.2969	60.7507	29.2969	60.4538	29.2969	60.4335	29.2969	59.9126	29.2969	59.9518	29.2969	59.1746	29.2969	59.3851	29.2969	58.3379	29.2969	58.9005	29.2969	57.6631	29.2969	58.7669	29.2969	57.5977	29.2969	59.2292	29.2969	58.4428	29.2969	60.2812	29.2969	59.9661	29.2969	61.6735	29.2969	61.7082	29.2969	63.1422	29.2969	63.3747	29.2969	64.5269	29.2969	64.8483	29.2969	65.754	29.2969	66.096	29.2969	66.7946	29.2969	67.1151	29.2969	67.6393	29.2969	67.9111	29.2969	68.2851	29.2969	68.4905	29.2969	68.7311	29.2969	68.8587	29.2969	68.9765	29.2969	69.0197
30.7617	64.412	30.7617	64.4218	30.7617	64.2559	30.7617	64.291	30.7617	63.9553	30.7617	64.0338	30.7617	63.524	30.7617	63.6791	30.7617	62.9981	30.7617	63.2814	30.7617	62.456	30.7617	62.9347	30.7617	62.0395	30.7617	62.7743	30.7617	61.9422	30.7617	62.9373	30.7617	62.3141	30.7617	63.4817	30.7617	63.1378	30.7617	64.3391	30.7617	64.242	30.7617	65.3643	30.7617	65.4314	30.7617	66.4165	30.7617	66.5686	30.7617	67.3971	30.7617	67.5771	30.7617	68.2477	30.7617	68.4193	30.7617	68.9358	30.7617	69.0774	30.7617	69.4439	30.7617	69.5434	30.7617	69.7624	30.7617	69.8135	30.7617	69.8864
32.2266	65.5902	32.2266	65.6024	32.2266	65.4441	32.2266	65.4832	32.2266	65.1712	32.2266	65.2445	32.2266	64.7931	32.2266	64.9142	32.2266	64.3568	32.2266	64.5464	32.2266	63.9508	32.2266	64.2348	32.2266	63.7137	32.2266	64.1126	32.2266	63.8013	32.2266	64.3115	32.2266	64.2989	32.2266	64.8828	32.2266	65.1522	32.2266	65.7554	32.2266	66.2093	32.2266	66.787	32.2266	67.316	32.2266	67.8414	32.2266	68.3643	32.2266	68.8237	32.2266	69.2919	32.2266	69.6776	32.2266	70.0654	32.2266	70.3721	32.2266	70.6676	32.2266	70.8907	32.2266	71.0889	32.2266	71.2244	32.2266	71.3237	32.2266	71.3692
33.6914	67.0988	33.6914	67.0915	33.6914	66.9874	33.6914	66.9675	33.6914	66.7655	33.6914	66.7401	33.6914	66.4558	33.6914	66.4381	33.6914	66.1033	33.6914	66.1159	33.6914	65.7869	33.6914	65.862	33.6914	65.6208	33.6914	65.7942	33.6914	65.728	33.6914	66.021	33.6914	66.1767	33.6914	66.5788	33.6914	66.9314	33.6914	67.4031	33.6914	67.8764	33.6914	68.3709	33.6914	68.8827	33.6914	69.3621	33.6914	69.8515	33.6914	70.2895	33.6914	70.7198	33.6914	71.0988	33.6914	71.4513	33.6914	71.7586	33.6914	72.0252	33.6914	72.2515	33.6914	72.4294	33.6914	72.568	33.6914	72.6569	33.6914	72.7036
35.1562	68.427	35.1562	68.4153	35.1562	68.3351	35.1562	68.3012	35.1562	68.15	35.1562	68.0983	35.1562	67.8973	35.1562	67.8365	35.1562	67.6241	35.1562	67.5707	35.1562	67.4051	35.1562	67.3851	35.1562	67.338	35.1562	67.3854	35.1562	67.5162	35.1562	67.6605	35.1562	67.9818	35.1562	68.2319	35.1562	68.6979	35.1562	69.0365	35.1562	69.5709	35.1562	69.9643	35.1562	70.4971	35.1562	70.9087	35.1562	71.3933	35.1562	71.7912	35.1562	72.2032	35.1562	72.5614	35.1562	72.8911	35.1562	73.1895	35.1562	73.4349	35.1562	73.6585	35.1562	73.8206	35.1562	73.959	35.1562	74.0395	35.1562	74.0863
36.6211	69.6495	36.6211	69.6438	36.6211	69.5691	36.6211	69.5539	36.6211	69.4129	36.6211	69.3935	36.6211	69.2048	36.6211	69.1919	36.6211	68.9873	36.6211	68.9984	36.6211	68.8243	36.6211	68.8839	36.6211	68.7962	36.6211	68.9315	36.6211	68.9781	36.6211	69.208	36.6211	69.406	36.6211	69.7299	36.6211	70.0553	36.6211	70.4508	36.6211	70.8529	36.6211	71.2859	36.6211	71.7108	36.6211	72.1465	36.6211	72.5519	36.6211	72.9614	36.6211	73.32	36.6211	73.6811	36.6211	73.9773	36.6211	74.2736	36.6211	74.4995	36.6211	74.7191	36.6211	74.8708	36.6211	75.0058	36.6211	75.0819	36.6211	75.1274
38.0859	71.2306	38.0859	71.2231	38.0859	71.1712	38.0859	71.1512	38.0859	71.054	38.0859	71.0288	38.0859	70.9008	38.0859	70.884	38.0859	70.7491	38.0859	70.7608	38.0859	70.6523	38.0859	70.7184	38.0859	70.6743	38.0859	70.8206	38.0859	70.8719	38.0859	71.1148	38.0859	71.272	38.0859	71.6089	38.0859	71.856	38.0859	72.2649	38.0859	72.5682	38.0859	73.0158	38.0859	73.3379	38.0859	73.7894	38.0859	74.0996	38.0859	74.5248	38.0859	74.8019	38.0859	75.1773	38.0859	75.4082	38.0859	75.7164	38.0859	75.8938	38.0859	76.1222	38.0859	76.2421	38.0859	76.3824	38.0859	76.4427	38.0859	76.49
39.5508	72.7419	39.5508	72.729	39.5508	72.7	39.5508	72.6638	39.5508	72.6109	39.5508	72.5597	39.5508	72.4937	39.5508	72.442	39.5508	72.3796	39.5508	72.3494	39.5508	72.3119	39.5508	72.331	39.5508	72.3408	39.5508	72.438	39.5508	72.5115	39.5508	72.7073	39.5508	72.8479	39.5508	73.1453	39.5508	73.3413	39.5508	73.7228	39.5508	73.9527	39.5508	74.3864	39.5508	74.6266	39.5508	75.0758	39.5508	75.3066	39.5508	75.7373	39.5508	75.9445	39.5508	76.329	39.5508	76.5032	39.5508	76.8207	39.5508	76.956	39.5508	77.192	39.5508	77.2843	39.5508	77.4294	39.5508	77.4761	39.5508	77.525
41.0156	73.8893	41.0156	73.8924	41.0156	73.8382	41.0156	73.8497	41.0156	73.7466	41.0156	73.7728	41.0156	73.6318	41.0156	73.6834	41.0156	73.5225	41.0156	73.6139	41.0156	73.4583	41.0156	73.6054	41.0156	73.4854	41.0156	73.7008	41.0156	73.6458	41.0156	73.9332	41.0156	73.9626	41.0156	74.313	41.0156	74.4292	41.0156	74.8216	41.0156	75.0102	41.0156	75.4178	41.0156	75.6534	41.0156	76.0503	41.0156	76.3046	41.0156	76.6691	41.0156	76.9165	41.0156	77.2326	41.0156	77.4526	41.0156	77.7086	41.0156	77.8858	41.0156	78.0739	41.0156	78.1976	41.0156	78.3125	41.0156	78.376	41.0156	78.4146
42.4805	75.0133	42.4805	75.0224	42.4805	74.9678	42.4805	74.9967	42.4805	74.8932	42.4805	74.9466	42.4805	74.8058	42.4805	74.8917	42.4805	74.7317	42.4805	74.8602	42.4805	74.7053	42.4805	74.8871	42.4805	74.7654	42.4805	75.0079	42.4805	74.9453	42.4805	75.2492	42.4805	75.2622	42.4805	75.6189	42.4805	75.7088	42.4805	76.1014	42.4805	76.2549	42.4805	76.6616	42.4805	76.8562	42.4805	77.2548	42.4805	77.4657	42.4805	77.8361	42.4805	78.0411	42.4805	78.3665	42.4805	78.548	42.4805	78.8151	42.4805	78.9604	42.4805	79.1588	42.4805	79.2597	42.4805	79.3818	42.4805	79.4333	42.4805	79.4746
43.9453	76.4106	43.9453	76.4108	43.9453	76.3822	43.9453	76.3844	43.9453	76.3316	43.9453	76.3408	43.9453	76.2727	43.9453	76.2972	43.9453	76.2269	43.9453	76.2782	43.9453	76.2225	43.9453	76.3138	43.9453	76.2904	43.9453	76.4339	43.9453	76.4574	43.9453	76.661	43.9453	76.7385	43.9453	77.0019	43.9453	77.1301	43.9453	77.4437	43.9453	77.6103	43.9453	77.9567	43.9453	78.1443	43.9453	78.5015	43.9453	78.6921	43.9453	79.0375	43.9453	79.2156	43.9453	79.5282	43.9453	79.6819	43.9453	79.944	43.9453	80.0651	43.9453	80.2625	43.9453	80.3458	43.9453	80.4683	43.9453	80.5106	43.9453	80.5522
45.4102	77.3831	45.4102	77.3885	45.4102	77.3559	45.4102	77.3734	45.4102	77.3129	45.4102	77.3459	45.4102	77.2669	45.4102	77.3213	45.4102	77.2379	45.4102	77.3211	45.4102	77.2512	45.4102	77.371	45.4102	77.3341	45.4102	77.4969	45.4102	77.5096	45.4102	77.7181	45.4102	77.7899	45.4102	78.0411	45.4102	78.171	45.4102	78.4558	45.4102	78.6325	45.4102	78.937	45.4102	79.1424	45.4102	79.4501	45.4102	79.6642	45.4102	79.9581	45.4102	80.1621	45.4102	80.4265	45.4102	80.6053	45.4102	80.8263	45.4102	80.9687	45.4102	81.1352	45.4102	81.2337	45.4102	81.3371	45.4102	81.3874	45.4102	81.4224
46.875	78.5826	46.875	78.5895	46.875	78.5576	46.875	78.5793	46.875	78.5198	46.875	78.5588	46.875	78.4804	46.875	78.5407	46.875	78.4563	46.875	78.5435	46.875	78.4689	46.875	78.5892	46.875	78.5411	46.875	78.7002	46.875	78.6931	46.875	78.894	46.875	78.9365	46.875	79.1776	46.875	79.2698	46.875	79.5439	46.875	79.6778	46.875	79.9725	46.875	80.134	46.875	80.4338	46.875	80.6062	46.875	80.8943	46.875	81.0618	46.875	81.322	46.875	81.4709	46.875	81.6891	46.875	81.809	46.875	81.9736	46.875	82.0572	46.875	82.1595	46.875	82.2024	46.875	82.2371
48.3398	79.5703	48.3398	79.5758	48.3398	79.548	48.3398	79.5653	48.3398	79.5136	48.3398	79.5451	48.3398	79.4771	48.3398	79.5269	48.3398	79.4535	48.3398	79.5272	48.3398	79.4621	48.3398	79.5659	48.3398	79.5237	48.3398	79.6636	48.3398	79.657	48.3398	79.8364	48.3398	79.8737	48.3398	80.0917	48.3398	80.1741	48.3398	80.4245	48.3398	80.546	48.3398	80.8177	48.3398	80.9664	48.3398	81.2447	48.3398	81.4057	48.3398	81.6748	48.3398	81.8331	48.3398	82.0774	48.3398	82.2196	48.3398	82.4252	48.3398	82.5407	48.3398	82.6962	48.3398	82.7772	48.3398	82.874	48.3398	82.9157	48.3398	82.9486
51.2695	81.317	51.2695	81.3195	51.2695	81.3107	51.2695	81.3192	51.2695	81.3038	51.2695	81.3214	51.2695	81.3036	51.2695	81.3354	51.2695	81.3208	51.2695	81.3739	51.2695	81.369	51.2695	81.4512	51.2695	81.4622	51.2695	81.5811	51.2695	81.6129	51.2695	81.7735	51.2695	81.8283	51.2695	82.0313	51.2695	82.1081	51.2695	82.3487	51.2695	82.443	51.2695	82.7109	51.2695	82.8158	51.2695	83.0964	51.2695	83.2039	51.2695	83.4803	51.2695	83.5824	51.2695	83.8371	51.2695	83.9269	51.2695	84.1436	51.2695	84.2156	51.2695	84.3809	51.2695	84.431	51.2695	84.5344	51.2695	84.5601	51.2695	84.5952
52.7344	82.2427	52.7344	82.2533	52.7344	82.2305	52.7344	82.2629	52.7344	82.2198	52.7344	82.2759	52.7344	82.2172	52.7344	82.2997	52.7344	82.2323	52.7344	82.3449	52.7344	82.2771	52.7344	82.4235	52.7344	82.3641	52.7344	82.5469	52.7344	82.5041	52.7344	82.7238	52.7344	82.7037	52.7344	82.9573	52.7344	82.9629	52.7344	83.243	52.7344	83.2737	52.7344	83.5692	52.7344	83.621	52.7344	83.9178	52.7344	83.984	52.7344	84.2672	52.7344	84.3396	52.7344	84.5941	52.7344	84.6643	52.7344	84.8771	52.7344	84.9373	52.7344	85.0974	52.7344	85.1412	52.7344	85.2406	52.7344	85.2636	52.7344	85.2973
54.1992	82.9984	54.1992	83.0121	54.1992	82.9853	54.1992	83.0266	54.1992	82.9758	54.1992	83.0453	54.1992	82.9762	54.1992	83.0748	54.1992	82.9953	54.1992	83.1239	54.1992	83.0435	54.1992	83.2031	54.1992	83.1318	54.1992	83.3223	54.1992	83.2696	54.1992	83.4892	54.1992	83.462	54.1992	83.7065	54.1992	83.7089	54.1992	83.9713	54.1992	84.0028	54.1992	84.2735	54.1992	84.3298	54.1992	84.5976	54.1992	84.6711	54.1992	84.9237	54.1992	85.005	54.1992	85.2307	54.1992	85.3098	54.1992	85.4979	54.1992	85.5657	54.1992	85.7071	54.1992	85.7565	54.1992	85.8442	54.1992	85.8701	54.1992	85.8999
55.6641	83.5942	55.6641	83.6121	55.6641	83.5789	55.6641	83.6325	55.6641	83.5697	55.6641	83.6577	55.6641	83.5724	55.6641	83.6932	55.6641	83.5949	55.6641	83.7463	55.6641	83.6468	55.6641	83.8261	55.6641	83.7375	55.6641	83.9415	55.6641	83.875	55.6641	84.0999	55.6641	84.0639	55.6641	84.3045	55.6641	84.3033	55.6641	84.5532	55.6641	84.5863	55.6641	84.8379	55.6641	84.8999	55.6641	85.1446	55.6641	85.2262	55.6641	85.4548	55.6641	85.5452	55.6641	85.7484	55.6641	85.8361	55.6641	86.0052	55.6641	86.0802	55.6641	86.2073	55.6641	86.2618	55.6641	86.3407	55.6641	86.3693	55.6641	86.396
58.5938	84.9972	58.5938	85.0017	58.5938	84.9997	58.5938	85.0134	58.5938	85.0112	58.5938	85.0345	58.5938	85.0354	58.5938	85.069	58.5938	85.0776	58.5938	85.1227	58.5938	85.1437	58.5938	85.2021	58.5938	85.2399	58.5938	85.3134	58.5938	85.3711	58.5938	85.4614	58.5938	85.54	58.5938	85.6479	58.5938	85.746	58.5938	85.8706	58.5938	85.9841	58.5938	86.1226	58.5938	86.2452	58.5938	86.3922	58.5938	86.5162	58.5938	86.6643	58.5938	86.7817	58.5938	86.9217	58.5938	87.0251	58.5938	87.1473	58.5938	87.2303	58.5938	87.3255	58.5938	87.3834	58.5938	87.4439	58.5938	87.4736	58.5938	87.4944
60.0586	85.6126	60.0586	85.6099	60.0586	85.6226	60.0586	85.6154	60.0586	85.6407	60.0586	85.6317	60.0586	85.6693	60.0586	85.6627	60.0586	85.712	60.0586	85.7136	60.0586	85.7739	60.0586	85.7899	60.0586	85.8603	60.0586	85.8969	60.0586	85.9764	60.0586	86.0381	60.0586	86.1259	60.0586	86.2147	60.0586	86.3095	60.0586	86.4239	60.0586	86.5239	60.0586	86.6592	60.0586	86.7615	60.0586	86.91	60.0586	87.0107	60.0586	87.1625	60.0586	87.257	60.0586	87.4012	60.0586	87.4844	60.0586	87.6102	60.0586	87.6773	60.0586	87.775	60.0586	87.8222	60.0586	87.8841	60.0586	87.9084	60.0586	87.9296
62.9883	86.5559	62.9883	86.5643	62.9883	86.5598	62.9883	86.5853	62.9883	86.577	62.9883	86.62	62.9883	86.6095	62.9883	86.6703	62.9883	86.6598	62.9883	86.7391	62.9883	86.7314	62.9883	86.8292	62.9883	86.8274	62.9883	86.9434	62.9883	86.9507	62.9883	87.0836	62.9883	87.1023	62.9883	87.2499	62.9883	87.2812	62.9883	87.4401	62.9883	87.4835	62.9883	87.649	62.9883	87.7024	62.9883	87.8684	62.9883	87.928	62.9883	88.0876	62.9883	88.1484	62.9883	88.2941	62.9883	88.3508	62.9883	88.4745	62.9883	88.5221	62.9883	88.6167	62.9883	88.6509	62.9883	88.7102	62.9883	88.7281	62.9883	88.7484
64.4531	87.0264	64.4531	87.0345	64.4531	87.0317	64.4531	87.0559	64.4531	87.051	64.4531	87.0914	64.4531	87.0858	64.4531	87.1424	64.4531	87.1381	64.4531	87.2109	64.4531	87.2104	64.4531	87.2992	64.4531	87.305	64.4531	87.4092	64.4531	87.4237	64.4531	87.5424	64.4531	87.5671	64.4531	87.6986	64.4531	87.7342	64.4531	87.8758	64.4531	87.9215	64.4531	88.0694	64.4531	88.123	64.4531	88.2721	64.4531	88.3302	64.4531	88.4744	64.4531	88.5326	64.4531	88.6648	64.4531	88.7186	64.4531	88.8314	64.4531	88.8762	64.4531	88.9628	64.4531	88.9948	64.4531	89.0493	64.4531	89.0661	64.4531	89.0847
67.3828	87.8838	67.3828	87.8893	67.3828	87.8934	67.3828	87.9099	67.3828	87.9186	67.3828	87.9457	67.3828	87.96	67.3828	87.9972	67.3828	88.0185	67.3828	88.0654	67.3828	88.0947	67.3828	88.151	67.3828	88.1894	67.3828	88.2551	67.3828	88.3027	67.3828	88.3777	67.3828	88.4341	67.3828	88.5184	67.3828	88.5822	67.3828	88.6749	67.3828	88.7442	67.3828	88.8436	67.3828	88.9155	67.3828	89.0185	67.3828	89.0899	67.3828	89.1922	67.3828	89.2593	67.3828	89.3554	67.3828	89.4145	67.3828	89.4983	67.3828	89.546	67.3828	89.6113	67.3828	89.6447	67.3828	89.6863	67.3828	89.7036	67.3828	89.7178
