"SPL Horizontal"
"On-Axis"		"10°"		"-10°"		"20°"		"-20°"		"30°"		"-30°"		"40°"		"-40°"		"50°"		"-50°"		"60°"		"-60°"		"70°"		"-70°"		"80°"		"-80°"		"90°"		"-90°"		"100°"		"-100°"		"110°"		"-110°"		"120°"		"-120°"		"130°"		"-130°"		"140°"		"-140°"		"150°"		"-150°"		"160°"		"-160°"		"170°"		"-170°"		"180°"
"Frequency / Hz"	"Sound Pressure Level / dB (re 20 µPa/V)  [2.83  V @ 1. m]"	"Frequency / Hz"	"Sound Pressure Level / dB (re 20 µPa/V)  [2.83  V @ 1. m]"	"Frequency / Hz"	"Sound Pressure Level / dB (re 20 µPa/V)  [2.83  V @ 1. m]"	"Frequency / Hz"	"Sound Pressure Level / dB (re 20 µPa/V)  [2.83  V @ 1. m]"	"Frequency / Hz"	"Sound Pressure Level / dB (re 20 µPa/V)  [2.83  V @ 1. m]"	"Frequency / Hz"	"Sound Pressure Level / dB (re 20 µPa/V)  [2.83  V @ 1. m]"	"Frequency / Hz"	"Sound Pressure Level / dB (re 20 µPa/V)  [2.83  V @ 1. m]"	"Frequency / Hz"	"Sound Pressure Level / dB (re 20 µPa/V)  [2.83  V @ 1. m]"	"Frequency / Hz"	"Sound Pressure Level / dB (re 20 µPa/V)  [2.83  V @ 1. m]"	"Frequency / Hz"	"Sound Pressure Level / dB (re 20 µPa/V)  [2.83  V @ 1. m]"	"Frequency / Hz"	"Sound Pressure Level / dB (re 20 µPa/V)  [2.83  V @ 1. m]"	"Frequency / Hz"	"Sound Pressure Level / dB (re 20 µPa/V)  [2.83  V @ 1. m]"	"Frequency / Hz"	"Sound Pressure Level / dB (re 20 µPa/V)  [2.83  V @ 1. m]"	"Frequency / Hz"	"Sound Pressure Level / dB (re 20 µPa/V)  [2.83  V @ 1. m]"	"Frequency / Hz"	"Sound Pressure Level / dB (re 20 µPa/V)  [2.83  V @ 1. m]"	"Frequency / Hz"	"Sound Pressure Level / dB (re 20 µPa/V)  [2.83  V @ 1. m]"	"Frequency / Hz"	"Sound Pressure Level / dB (re 20 µPa/V)  [2.83  V @ 1. m]"	"Frequency / Hz"	"Sound Pressure Level / dB (re 20 µPa/V)  [2.83  V @ 1. m]"	"Frequency / Hz"	"Sound Pressure Level / dB (re 20 µPa/V)  [2.83  V @ 1. m]"	"Frequency / Hz"	"Sound Pressure Level / dB (re 20 µPa/V)  [2.83  V @ 1. m]"	"Frequency / Hz"	"Sound Pressure Level / dB (re 20 µPa/V)  [2.83  V @ 1. m]"	"Frequency / Hz"	"Sound Pressure Level / dB (re 20 µPa/V)  [2.83  V @ 1. m]"	"Frequency / Hz"	"Sound Pressure Level / dB (re 20 µPa/V)  [2.83  V @ 1. m]"	"Frequency / Hz"	"Sound Pressure Level / dB (re 20 µPa/V)  [2.83  V @ 1. m]"	"Frequency / Hz"	"Sound Pressure Level / dB (re 20 µPa/V)  [2.83  V @ 1. m]"	"Frequency / Hz"	"Sound Pressure Level / dB (re 20 µPa/V)  [2.83  V @ 1. m]"	"Frequency / Hz"	"Sound Pressure Level / dB (re 20 µPa/V)  [2.83  V @ 1. m]"	"Frequency / Hz"	"Sound Pressure Level / dB (re 20 µPa/V)  [2.83  V @ 1. m]"	"Frequency / Hz"	"Sound Pressure Level / dB (re 20 µPa/V)  [2.83  V @ 1. m]"	"Frequency / Hz"	"Sound Pressure Level / dB (re 20 µPa/V)  [2.83  V @ 1. m]"	"Frequency / Hz"	"Sound Pressure Level / dB (re 20 µPa/V)  [2.83  V @ 1. m]"	"Frequency / Hz"	"Sound Pressure Level / dB (re 20 µPa/V)  [2.83  V @ 1. m]"	"Frequency / Hz"	"Sound Pressure Level / dB (re 20 µPa/V)  [2.83  V @ 1. m]"	"Frequency / Hz"	"Sound Pressure Level / dB (re 20 µPa/V)  [2.83  V @ 1. m]"	"Frequency / Hz"	"Sound Pressure Level / dB (re 20 µPa/V)  [2.83  V @ 1. m]"	"Frequency / Hz"	"Sound Pressure Level / dB (re 20 µPa/V)  [2.83  V @ 1. m]"
20.5078	47.6667	20.5078	47.5809	20.5078	47.6582	20.5078	47.3932	20.5078	47.5625	20.5078	47.0981	20.5078	47.3839	20.5078	46.6965	20.5078	47.125	20.5078	46.2021	20.5078	46.7887	20.5078	45.6472	20.5078	46.3823	20.5078	45.0846	20.5078	45.9233	20.5078	44.5752	20.5078	45.4435	20.5078	44.163	20.5078	44.9901	20.5078	43.8543	20.5078	44.6211	20.5078	43.6269	20.5078	44.3892	20.5078	43.4627	20.5078	44.3174	20.5078	43.3707	20.5078	44.3791	20.5078	43.3785	20.5078	44.5037	20.5078	43.5033	20.5078	44.6057	20.5078	43.7305	20.5078	44.6179	20.5078	44.015	20.5078	44.5107	20.5078	44.2953
21.9727	35.811	21.9727	36.1129	21.9727	34.8765	21.9727	35.8258	21.9727	33.1589	21.9727	34.9198	21.9727	30.3896	21.9727	33.3499	21.9727	27.0951	21.9727	31.4019	21.9727	28.6674	21.9727	30.924	21.9727	33.3848	21.9727	33.4693	21.9727	37.1634	21.9727	36.7689	21.9727	40.0146	21.9727	39.588	21.9727	42.2273	21.9727	41.8661	21.9727	43.9833	21.9727	43.7214	21.9727	45.3945	21.9727	45.2517	21.9727	46.5344	21.9727	46.5159	21.9727	47.4524	21.9727	47.5413	21.9727	48.1808	21.9727	48.3374	21.9727	48.7381	21.9727	48.9083	21.9727	49.1311	21.9727	49.2603	21.9727	49.3569	21.9727	49.4049
23.4375	47.8375	23.4375	47.6427	23.4375	47.9477	23.4375	47.3629	23.4375	47.9796	23.4375	47.007	23.4375	47.9446	23.4375	46.6006	23.4375	47.861	23.4375	46.1959	23.4375	47.7561	23.4375	45.8815	23.4375	47.67	23.4375	45.7734	23.4375	47.6549	23.4375	45.973	23.4375	47.7671	23.4375	46.5055	23.4375	48.0503	23.4375	47.3023	23.4375	48.5155	23.4375	48.2455	23.4375	49.1327	23.4375	49.2224	23.4375	49.84	23.4375	50.148	23.4375	50.5638	23.4375	50.9641	23.4375	51.2361	23.4375	51.6322	23.4375	51.8033	23.4375	52.128	23.4375	52.2272	23.4375	52.4376	23.4375	52.483	23.4375	52.5556
24.9023	48.5047	24.9023	48.3524	24.9023	48.5087	24.9023	48.0632	24.9023	48.364	24.9023	47.6694	24.9023	48.081	24.9023	47.2436	24.9023	47.6898	24.9023	46.9224	24.9023	47.2588	24.9023	46.901	24.9023	46.9217	24.9023	47.3413	24.9023	46.8799	24.9023	48.24	24.9023	47.3183	24.9023	49.4318	24.9023	48.2565	24.9023	50.7223	24.9023	49.5266	24.9023	51.9765	24.9023	50.9112	24.9023	53.1213	24.9023	52.2505	24.9023	54.1212	24.9023	53.4535	24.9023	54.9567	24.9023	54.4732	24.9023	55.6146	24.9023	55.2865	24.9023	56.0833	24.9023	55.8826	24.9023	56.3524	24.9023	56.2578	24.9023	56.413
26.3672	53.0246	26.3672	53.0267	26.3672	52.9707	26.3672	52.9892	26.3672	52.8679	26.3672	52.9399	26.3672	52.7354	26.3672	52.9237	26.3672	52.6125	26.3672	53	26.3672	52.5611	26.3672	53.2304	26.3672	52.6598	26.3672	53.6566	26.3672	52.9808	26.3672	54.2801	26.3672	53.5555	26.3672	55.0596	26.3672	54.3543	26.3672	55.9304	26.3672	55.3007	26.3672	56.8261	26.3672	56.305	26.3672	57.6918	26.3672	57.2892	26.3672	58.4856	26.3672	58.1944	26.3672	59.176	26.3672	58.979	26.3672	59.7384	26.3672	59.6149	26.3672	60.1528	26.3672	60.0831	26.3672	60.4035	26.3672	60.3726	26.3672	60.479
27.832	57.0687	27.832	57.0674	27.832	57.0427	27.832	57.0441	27.832	56.9962	27.832	57.0165	27.832	56.9487	27.832	57.0156	27.832	56.9336	27.832	57.0839	27.832	56.9963	27.832	57.2692	27.832	57.1872	27.832	57.6105	27.832	57.547	27.832	58.1226	27.832	58.0888	27.832	58.7872	27.832	58.7904	27.832	59.5593	27.832	59.6012	27.832	60.3824	27.832	60.4592	27.832	61.2017	27.832	61.3052	27.832	61.9711	27.832	62.0893	27.832	62.6536	27.832	62.7725	27.832	63.2203	27.832	63.3256	27.832	63.6489	27.832	63.7274	27.832	63.9224	27.832	63.9643	27.832	64.0294
29.2969	60.9405	29.2969	60.8956	29.2969	60.9658	29.2969	60.8368	29.2969	60.9753	29.2969	60.7802	29.2969	60.9827	29.2969	60.7531	29.2969	61.0117	29.2969	60.7927	29.2969	61.0947	29.2969	60.9416	29.2969	61.269	29.2969	61.2366	29.2969	61.5682	29.2969	61.6946	29.2969	62.0105	29.2969	62.3034	29.2969	62.59	29.2969	63.0242	29.2969	63.2766	29.2969	63.804	29.2969	64.0235	29.2969	64.5885	29.2969	64.7788	29.2969	65.3298	29.2969	65.4937	29.2969	65.9895	29.2969	66.127	29.2969	66.5376	29.2969	66.6461	29.2969	66.9514	29.2969	67.0269	29.2969	67.2145	29.2969	67.2534	29.2969	67.3166
30.7617	64.1753	30.7617	64.174	30.7617	64.1802	30.7617	64.1819	30.7617	64.1902	30.7617	64.2114	30.7617	64.2144	30.7617	64.2813	30.7617	64.2692	30.7617	64.4141	30.7617	64.3777	30.7617	64.6333	30.7617	64.5662	30.7617	64.9566	30.7617	64.8585	30.7617	65.3907	30.7617	65.2682	30.7617	65.9263	30.7617	65.7919	30.7617	66.5396	30.7617	66.4078	30.7617	67.1964	30.7617	67.0799	30.7617	67.8584	30.7617	67.7652	30.7617	68.4884	30.7617	68.4211	30.7617	69.0528	30.7617	69.0093	30.7617	69.5232	30.7617	69.4984	30.7617	69.8765	30.7617	69.8643	30.7617	70.0953	30.7617	70.0907	30.7617	70.1683
32.2266	67.195	32.2266	67.2017	32.2266	67.1977	32.2266	67.2204	32.2266	67.2127	32.2266	67.2592	32.2266	67.2484	32.2266	67.3311	32.2266	67.3188	32.2266	67.4528	32.2266	67.4417	32.2266	67.6422	32.2266	67.6368	32.2266	67.9152	32.2266	67.9205	32.2266	68.28	32.2266	68.3013	32.2266	68.7341	32.2266	68.7746	32.2266	69.2622	32.2266	69.3225	32.2266	69.8384	32.2266	69.9159	32.2266	70.4307	32.2266	70.5197	32.2266	71.0046	32.2266	71.0976	32.2266	71.5276	32.2266	71.616	32.2266	71.9707	32.2266	72.046	32.2266	72.31	32.2266	72.3648	32.2266	72.5274	32.2266	72.5562	32.2266	72.6111
33.6914	70.1584	33.6914	70.1649	33.6914	70.1648	33.6914	70.1859	33.6914	70.1865	33.6914	70.227	33.6914	70.2302	33.6914	70.2973	33.6914	70.3062	33.6914	70.4091	33.6914	70.4277	33.6914	70.5759	33.6914	70.6088	33.6914	70.8102	33.6914	70.8618	33.6914	71.1201	33.6914	71.1931	33.6914	71.5062	33.6914	71.6008	33.6914	71.9592	33.6914	72.0721	33.6914	72.4602	33.6914	72.5854	33.6914	72.9829	33.6914	73.1123	33.6914	73.497	33.6914	73.6217	33.6914	73.9717	33.6914	74.0831	33.6914	74.3784	33.6914	74.4689	33.6914	74.6927	33.6914	74.7564	33.6914	74.896	33.6914	74.9288	33.6914	74.9763
35.1562	72.6741	35.1562	72.6754	35.1562	72.6889	35.1562	72.6946	35.1562	72.7215	35.1562	72.7366	35.1562	72.7766	35.1562	72.809	35.1562	72.8621	35.1562	72.9219	35.1562	72.9878	35.1562	73.0861	35.1562	73.1645	35.1562	73.3113	35.1562	73.4017	35.1562	73.6039	35.1562	73.7051	35.1562	73.9644	35.1562	74.0742	35.1562	74.3855	35.1562	74.5005	35.1562	74.8517	35.1562	74.9675	35.1562	75.3402	35.1562	75.4518	35.1562	75.8236	35.1562	75.9259	35.1562	76.2726	35.1562	76.361	35.1562	76.6592	35.1562	76.7296	35.1562	76.9587	35.1562	77.0077	35.1562	77.1518	35.1562	77.1769	35.1562	77.2261
36.6211	74.7014	36.6211	74.709	36.6211	74.7118	36.6211	74.736	36.6211	74.7414	36.6211	74.7858	36.6211	74.794	36.6211	74.8641	36.6211	74.8752	36.6211	74.9779	36.6211	74.9924	36.6211	75.1351	36.6211	75.1537	36.6211	75.3426	36.6211	75.3664	36.6211	75.6052	36.6211	75.6352	36.6211	75.9237	36.6211	75.9606	36.6211	76.2931	36.6211	76.3368	36.6211	76.702	36.6211	76.7512	36.6211	77.1323	36.6211	77.1848	36.6211	77.5612	36.6211	77.6137	36.6211	77.9625	36.6211	78.0113	36.6211	78.3102	36.6211	78.3514	36.6211	78.5806	36.6211	78.6104	36.6211	78.7544	36.6211	78.7701	36.6211	78.8192
38.0859	76.2556	38.0859	76.2569	38.0859	76.273	38.0859	76.2781	38.0859	76.31	38.0859	76.3222	38.0859	76.3694	38.0859	76.3939	38.0859	76.4555	38.0859	76.4993	38.0859	76.5741	38.0859	76.6451	38.0859	76.7315	38.0859	76.8375	38.0859	76.9336	38.0859	77.0811	38.0859	77.1844	38.0859	77.3767	38.0859	77.4843	38.0859	77.7206	38.0859	77.829	38.0859	78.1027	38.0859	78.2083	38.0859	78.5068	38.0859	78.6059	38.0859	78.9115	38.0859	79.0006	38.0859	79.2922	38.0859	79.3681	38.0859	79.6236	38.0859	79.6835	38.0859	79.8826	38.0859	79.924	38.0859	80.0505	38.0859	80.0717	38.0859	80.1151
39.5508	77.8947	39.5508	77.899	39.5508	77.9138	39.5508	77.9275	39.5508	77.9566	39.5508	77.9825	39.5508	78.0249	39.5508	78.0671	39.5508	78.1216	39.5508	78.1856	39.5508	78.2502	39.5508	78.3421	39.5508	78.4149	39.5508	78.5406	39.5508	78.6191	39.5508	78.7832	39.5508	78.8652	39.5508	79.0696	39.5508	79.1526	39.5508	79.3954	39.5508	79.4772	39.5508	79.7518	39.5508	79.8302	39.5508	80.1246	39.5508	80.1976	39.5508	80.4956	39.5508	80.5612	39.5508	80.8433	39.5508	80.8994	39.5508	81.1454	39.5508	81.19	39.5508	81.3811	39.5508	81.4122	39.5508	81.5334	39.5508	81.5494	39.5508	81.5909
41.0156	79.185	41.0156	79.1949	41.0156	79.1998	41.0156	79.2304	41.0156	79.2393	41.0156	79.2933	41.0156	79.3041	41.0156	79.3859	41.0156	79.3959	41.0156	79.5109	41.0156	79.5172	41.0156	79.6711	41.0156	79.6707	41.0156	79.8687	41.0156	79.8597	41.0156	80.1046	41.0156	80.0864	41.0156	80.3776	41.0156	80.3514	41.0156	80.6834	41.0156	80.6519	41.0156	81.0139	41.0156	80.9809	41.0156	81.3568	41.0156	81.3261	41.0156	81.6959	41.0156	81.6703	41.0156	82.012	41.0156	81.9931	41.0156	82.2851	41.0156	82.2727	41.0156	82.4961	41.0156	82.4891	41.0156	82.6292	41.0156	82.6262	41.0156	82.674
42.4805	80.7132	42.4805	80.72	42.4805	80.7296	42.4805	80.7505	42.4805	80.769	42.4805	80.806	42.4805	80.8321	42.4805	80.888	42.4805	80.9202	42.4805	80.9986	42.4805	81.0352	42.4805	81.1395	42.4805	81.1795	42.4805	81.3125	42.4805	81.355	42.4805	81.5183	42.4805	81.5632	42.4805	81.7562	42.4805	81.8038	42.4805	82.0232	42.4805	82.0739	42.4805	82.3131	42.4805	82.3668	42.4805	82.616	42.4805	82.6717	42.4805	82.9185	42.4805	82.974	42.4805	83.2039	42.4805	83.2559	42.4805	83.4541	42.4805	83.4986	42.4805	83.6514	42.4805	83.684	42.4805	83.7805	42.4805	83.7978	42.4805	83.8307
43.9453	81.8281	43.9453	81.8376	43.9453	81.8416	43.9453	81.8705	43.9453	81.8783	43.9453	81.9278	43.9453	81.9385	43.9453	82.0103	43.9453	82.023	43.9453	82.1195	43.9453	82.133	43.9453	82.2564	43.9453	82.2699	43.9453	82.4221	43.9453	82.435	43.9453	82.6166	43.9453	82.6288	43.9453	82.8385	43.9453	82.8509	43.9453	83.0849	43.9453	83.0983	43.9453	83.3499	43.9453	83.3656	43.9453	83.625	43.9453	83.6435	43.9453	83.8983	43.9453	83.9194	43.9453	84.1555	43.9453	84.1775	43.9453	84.3804	43.9453	84.4009	43.9453	84.557	43.9453	84.573	43.9453	84.6714	43.9453	84.6802	43.9453	84.7138
45.4102	82.8825	45.4102	82.8919	45.4102	82.8978	45.4102	82.9263	45.4102	82.9375	45.4102	82.9864	45.4102	83.0014	45.4102	83.0727	45.4102	83.0897	45.4102	83.1859	45.4102	83.2027	45.4102	83.3261	45.4102	83.3407	45.4102	83.4932	45.4102	83.5038	45.4102	83.6862	45.4102	83.692	45.4102	83.9028	45.4102	83.9041	45.4102	84.1393	45.4102	84.1374	45.4102	84.3901	45.4102	84.3871	45.4102	84.6474	45.4102	84.6453	45.4102	84.9009	45.4102	84.9011	45.4102	85.138	45.4102	85.1407	45.4102	85.3443	45.4102	85.3487	45.4102	85.5054	45.4102	85.5099	45.4102	85.6088	45.4102	85.6116	45.4102	85.6454
46.875	83.9442	46.875	83.9551	46.875	83.9617	46.875	83.9948	46.875	84.0068	46.875	84.0631	46.875	84.0786	46.875	84.1598	46.875	84.176	46.875	84.2837	46.875	84.2979	46.875	84.4334	46.875	84.443	46.875	84.6068	46.875	84.6101	46.875	84.8012	46.875	84.7979	46.875	85.0133	46.875	85.0045	46.875	85.2392	46.875	85.2271	46.875	85.4738	46.875	85.461	46.875	85.7106	46.875	85.6998	46.875	85.9412	46.875	85.934	46.875	86.1552	46.875	86.1519	46.875	86.3406	46.875	86.3404	46.875	86.4849	46.875	86.4863	46.875	86.5771	46.875	86.5783	46.875	86.6093
48.3398	85.2713	48.3398	85.2914	48.3398	85.2774	48.3398	85.337	48.3398	85.3094	48.3398	85.4071	48.3398	85.3668	48.3398	85.5004	48.3398	85.4484	48.3398	85.6149	48.3398	85.553	48.3398	85.7484	48.3398	85.6788	48.3398	85.8986	48.3398	85.8241	48.3398	86.0632	48.3398	85.9869	48.3398	86.2397	48.3398	86.1651	48.3398	86.4253	48.3398	86.3558	48.3398	86.6169	48.3398	86.5551	48.3398	86.8097	48.3398	86.7575	48.3398	86.9973	48.3398	86.9558	48.3398	87.1714	48.3398	87.1405	48.3398	87.3221	48.3398	87.3009	48.3398	87.439	48.3398	87.426	48.3398	87.5125	48.3398	87.5064	48.3398	87.5359
51.2695	86.8276	51.2695	86.8494	51.2695	86.823	51.2695	86.8876	51.2695	86.836	51.2695	86.9415	51.2695	86.8669	51.2695	87.01	51.2695	86.9155	51.2695	87.0919	51.2695	86.9815	51.2695	87.1859	51.2695	87.0643	51.2695	87.2909	51.2695	87.1629	51.2695	87.4057	51.2695	87.2761	51.2695	87.5291	51.2695	87.4024	51.2695	87.6595	51.2695	87.54	51.2695	87.7952	51.2695	87.6865	51.2695	87.933	51.2695	87.8384	51.2695	88.0686	51.2695	87.9905	51.2695	88.196	51.2695	88.1354	51.2695	88.3074	51.2695	88.2641	51.2695	88.3941	51.2695	88.3668	51.2695	88.4479	51.2695	88.4348	51.2695	88.4624
52.7344	87.5046	52.7344	87.514	52.7344	87.5125	52.7344	87.54	52.7344	87.5377	52.7344	87.5817	52.7344	87.5794	52.7344	87.6376	52.7344	87.6366	52.7344	87.7061	52.7344	87.7077	52.7344	87.7855	52.7344	87.7909	52.7344	87.8744	52.7344	87.8845	52.7344	87.9711	52.7344	87.9869	52.7344	88.0746	52.7344	88.0968	52.7344	88.1838	52.7344	88.2133	52.7344	88.2976	52.7344	88.3347	52.7344	88.4143	52.7344	88.4586	52.7344	88.5315	52.7344	88.581	52.7344	88.6447	52.7344	88.6956	52.7344	88.7481	52.7344	88.7946	52.7344	88.8337	52.7344	88.8696	52.7344	88.8938	52.7344	88.9134	52.7344	88.9216
54.1992	87.9768	54.1992	87.9577	54.1992	88.0121	54.1992	87.9551	54.1992	88.0625	54.1992	87.9689	54.1992	88.1263	54.1992	87.9982	54.1992	88.2014	54.1992	88.0419	54.1992	88.2853	54.1992	88.0985	54.1992	88.3756	54.1992	88.1665	54.1992	88.4702	54.1992	88.2444	54.1992	88.5672	54.1992	88.3312	54.1992	88.6654	54.1992	88.4258	54.1992	88.7636	54.1992	88.5275	54.1992	88.8603	54.1992	88.6353	54.1992	88.9535	54.1992	88.7472	54.1992	89.04	54.1992	88.8597	54.1992	89.115	54.1992	88.9675	54.1992	89.173	54.1992	89.0638	54.1992	89.2082	54.1992	89.1411	54.1992	89.2157	54.1992	89.1931
55.6641	88.6093	55.6641	88.6077	55.6641	88.629	55.6641	88.6242	55.6641	88.6658	55.6641	88.6582	55.6641	88.7181	55.6641	88.7083	55.6641	88.7837	55.6641	88.7726	55.6641	88.8601	55.6641	88.8486	55.6641	88.9446	55.6641	88.9336	55.6641	89.0347	55.6641	89.025	55.6641	89.1282	55.6641	89.1201	55.6641	89.2235	55.6641	89.2171	55.6641	89.3192	55.6641	89.3144	55.6641	89.4142	55.6641	89.4109	55.6641	89.5069	55.6641	89.5052	55.6641	89.595	55.6641	89.5949	55.6641	89.675	55.6641	89.6762	55.6641	89.7422	55.6641	89.7441	55.6641	89.7915	55.6641	89.7931	55.6641	89.8179	55.6641	89.8186
58.5938	89.4043	58.5938	89.4025	58.5938	89.4259	58.5938	89.4199	58.5938	89.4668	58.5938	89.4553	58.5938	89.5256	58.5938	89.5063	58.5938	89.6001	58.5938	89.5703	58.5938	89.6875	58.5938	89.6439	58.5938	89.7842	58.5938	89.7239	58.5938	89.8867	58.5938	89.8075	58.5938	89.9913	58.5938	89.8924	58.5938	90.0943	58.5938	89.9772	58.5938	90.1928	58.5938	90.0616	58.5938	90.2841	58.5938	90.1455	58.5938	90.3661	58.5938	90.2289	58.5938	90.4369	58.5938	90.3107	58.5938	90.4947	58.5938	90.3882	58.5938	90.5373	58.5938	90.4572	58.5938	90.5621	58.5938	90.5126	58.5938	90.5668	58.5938	90.5502
60.0586	89.5536	60.0586	89.5526	60.0586	89.5735	60.0586	89.5703	60.0586	89.6119	60.0586	89.6052	60.0586	89.6673	60.0586	89.6552	60.0586	89.7372	60.0586	89.7178	60.0586	89.8186	60.0586	89.7898	60.0586	89.9079	60.0586	89.8681	60.0586	90.0013	60.0586	89.95	60.0586	90.0951	60.0586	90.0331	60.0586	90.186	60.0586	90.1155	60.0586	90.2714	60.0586	90.1961	60.0586	90.3495	60.0586	90.2744	60.0586	90.4191	60.0586	90.3494	60.0586	90.4796	60.0586	90.42	60.0586	90.5303	60.0586	90.4838	60.0586	90.57	60.0586	90.5377	60.0586	90.5967	60.0586	90.5781	60.0586	90.608	60.0586	90.602
62.9883	89.4512	62.9883	89.4519	62.9883	89.4684	62.9883	89.47	62.9883	89.5026	62.9883	89.5046	62.9883	89.5522	62.9883	89.5535	62.9883	89.6147	62.9883	89.6141	62.9883	89.6869	62.9883	89.6831	62.9883	89.7653	62.9883	89.7572	62.9883	89.8463	62.9883	89.8328	62.9883	89.9263	62.9883	89.9071	62.9883	90.0022	62.9883	89.9777	62.9883	90.0719	62.9883	90.043	62.9883	90.1338	62.9883	90.1025	62.9883	90.1873	62.9883	90.1561	62.9883	90.2325	62.9883	90.2038	62.9883	90.2692	62.9883	90.2453	62.9883	90.2973	62.9883	90.2796	62.9883	90.3158	62.9883	90.3051	62.9883	90.3237	62.9883	90.3202
64.4531	89.3361	64.4531	89.3411	64.4531	89.3494	64.4531	89.3641	64.4531	89.3803	64.4531	89.4037	64.4531	89.4274	64.4531	89.4578	64.4531	89.4884	64.4531	89.5236	64.4531	89.5602	64.4531	89.5977	64.4531	89.6396	64.4531	89.6762	64.4531	89.7227	64.4531	89.7556	64.4531	89.806	64.4531	89.8323	64.4531	89.8861	64.4531	89.9038	64.4531	89.9601	64.4531	89.9683	64.4531	90.0259	64.4531	90.0251	64.4531	90.0823	64.4531	90.0742	64.4531	90.1289	64.4531	90.1162	64.4531	90.1655	64.4531	90.1516	64.4531	90.1924	64.4531	90.1801	64.4531	90.2094	64.4531	90.2011	64.4531	90.2164	64.4531	90.2135
67.3828	89.144	67.3828	89.1344	67.3828	89.1721	67.3828	89.1432	67.3828	89.2178	67.3828	89.1693	67.3828	89.2793	67.3828	89.2106	67.3828	89.354	67.3828	89.2645	67.3828	89.4381	67.3828	89.3274	67.3828	89.5276	67.3828	89.3955	67.3828	89.6178	67.3828	89.465	67.3828	89.704	67.3828	89.5322	67.3828	89.7817	67.3828	89.5943	67.3828	89.8472	67.3828	89.6495	67.3828	89.8978	67.3828	89.6973	67.3828	89.9323	67.3828	89.7382	67.3828	89.9511	67.3828	89.7735	67.3828	89.9559	67.3828	89.8051	67.3828	89.9493	67.3828	89.8344	67.3828	89.9343	67.3828	89.8624	67.3828	89.9134	67.3828	89.8889
