"SPL Vertical"
"On-Axis"		"10°"		"-10°"		"20°"		"-20°"		"30°"		"-30°"		"40°"		"-40°"		"50°"		"-50°"		"60°"		"-60°"		"70°"		"-70°"		"80°"		"-80°"		"90°"		"-90°"		"100°"		"-100°"		"110°"		"-110°"		"120°"		"-120°"		"130°"		"-130°"		"140°"		"-140°"		"150°"		"-150°"		"160°"		"-160°"		"170°"		"-170°"		"180°"
"Frequency / Hz"	"Sound Pressure Level / dB (re 20 µPa/V)  [2.83  V @ 1. m]"	"Frequency / Hz"	"Sound Pressure Level / dB (re 20 µPa/V)  [2.83  V @ 1. m]"	"Frequency / Hz"	"Sound Pressure Level / dB (re 20 µPa/V)  [2.83  V @ 1. m]"	"Frequency / Hz"	"Sound Pressure Level / dB (re 20 µPa/V)  [2.83  V @ 1. m]"	"Frequency / Hz"	"Sound Pressure Level / dB (re 20 µPa/V)  [2.83  V @ 1. m]"	"Frequency / Hz"	"Sound Pressure Level / dB (re 20 µPa/V)  [2.83  V @ 1. m]"	"Frequency / Hz"	"Sound Pressure Level / dB (re 20 µPa/V)  [2.83  V @ 1. m]"	"Frequency / Hz"	"Sound Pressure Level / dB (re 20 µPa/V)  [2.83  V @ 1. m]"	"Frequency / Hz"	"Sound Pressure Level / dB (re 20 µPa/V)  [2.83  V @ 1. m]"	"Frequency / Hz"	"Sound Pressure Level / dB (re 20 µPa/V)  [2.83  V @ 1. m]"	"Frequency / Hz"	"Sound Pressure Level / dB (re 20 µPa/V)  [2.83  V @ 1. m]"	"Frequency / Hz"	"Sound Pressure Level / dB (re 20 µPa/V)  [2.83  V @ 1. m]"	"Frequency / Hz"	"Sound Pressure Level / dB (re 20 µPa/V)  [2.83  V @ 1. m]"	"Frequency / Hz"	"Sound Pressure Level / dB (re 20 µPa/V)  [2.83  V @ 1. m]"	"Frequency / Hz"	"Sound Pressure Level / dB (re 20 µPa/V)  [2.83  V @ 1. m]"	"Frequency / Hz"	"Sound Pressure Level / dB (re 20 µPa/V)  [2.83  V @ 1. m]"	"Frequency / Hz"	"Sound Pressure Level / dB (re 20 µPa/V)  [2.83  V @ 1. m]"	"Frequency / Hz"	"Sound Pressure Level / dB (re 20 µPa/V)  [2.83  V @ 1. m]"	"Frequency / Hz"	"Sound Pressure Level / dB (re 20 µPa/V)  [2.83  V @ 1. m]"	"Frequency / Hz"	"Sound Pressure Level / dB (re 20 µPa/V)  [2.83  V @ 1. m]"	"Frequency / Hz"	"Sound Pressure Level / dB (re 20 µPa/V)  [2.83  V @ 1. m]"	"Frequency / Hz"	"Sound Pressure Level / dB (re 20 µPa/V)  [2.83  V @ 1. m]"	"Frequency / Hz"	"Sound Pressure Level / dB (re 20 µPa/V)  [2.83  V @ 1. m]"	"Frequency / Hz"	"Sound Pressure Level / dB (re 20 µPa/V)  [2.83  V @ 1. m]"	"Frequency / Hz"	"Sound Pressure Level / dB (re 20 µPa/V)  [2.83  V @ 1. m]"	"Frequency / Hz"	"Sound Pressure Level / dB (re 20 µPa/V)  [2.83  V @ 1. m]"	"Frequency / Hz"	"Sound Pressure Level / dB (re 20 µPa/V)  [2.83  V @ 1. m]"	"Frequency / Hz"	"Sound Pressure Level / dB (re 20 µPa/V)  [2.83  V @ 1. m]"	"Frequency / Hz"	"Sound Pressure Level / dB (re 20 µPa/V)  [2.83  V @ 1. m]"	"Frequency / Hz"	"Sound Pressure Level / dB (re 20 µPa/V)  [2.83  V @ 1. m]"	"Frequency / Hz"	"Sound Pressure Level / dB (re 20 µPa/V)  [2.83  V @ 1. m]"	"Frequency / Hz"	"Sound Pressure Level / dB (re 20 µPa/V)  [2.83  V @ 1. m]"	"Frequency / Hz"	"Sound Pressure Level / dB (re 20 µPa/V)  [2.83  V @ 1. m]"	"Frequency / Hz"	"Sound Pressure Level / dB (re 20 µPa/V)  [2.83  V @ 1. m]"	"Frequency / Hz"	"Sound Pressure Level / dB (re 20 µPa/V)  [2.83  V @ 1. m]"	"Frequency / Hz"	"Sound Pressure Level / dB (re 20 µPa/V)  [2.83  V @ 1. m]"
20.5078	47.6667	20.5078	47.6703	20.5078	47.5523	20.5078	47.5795	20.5078	47.3126	20.5078	47.4125	20.5078	46.9344	20.5078	47.1879	20.5078	46.4065	20.5078	46.924	20.5078	45.7234	20.5078	46.6364	20.5078	44.8947	20.5078	46.3368	20.5078	43.9677	20.5078	46.0322	20.5078	43.0634	20.5078	45.7249	20.5078	42.398	20.5078	45.4144	20.5078	42.2	20.5078	45.1005	20.5078	42.5072	20.5078	44.788	20.5078	43.1113	20.5078	44.492	20.5078	43.7464	20.5078	44.2416	20.5078	44.2381	20.5078	44.0769	20.5078	44.5158	20.5078	44.034	20.5078	44.5802	20.5078	44.12	20.5078	44.48	20.5078	44.2953
21.9727	35.811	21.9727	35.1993	21.9727	35.8058	21.9727	33.871	21.9727	35.1646	21.9727	31.5139	21.9727	33.7433	21.9727	27.1533	21.9727	31.203	21.9727	14.8019	21.9727	27.2522	21.9727	23.5039	21.9727	27.0653	21.9727	31.3114	21.9727	32.6368	21.9727	35.6153	21.9727	37.0792	21.9727	38.634	21.9727	40.3382	21.9727	40.9681	21.9727	42.8337	21.9727	42.8659	21.9727	44.7915	21.9727	44.45	21.9727	46.333	21.9727	45.7853	21.9727	47.528	21.9727	46.9057	21.9727	48.4191	21.9727	47.827	21.9727	49.0343	21.9727	48.5533	21.9727	49.3937	21.9727	49.0817	21.9727	49.5127	21.9727	49.4049
23.4375	47.8375	23.4375	47.5482	23.4375	48.0479	23.4375	47.1963	23.4375	48.1695	23.4375	46.8065	23.4375	48.1976	23.4375	46.4163	23.4375	48.135	23.4375	46.0791	23.4375	47.9971	23.4375	45.8635	23.4375	47.8216	23.4375	45.8415	23.4375	47.6791	23.4375	46.0645	23.4375	47.6728	23.4375	46.5393	23.4375	47.9071	23.4375	47.2229	23.4375	48.4257	23.4375	48.0421	23.4375	49.1729	23.4375	48.9193	23.4375	50.0255	23.4375	49.7877	23.4375	50.8566	23.4375	50.5959	23.4375	51.5729	23.4375	51.3046	23.4375	52.1193	23.4375	51.8831	23.4375	52.4689	23.4375	52.3069	23.4375	52.6132	23.4375	52.5556
24.9023	48.5047	24.9023	48.062	24.9023	48.8187	24.9023	47.5363	24.9023	48.9776	24.9023	47.0074	24.9023	48.9666	24.9023	46.6014	24.9023	48.7823	24.9023	46.4779	24.9023	48.4425	24.9023	46.7633	24.9023	48.0141	24.9023	47.4655	24.9023	47.6579	24.9023	48.4712	24.9023	47.6466	24.9023	49.6292	24.9023	48.2277	24.9023	50.8189	24.9023	49.3769	24.9023	51.9649	24.9023	50.8158	24.9023	53.0241	24.9023	52.2641	24.9023	53.9707	24.9023	53.5579	24.9023	54.7865	24.9023	54.6249	24.9023	55.4553	24.9023	55.4414	24.9023	55.9608	24.9023	56.0053	24.9023	56.2859	24.9023	56.3247	24.9023	56.413
26.3672	53.0246	26.3672	52.8696	26.3672	53.1469	26.3672	52.7182	26.3672	53.2137	26.3672	52.6189	26.3672	53.2157	26.3672	52.6271	26.3672	53.1603	26.3672	52.7932	26.3672	53.0785	26.3672	53.1467	26.3672	53.0338	26.3672	53.6853	26.3672	53.1238	26.3672	54.3763	26.3672	53.4566	26.3672	55.1702	26.3672	54.0918	26.3672	56.0149	26.3672	54.9939	26.3672	56.8649	26.3672	56.049	26.3672	57.683	26.3672	57.1275	26.3672	58.4391	26.3672	58.1266	26.3672	59.108	26.3672	58.9808	26.3672	59.667	26.3672	59.6535	26.3672	60.0948	26.3672	60.1283	26.3672	60.3715	26.3672	60.4017	26.3672	60.479
27.832	57.0687	27.832	56.9484	27.832	57.1783	27.832	56.8477	27.832	57.2567	27.832	56.8049	27.832	57.2952	27.832	56.8608	27.832	57.2991	27.832	57.0503	27.832	57.2922	27.832	57.3925	27.832	57.321	27.832	57.8845	27.832	57.4543	27.832	58.5031	27.832	57.7671	27.832	59.2117	27.832	58.3065	27.832	59.9696	27.832	59.0601	27.832	60.7384	27.832	59.9562	27.832	61.4841	27.832	60.8974	27.832	62.1775	27.832	61.7938	27.832	62.7927	27.832	62.5794	27.832	63.3064	27.832	63.2119	27.832	63.6966	27.832	63.6686	27.832	63.9435	27.832	63.9407	27.832	64.0294
29.2969	60.9405	29.2969	60.8377	29.2969	61.0341	29.2969	60.7505	29.2969	61.102	29.2969	60.7107	29.2969	61.1377	29.2969	60.7531	29.2969	61.1466	29.2969	60.9089	29.2969	61.1487	29.2969	61.198	29.2969	61.1826	29.2969	61.6232	29.2969	61.3041	29.2969	62.169	29.2969	61.5755	29.2969	62.8064	29.2969	62.04	29.2969	63.4996	29.2969	62.696	29.2969	64.2124	29.2969	63.4916	29.2969	64.9111	29.2969	64.3452	29.2969	65.5657	29.2969	65.1745	29.2969	66.1494	29.2969	65.9135	29.2969	66.6375	29.2969	66.5169	29.2969	67.0078	29.2969	66.9581	29.2969	67.2399	29.2969	67.225	29.2969	67.3166
30.7617	64.1753	30.7617	64.1165	30.7617	64.2464	30.7617	64.0876	30.7617	64.3176	30.7617	64.1102	30.7617	64.3841	30.7617	64.206	30.7617	64.4498	30.7617	64.3934	30.7617	64.5293	30.7617	64.6832	30.7617	64.6487	30.7617	65.0758	30.7617	64.8438	30.7617	65.5607	30.7617	65.1517	30.7617	66.1185	30.7617	65.5972	30.7617	66.7244	30.7617	66.1779	30.7617	67.3511	30.7617	66.8602	30.7617	67.9711	30.7617	67.5883	30.7617	68.558	30.7617	68.3004	30.7617	69.0865	30.7617	68.9414	30.7617	69.5327	30.7617	69.4698	30.7617	69.8745	30.7617	69.8581	30.7617	70.0919	30.7617	70.0921	30.7617	70.1683
32.2266	67.195	32.2266	67.155	32.2266	67.2515	32.2266	67.1447	32.2266	67.3155	32.2266	67.1797	32.2266	67.3834	32.2266	67.2759	32.2266	67.4582	32.2266	67.4472	32.2266	67.5512	32.2266	67.7024	32.2266	67.6816	32.2266	68.0431	32.2266	67.8759	32.2266	68.4631	32.2266	68.1615	32.2266	68.9489	32.2266	68.5572	32.2266	69.4816	32.2266	69.0631	32.2266	70.0385	32.2266	69.6555	32.2266	70.5955	32.2266	70.2919	32.2266	71.128	32.2266	70.9213	32.2266	71.6114	32.2266	71.4947	32.2266	72.0222	32.2266	71.9724	32.2266	72.3383	32.2266	72.3265	32.2266	72.5399	32.2266	72.5412	32.2266	72.6111
33.6914	70.1584	33.6914	70.1213	33.6914	70.2129	33.6914	70.111	33.6914	70.2782	33.6914	70.1391	33.6914	70.3519	33.6914	70.2179	33.6914	70.4366	33.6914	70.3586	33.6914	70.5404	33.6914	70.5692	33.6914	70.6773	33.6914	70.8531	33.6914	70.8662	33.6914	71.2077	33.6914	71.1268	33.6914	71.6243	33.6914	71.4735	33.6914	72.0886	33.6914	71.9077	33.6914	72.5822	33.6914	72.4137	33.6914	73.0837	33.6914	72.9599	33.6914	73.57	33.6914	73.5049	33.6914	74.0174	33.6914	74.006	33.6914	74.4026	33.6914	74.4261	33.6914	74.7032	33.6914	74.7374	33.6914	74.8996	33.6914	74.923	33.6914	74.9763
35.1562	72.6741	35.1562	72.6344	35.1562	72.7341	35.1562	72.6229	35.1562	72.809	35.1562	72.6489	35.1562	72.8965	35.1562	72.7223	35.1562	72.9984	35.1562	72.8522	35.1562	73.1205	35.1562	73.0455	35.1562	73.2733	35.1562	73.3054	35.1562	73.4705	35.1562	73.6306	35.1562	73.7265	35.1562	74.0144	35.1562	74.052	35.1562	74.4453	35.1562	74.4487	35.1562	74.9073	35.1562	74.9051	35.1562	75.3811	35.1562	75.3969	35.1562	75.8451	35.1562	75.8899	35.1562	76.2761	35.1562	76.3463	35.1562	76.6508	35.1562	76.7312	35.1562	76.9467	35.1562	77.0166	35.1562	77.1437	35.1562	77.1843	35.1562	77.2261
36.6211	74.7014	36.6211	74.6643	36.6211	74.7589	36.6211	74.6536	36.6211	74.8327	36.6211	74.6765	36.6211	74.9211	36.6211	74.7406	36.6211	75.0253	36.6211	74.8534	36.6211	75.1497	36.6211	75.0207	36.6211	75.3016	36.6211	75.246	36.6211	75.491	36.6211	75.5292	36.6211	75.7286	36.6211	75.8659	36.6211	76.0225	36.6211	76.2477	36.6211	76.3745	36.6211	76.6614	36.6211	76.7763	36.6211	77.0905	36.6211	77.2089	36.6211	77.5153	36.6211	77.644	36.6211	77.9141	36.6211	78.0485	36.6211	78.2645	36.6211	78.3906	36.6211	78.5446	36.6211	78.6435	36.6211	78.7346	36.6211	78.7892	36.6211	78.8192
38.0859	76.2556	38.0859	76.2128	38.0859	76.3185	38.0859	76.1955	38.0859	76.3978	38.0859	76.2103	38.0859	76.4917	38.0859	76.2642	38.0859	76.601	38.0859	76.3638	38.0859	76.7292	38.0859	76.5146	38.0859	76.8822	38.0859	76.7202	38.0859	77.0682	38.0859	76.9807	38.0859	77.2956	38.0859	77.2929	38.0859	77.5713	38.0859	77.6491	38.0859	77.8966	38.0859	78.0378	38.0859	78.2648	38.0859	78.4434	38.0859	78.6597	38.0859	78.8474	38.0859	79.0565	38.0859	79.2291	38.0859	79.4257	38.0859	79.5668	38.0859	79.7374	38.0859	79.839	38.0859	79.9665	38.0859	80.0268	38.0859	80.0952	38.0859	80.1151
39.5508	77.8947	39.5508	77.8598	39.5508	77.9546	39.5508	77.8537	39.5508	78.0367	39.5508	77.8809	39.5508	78.1394	39.5508	77.946	39.5508	78.2629	39.5508	78.0534	39.5508	78.4087	39.5508	78.2065	39.5508	78.5803	39.5508	78.4074	39.5508	78.782	39.5508	78.6557	39.5508	79.0185	39.5508	78.9484	39.5508	79.293	39.5508	79.2793	39.5508	79.6052	39.5508	79.6387	39.5508	79.9486	39.5508	80.0137	39.5508	80.3095	39.5508	80.3881	39.5508	80.6675	39.5508	80.7436	39.5508	80.9976	39.5508	81.0604	39.5508	81.274	39.5508	81.3186	39.5508	81.4743	39.5508	81.5001	39.5508	81.5825	39.5508	81.5909
41.0156	79.185	41.0156	79.1467	41.0156	79.2501	41.0156	79.1381	41.0156	79.3394	41.0156	79.1628	41.0156	79.4512	41.0156	79.2241	41.0156	79.5849	41.0156	79.3251	41.0156	79.7408	41.0156	79.4685	41.0156	79.9204	41.0156	79.6555	41.0156	80.1258	41.0156	79.8859	41.0156	80.3598	41.0156	80.157	41.0156	80.6238	41.0156	80.4638	41.0156	80.9168	41.0156	80.798	41.0156	81.2331	41.0156	81.1485	41.0156	81.561	41.0156	81.5009	41.0156	81.8831	41.0156	81.8384	41.0156	82.1774	41.0156	82.1424	41.0156	82.421	41.0156	82.394	41.0156	82.5935	41.0156	82.5758	41.0156	82.6802	41.0156	82.674
42.4805	80.7132	42.4805	80.679	42.4805	80.7722	42.4805	80.6718	42.4805	80.8543	42.4805	80.694	42.4805	80.9581	42.4805	80.7481	42.4805	81.083	42.4805	80.8367	42.4805	81.2288	42.4805	80.9618	42.4805	81.3963	42.4805	81.1245	42.4805	81.5863	42.4805	81.3251	42.4805	81.8001	42.4805	81.5618	42.4805	82.0383	42.4805	81.8309	42.4805	82.2995	42.4805	82.1259	42.4805	82.5789	42.4805	82.4375	42.4805	82.8671	42.4805	82.7533	42.4805	83.1493	42.4805	83.0583	42.4805	83.407	42.4805	83.3354	42.4805	83.6199	42.4805	83.5669	42.4805	83.7695	42.4805	83.7364	42.4805	83.842	42.4805	83.8307
43.9453	81.8281	43.9453	81.7977	43.9453	81.8836	43.9453	81.7938	43.9453	81.9632	43.9453	81.8179	43.9453	82.0657	43.9453	81.8712	43.9453	82.1903	43.9453	81.9554	43.9453	82.3361	43.9453	82.0717	43.9453	82.5025	43.9453	82.2208	43.9453	82.6894	43.9453	82.4029	43.9453	82.8962	43.9453	82.6169	43.9453	83.1223	43.9453	82.8598	43.9453	83.3657	43.9453	83.1268	43.9453	83.6217	43.9453	83.41	43.9453	83.8821	43.9453	83.6989	43.9453	84.1344	43.9453	83.98	43.9453	84.3624	43.9453	84.2379	43.9453	84.5484	43.9453	84.456	43.9453	84.6761	43.9453	84.6189	43.9453	84.7332	43.9453	84.7138
45.4102	82.8825	45.4102	82.8474	45.4102	82.9446	45.4102	82.8402	45.4102	83.0324	45.4102	82.862	45.4102	83.1446	45.4102	82.9133	45.4102	83.2796	45.4102	82.9951	45.4102	83.4355	45.4102	83.1078	45.4102	83.6106	45.4102	83.2516	45.4102	83.803	45.4102	83.4262	45.4102	84.011	45.4102	83.6303	45.4102	84.2324	45.4102	83.8613	45.4102	84.4646	45.4102	84.1147	45.4102	84.7029	45.4102	84.3834	45.4102	84.9403	45.4102	84.658	45.4102	85.1661	45.4102	84.9262	45.4102	85.3669	45.4102	85.1737	45.4102	85.5276	45.4102	85.3853	45.4102	85.6338	45.4102	85.5465	45.4102	85.6748	45.4102	85.6454
46.875	83.9442	46.875	83.9086	46.875	84.011	46.875	83.905	46.875	84.1076	46.875	83.9332	46.875	84.2315	46.875	83.9925	46.875	84.3798	46.875	84.0819	46.875	84.5491	46.875	84.2002	46.875	84.7357	46.875	84.3461	46.875	84.9362	46.875	84.5181	46.875	85.1471	46.875	84.7145	46.875	85.3653	46.875	84.9329	46.875	85.5874	46.875	85.1695	46.875	85.8092	46.875	85.4188	46.875	86.0247	46.875	85.6731	46.875	86.2253	46.875	85.9221	46.875	86.3998	46.875	86.1533	46.875	86.5358	46.875	86.3534	46.875	86.6213	46.875	86.5091	46.875	86.6472	46.875	86.6093
48.3398	85.2713	48.3398	85.2349	48.3398	85.3351	48.3398	85.2259	48.3398	85.4252	48.3398	85.2437	48.3398	85.54	48.3398	85.2875	48.3398	85.6767	48.3398	85.3563	48.3398	85.8321	48.3398	85.4492	48.3398	86.0022	48.3398	85.5654	48.3398	86.183	48.3398	85.704	48.3398	86.3705	48.3398	85.8644	48.3398	86.5614	48.3398	86.0451	48.3398	86.752	48.3398	86.2437	48.3398	86.9387	48.3398	86.4562	48.3398	87.1165	48.3398	86.6764	48.3398	87.2785	48.3398	86.8957	48.3398	87.416	48.3398	87.1032	48.3398	87.5189	48.3398	87.2869	48.3398	87.5773	48.3398	87.4346	48.3398	87.5841	48.3398	87.5359
51.2695	86.8276	51.2695	86.7813	51.2695	86.8922	51.2695	86.7535	51.2695	86.9746	51.2695	86.7442	51.2695	87.0738	51.2695	86.7534	51.2695	87.1882	51.2695	86.7813	51.2695	87.3155	51.2695	86.8281	51.2695	87.453	51.2695	86.8943	51.2695	87.5974	51.2695	86.9804	51.2695	87.745	51.2695	87.0866	51.2695	87.8924	51.2695	87.213	51.2695	88.0356	51.2695	87.3583	51.2695	88.1711	51.2695	87.5203	51.2695	88.2945	51.2695	87.6945	51.2695	88.4008	51.2695	87.8745	51.2695	88.484	51.2695	88.0516	51.2695	88.5371	51.2695	88.2155	51.2695	88.5538	51.2695	88.3556	51.2695	88.5294	51.2695	88.4624
52.7344	87.5046	52.7344	87.4536	52.7344	87.5721	52.7344	87.4192	52.7344	87.6556	52.7344	87.4014	52.7344	87.7542	52.7344	87.4001	52.7344	87.8662	52.7344	87.4154	52.7344	87.9897	52.7344	87.4477	52.7344	88.1217	52.7344	87.4974	52.7344	88.2588	52.7344	87.5651	52.7344	88.3971	52.7344	87.6515	52.7344	88.5326	52.7344	87.7569	52.7344	88.661	52.7344	87.881	52.7344	88.7783	52.7344	88.0224	52.7344	88.8803	52.7344	88.1779	52.7344	88.9628	52.7344	88.3425	52.7344	89.0209	52.7344	88.5086	52.7344	89.0496	52.7344	88.667	52.7344	89.0441	52.7344	88.8078	52.7344	89.0015	52.7344	88.9216
54.1992	87.9768	54.1992	87.9198	54.1992	88.0496	54.1992	87.879	54.1992	88.137	54.1992	87.8548	54.1992	88.2374	54.1992	87.8469	54.1992	88.3487	54.1992	87.8554	54.1992	88.468	54.1992	87.8802	54.1992	88.5921	54.1992	87.9215	54.1992	88.7173	54.1992	87.9793	54.1992	88.8397	54.1992	88.0541	54.1992	88.9553	54.1992	88.1458	54.1992	89.0607	54.1992	88.2544	54.1992	89.1527	54.1992	88.3788	54.1992	89.2289	54.1992	88.5164	54.1992	89.2867	54.1992	88.6631	54.1992	89.3232	54.1992	88.8125	54.1992	89.3352	54.1992	88.9564	54.1992	89.3189	54.1992	89.086	54.1992	89.2716	54.1992	89.1931
55.6641	88.6093	55.6641	88.5613	55.6641	88.6752	55.6641	88.531	55.6641	88.7584	55.6641	88.5179	55.6641	88.8574	55.6641	88.5212	55.6641	88.9702	55.6641	88.5398	55.6641	89.0936	55.6641	88.5728	55.6641	89.2235	55.6641	88.6196	55.6641	89.3553	55.6641	88.6797	55.6641	89.4837	55.6641	88.7533	55.6641	89.6039	55.6641	88.8404	55.6641	89.7114	55.6641	88.9414	55.6641	89.803	55.6641	89.0558	55.6641	89.8762	55.6641	89.1823	55.6641	89.9292	55.6641	89.3176	55.6641	89.9601	55.6641	89.4564	55.6641	89.9665	55.6641	89.5916	55.6641	89.946	55.6641	89.715	55.6641	89.8966	55.6641	89.8186
58.5938	89.4043	58.5938	89.3445	58.5938	89.4858	58.5938	89.3064	58.5938	89.5881	58.5938	89.2888	58.5938	89.7089	58.5938	89.2903	58.5938	89.8446	58.5938	89.3089	58.5938	89.9903	58.5938	89.3426	58.5938	90.14	58.5938	89.3898	58.5938	90.2869	58.5938	89.4492	58.5938	90.4241	58.5938	89.5202	58.5938	90.5456	58.5938	89.6025	58.5938	90.646	58.5938	89.6965	58.5938	90.7222	58.5938	89.8022	58.5938	90.7726	58.5938	89.919	58.5938	90.7969	58.5938	90.0453	58.5938	90.7959	58.5938	90.1773	58.5938	90.77	58.5938	90.3098	58.5938	90.7197	58.5938	90.4363	58.5938	90.6459	58.5938	90.5502
60.0586	89.5536	60.0586	89.4938	60.0586	89.6342	60.0586	89.4548	60.0586	89.7347	60.0586	89.4354	60.0586	89.853	60.0586	89.4339	60.0586	89.9853	60.0586	89.4483	60.0586	90.1269	60.0586	89.4766	60.0586	90.2719	60.0586	89.517	60.0586	90.4136	60.0586	89.5684	60.0586	90.5453	60.0586	89.6301	60.0586	90.6609	60.0586	89.7023	60.0586	90.7553	60.0586	89.7855	60.0586	90.825	60.0586	89.8804	60.0586	90.8684	60.0586	89.9872	60.0586	90.8852	60.0586	90.1048	60.0586	90.8761	60.0586	90.2304	60.0586	90.842	60.0586	90.3594	60.0586	90.7838	60.0586	90.4855	60.0586	90.7029	60.0586	90.602
62.9883	89.4512	62.9883	89.3829	62.9883	89.5384	62.9883	89.3333	62.9883	89.6435	62.9883	89.3015	62.9883	89.7645	62.9883	89.286	62.9883	89.8981	62.9883	89.2852	62.9883	90.0396	62.9883	89.2973	62.9883	90.1836	62.9883	89.3209	62.9883	90.3234	62.9883	89.355	62.9883	90.4523	62.9883	89.3994	62.9883	90.5634	62.9883	89.4545	62.9883	90.651	62.9883	89.5212	62.9883	90.7104	62.9883	89.6009	62.9883	90.7389	62.9883	89.6945	62.9883	90.7357	62.9883	89.8023	62.9883	90.7017	62.9883	89.9229	62.9883	90.6393	62.9883	90.0531	62.9883	90.5519	62.9883	90.1877	62.9883	90.4437	62.9883	90.3202
64.4531	89.3361	64.4531	89.2661	64.4531	89.4261	64.4531	89.2158	64.4531	89.5349	64.4531	89.1845	64.4531	89.6605	64.4531	89.1705	64.4531	89.7992	64.4531	89.1719	64.4531	89.9464	64.4531	89.1869	64.4531	90.0961	64.4531	89.2136	64.4531	90.2416	64.4531	89.2507	64.4531	90.3757	64.4531	89.2976	64.4531	90.4912	64.4531	89.3541	64.4531	90.5816	64.4531	89.4211	64.4531	90.6419	64.4531	89.4997	64.4531	90.6689	64.4531	89.5913	64.4531	90.6618	64.4531	89.6964	64.4531	90.6219	64.4531	89.8146	64.4531	90.5522	64.4531	89.9434	64.4531	90.4571	64.4531	90.0784	64.4531	90.342	64.4531	90.2135
67.3828	89.144	67.3828	89.0696	67.3828	89.2389	67.3828	89.0159	67.3828	89.3531	67.3828	88.9818	67.3828	89.484	67.3828	88.9654	67.3828	89.6276	67.3828	88.9644	67.3828	89.7785	67.3828	88.9762	67.3828	89.9304	67.3828	88.9986	67.3828	90.0759	67.3828	89.0295	67.3828	90.2074	67.3828	89.0679	67.3828	90.3171	67.3828	89.1136	67.3828	90.3983	67.3828	89.1673	67.3828	90.4455	67.3828	89.2308	67.3828	90.4557	67.3828	89.3062	67.3828	90.4286	67.3828	89.3956	67.3828	90.3665	67.3828	89.5002	67.3828	90.2744	67.3828	89.6194	67.3828	90.1588	67.3828	89.7506	67.3828	90.0276	67.3828	89.8889
