"SPL Vertical"
"On-Axis"		"10°"		"-10°"		"20°"		"-20°"		"30°"		"-30°"		"40°"		"-40°"		"50°"		"-50°"		"60°"		"-60°"		"70°"		"-70°"		"80°"		"-80°"		"90°"		"-90°"		"100°"		"-100°"		"110°"		"-110°"		"120°"		"-120°"		"130°"		"-130°"		"140°"		"-140°"		"150°"		"-150°"		"160°"		"-160°"		"170°"		"-170°"		"180°"
"Frequency [Hz]"	"Sound Pessure Level [dB]  / [2.83V 1m] "	"Frequency [Hz]"	"Sound Pessure Level [dB]  / [2.83V 1m] "	"Frequency [Hz]"	"Sound Pessure Level [dB]  / [2.83V 1m] "	"Frequency [Hz]"	"Sound Pessure Level [dB]  / [2.83V 1m] "	"Frequency [Hz]"	"Sound Pessure Level [dB]  / [2.83V 1m] "	"Frequency [Hz]"	"Sound Pessure Level [dB]  / [2.83V 1m] "	"Frequency [Hz]"	"Sound Pessure Level [dB]  / [2.83V 1m] "	"Frequency [Hz]"	"Sound Pessure Level [dB]  / [2.83V 1m] "	"Frequency [Hz]"	"Sound Pessure Level [dB]  / [2.83V 1m] "	"Frequency [Hz]"	"Sound Pessure Level [dB]  / [2.83V 1m] "	"Frequency [Hz]"	"Sound Pessure Level [dB]  / [2.83V 1m] "	"Frequency [Hz]"	"Sound Pessure Level [dB]  / [2.83V 1m] "	"Frequency [Hz]"	"Sound Pessure Level [dB]  / [2.83V 1m] "	"Frequency [Hz]"	"Sound Pessure Level [dB]  / [2.83V 1m] "	"Frequency [Hz]"	"Sound Pessure Level [dB]  / [2.83V 1m] "	"Frequency [Hz]"	"Sound Pessure Level [dB]  / [2.83V 1m] "	"Frequency [Hz]"	"Sound Pessure Level [dB]  / [2.83V 1m] "	"Frequency [Hz]"	"Sound Pessure Level [dB]  / [2.83V 1m] "	"Frequency [Hz]"	"Sound Pessure Level [dB]  / [2.83V 1m] "	"Frequency [Hz]"	"Sound Pessure Level [dB]  / [2.83V 1m] "	"Frequency [Hz]"	"Sound Pessure Level [dB]  / [2.83V 1m] "	"Frequency [Hz]"	"Sound Pessure Level [dB]  / [2.83V 1m] "	"Frequency [Hz]"	"Sound Pessure Level [dB]  / [2.83V 1m] "	"Frequency [Hz]"	"Sound Pessure Level [dB]  / [2.83V 1m] "	"Frequency [Hz]"	"Sound Pessure Level [dB]  / [2.83V 1m] "	"Frequency [Hz]"	"Sound Pessure Level [dB]  / [2.83V 1m] "	"Frequency [Hz]"	"Sound Pessure Level [dB]  / [2.83V 1m] "	"Frequency [Hz]"	"Sound Pessure Level [dB]  / [2.83V 1m] "	"Frequency [Hz]"	"Sound Pessure Level [dB]  / [2.83V 1m] "	"Frequency [Hz]"	"Sound Pessure Level [dB]  / [2.83V 1m] "	"Frequency [Hz]"	"Sound Pessure Level [dB]  / [2.83V 1m] "	"Frequency [Hz]"	"Sound Pessure Level [dB]  / [2.83V 1m] "	"Frequency [Hz]"	"Sound Pessure Level [dB]  / [2.83V 1m] "	"Frequency [Hz]"	"Sound Pessure Level [dB]  / [2.83V 1m] "	"Frequency [Hz]"	"Sound Pessure Level [dB]  / [2.83V 1m] "	"Frequency [Hz]"	"Sound Pessure Level [dB]  / [2.83V 1m] "
20.5078	68.8822	20.5078	68.8181	20.5078	68.9348	20.5078	68.7444	20.5078	68.9738	20.5078	68.6632	20.5078	68.9976	20.5078	68.5766	20.5078	69.0044	20.5078	68.4869	20.5078	68.993	20.5078	68.3961	20.5078	68.9628	20.5078	68.3066	20.5078	68.9139	20.5078	68.2207	20.5078	68.8476	20.5078	68.1409	20.5078	68.7664	20.5078	68.0696	20.5078	68.6738	20.5078	68.0091	20.5078	68.5741	20.5078	67.9614	20.5078	68.4719	20.5078	67.9282	20.5078	68.3715	20.5078	67.9105	20.5078	68.2766	20.5078	67.9086	20.5078	68.1898	20.5078	67.9222	20.5078	68.1128	20.5078	67.9505	20.5078	68.0466	20.5078	67.9923
21.9727	69.8662	21.9727	69.7997	21.9727	69.9192	21.9727	69.7219	21.9727	69.9564	21.9727	69.6349	21.9727	69.9757	21.9727	69.5408	21.9727	69.9754	21.9727	69.4418	21.9727	69.9541	21.9727	69.3399	21.9727	69.9109	21.9727	69.2374	21.9727	69.8462	21.9727	69.1365	21.9727	69.7612	21.9727	69.0397	21.9727	69.6587	21.9727	68.9495	21.9727	69.5425	21.9727	68.8683	21.9727	69.4176	21.9727	68.7985	21.9727	69.2892	21.9727	68.7424	21.9727	69.1631	21.9727	68.7019	21.9727	69.0446	21.9727	68.6784	21.9727	68.9382	21.9727	68.6733	21.9727	68.8474	21.9727	68.6873	21.9727	68.7746	21.9727	68.721
23.4375	70.9311	23.4375	70.8611	23.4375	70.9881	23.4375	70.7807	23.4375	71.0296	23.4375	70.6923	23.4375	71.0536	23.4375	70.5983	23.4375	71.0581	23.4375	70.5007	23.4375	71.042	23.4375	70.4019	23.4375	71.0047	23.4375	70.3041	23.4375	70.9468	23.4375	70.2093	23.4375	70.8699	23.4375	70.1198	23.4375	70.7768	23.4375	70.0378	23.4375	70.671	23.4375	69.9656	23.4375	70.5568	23.4375	69.9052	23.4375	70.439	23.4375	69.8587	23.4375	70.322	23.4375	69.8277	23.4375	70.2103	23.4375	69.8139	23.4375	70.1076	23.4375	69.8181	23.4375	70.0171	23.4375	69.8408	23.4375	69.9413	23.4375	69.8821
24.9023	71.5888	24.9023	71.5228	24.9023	71.6399	24.9023	71.4442	24.9023	71.674	24.9023	71.3555	24.9023	71.6891	24.9023	71.2591	24.9023	71.6841	24.9023	71.1575	24.9023	71.6581	24.9023	71.0531	24.9023	71.6111	24.9023	70.9483	24.9023	71.544	24.9023	70.8456	24.9023	71.4585	24.9023	70.7474	24.9023	71.3576	24.9023	70.6562	24.9023	71.2448	24.9023	70.5743	24.9023	71.1244	24.9023	70.5041	24.9023	71.0012	24.9023	70.4479	24.9023	70.8796	24.9023	70.4076	24.9023	70.7643	24.9023	70.3851	24.9023	70.6591	24.9023	70.3818	24.9023	70.5675	24.9023	70.3985	24.9023	70.4923	24.9023	70.4355
26.3672	72.0357	26.3672	71.9765	26.3672	72.0828	26.3672	71.9072	26.3672	72.1162	26.3672	71.8294	26.3672	72.1338	26.3672	71.7449	26.3672	72.134	26.3672	71.6553	26.3672	72.1151	26.3672	71.5625	26.3672	72.0762	26.3672	71.4684	26.3672	72.0173	26.3672	71.3751	26.3672	71.9395	26.3672	71.2848	26.3672	71.8451	26.3672	71.1995	26.3672	71.7375	26.3672	71.1217	26.3672	71.6211	26.3672	71.0536	26.3672	71.5009	26.3672	70.9973	26.3672	71.3822	26.3672	70.9551	26.3672	71.2698	26.3672	70.9289	26.3672	71.1684	26.3672	70.9204	26.3672	71.0815	26.3672	70.931	26.3672	71.012	26.3672	70.9615
27.832	73.2659	27.832	73.2031	27.832	73.3124	27.832	73.1262	27.832	73.3408	27.832	73.0376	27.832	73.3494	27.832	72.9398	27.832	73.3369	27.832	72.8351	27.832	73.3026	27.832	72.7263	27.832	73.2467	27.832	72.6159	27.832	73.17	27.832	72.5066	27.832	73.0746	27.832	72.401	27.832	72.9634	27.832	72.3017	27.832	72.8405	27.832	72.2111	27.832	72.7106	27.832	72.1318	27.832	72.5788	27.832	72.0661	27.832	72.4505	27.832	72.0161	27.832	72.3304	27.832	71.9839	27.832	72.2231	27.832	71.9712	27.832	72.1321	27.832	71.9793	27.832	72.0601	27.832	72.0089
29.2969	73.7948	29.2969	73.733	29.2969	73.8402	29.2969	73.6571	29.2969	73.8671	29.2969	73.5693	29.2969	73.8738	29.2969	73.4721	29.2969	73.8588	29.2969	73.3678	29.2969	73.8214	29.2969	73.2592	29.2969	73.7616	29.2969	73.1485	29.2969	73.6803	29.2969	73.0385	29.2969	73.5797	29.2969	72.9316	29.2969	73.463	29.2969	72.8304	29.2969	73.3346	29.2969	72.7372	29.2969	73.1997	29.2969	72.6546	29.2969	73.0638	29.2969	72.5848	29.2969	72.9327	29.2969	72.5301	29.2969	72.8115	29.2969	72.4927	29.2969	72.7048	29.2969	72.4744	29.2969	72.616	29.2969	72.4769	29.2969	72.5477	29.2969	72.5012
30.7617	74.5494	30.7617	74.4757	30.7617	74.6062	30.7617	74.388	30.7617	74.6435	30.7617	74.2889	30.7617	74.6589	30.7617	74.1811	30.7617	74.6504	30.7617	74.0671	30.7617	74.617	30.7617	73.9496	30.7617	74.5587	30.7617	73.8313	30.7617	74.4771	30.7617	73.7148	30.7617	74.3746	30.7617	73.6027	30.7617	74.2552	30.7617	73.4975	30.7617	74.1233	30.7617	73.4018	30.7617	73.984	30.7617	73.3183	30.7617	73.8426	30.7617	73.2494	30.7617	73.704	30.7617	73.1978	30.7617	73.5731	30.7617	73.1658	30.7617	73.4542	30.7617	73.1558	30.7617	73.3514	30.7617	73.1692	30.7617	73.2681	30.7617	73.2068
32.2266	75.1796	32.2266	75.1225	32.2266	75.2192	32.2266	75.0499	32.2266	75.2399	32.2266	74.964	32.2266	75.2406	32.2266	74.8673	32.2266	75.2208	32.2266	74.7626	32.2266	75.1804	32.2266	74.6527	32.2266	75.12	32.2266	74.5406	32.2266	75.041	32.2266	74.4293	32.2266	74.9453	32.2266	74.3216	32.2266	74.8361	32.2266	74.2202	32.2266	74.7169	32.2266	74.128	32.2266	74.5921	32.2266	74.0472	32.2266	74.4664	32.2266	73.9803	32.2266	74.3443	32.2266	73.9295	32.2266	74.2302	32.2266	73.8967	32.2266	74.1278	32.2266	73.8837	32.2266	74.0404	32.2266	73.8915	32.2266	73.9707	32.2266	73.9206
33.6914	75.5818	33.6914	75.5209	33.6914	75.626	33.6914	75.4454	33.6914	75.6521	33.6914	75.3575	33.6914	75.6588	33.6914	75.2597	33.6914	75.6454	33.6914	75.1546	33.6914	75.6117	33.6914	75.0452	33.6914	75.5582	33.6914	74.9344	33.6914	75.4859	33.6914	74.825	33.6914	75.3968	33.6914	74.7201	33.6914	75.2935	33.6914	74.6223	33.6914	75.1797	33.6914	74.5344	33.6914	75.0593	33.6914	74.4588	33.6914	74.9368	33.6914	74.398	33.6914	74.8163	33.6914	74.354	33.6914	74.7021	33.6914	74.3286	33.6914	74.5978	33.6914	74.3234	33.6914	74.5068	33.6914	74.339	33.6914	74.4319	33.6914	74.3754
35.1562	76.1863	35.1562	76.1276	35.1562	76.2263	35.1562	76.0523	35.1562	76.2459	35.1562	75.9628	35.1562	76.2438	35.1562	75.8614	35.1562	76.2191	35.1562	75.7509	35.1562	76.1715	35.1562	75.6341	35.1562	76.1018	35.1562	75.514	35.1562	76.0115	35.1562	75.3935	35.1562	75.903	35.1562	75.2758	35.1562	75.7799	35.1562	75.1636	35.1562	75.6464	35.1562	75.0599	35.1562	75.5074	35.1562	74.9673	35.1562	75.3679	35.1562	74.8887	35.1562	75.2333	35.1562	74.8264	35.1562	75.1084	35.1562	74.7831	35.1562	74.9978	35.1562	74.7608	35.1562	74.9053	35.1562	74.7612	35.1562	74.8339	35.1562	74.7856
36.6211	76.8056	36.6211	76.7436	36.6211	76.8487	36.6211	76.6648	36.6211	76.8711	36.6211	76.5715	36.6211	76.8714	36.6211	76.4662	36.6211	76.8486	36.6211	76.3517	36.6211	76.8027	36.6211	76.231	36.6211	76.7339	36.6211	76.1069	36.6211	76.6439	36.6211	75.9828	36.6211	76.5351	36.6211	75.8618	36.6211	76.411	36.6211	75.7469	36.6211	76.276	36.6211	75.6414	36.6211	76.1349	36.6211	75.548	36.6211	75.993	36.6211	75.4698	36.6211	75.8556	36.6211	75.4093	36.6211	75.7275	36.6211	75.369	36.6211	75.613	36.6211	75.3508	36.6211	75.5161	36.6211	75.3563	36.6211	75.4397	36.6211	75.386
38.0859	77.4449	38.0859	77.384	38.0859	77.4861	38.0859	77.3056	38.0859	77.5059	38.0859	77.2119	38.0859	77.5031	38.0859	77.1054	38.0859	77.4766	38.0859	76.9887	38.0859	77.4264	38.0859	76.8649	38.0859	77.3528	38.0859	76.7367	38.0859	77.2572	38.0859	76.6074	38.0859	77.1422	38.0859	76.4799	38.0859	77.011	38.0859	76.3572	38.0859	76.8682	38.0859	76.2427	38.0859	76.7187	38.0859	76.1394	38.0859	76.5681	38.0859	76.0506	38.0859	76.422	38.0859	75.9796	38.0859	76.2857	38.0859	75.9295	38.0859	76.1642	38.0859	75.9031	38.0859	76.062	38.0859	75.9026	38.0859	75.9828	38.0859	75.9292
39.5508	78.0103	39.5508	77.9484	39.5508	78.0532	39.5508	77.8695	39.5508	78.0752	39.5508	77.7759	39.5508	78.075	39.5508	77.6703	39.5508	78.0517	39.5508	77.5552	39.5508	78.005	39.5508	77.4338	39.5508	77.9354	39.5508	77.3089	39.5508	77.8444	39.5508	77.1836	39.5508	77.7343	39.5508	77.0611	39.5508	77.6086	39.5508	76.9443	39.5508	77.4717	39.5508	76.8363	39.5508	77.3284	39.5508	76.7401	39.5508	77.184	39.5508	76.6587	39.5508	77.0438	39.5508	76.5948	39.5508	76.9127	39.5508	76.5514	39.5508	76.7955	39.5508	76.5306	39.5508	76.6961	39.5508	76.5345	39.5508	76.618	39.5508	76.5637
41.0156	78.8438	41.0156	78.7833	41.0156	78.8882	41.0156	78.7086	41.0156	78.9152	41.0156	78.6217	41.0156	78.9237	41.0156	78.5253	41.0156	78.9133	41.0156	78.4222	41.0156	78.884	41.0156	78.3155	41.0156	78.8362	41.0156	78.2082	41.0156	78.7711	41.0156	78.1036	41.0156	78.6904	41.0156	78.0044	41.0156	78.5967	41.0156	77.9135	41.0156	78.4929	41.0156	77.8333	41.0156	78.3824	41.0156	77.7659	41.0156	78.2687	41.0156	77.7133	41.0156	78.1557	41.0156	77.6774	41.0156	78.047	41.0156	77.6594	41.0156	77.946	41.0156	77.6605	41.0156	77.8561	41.0156	77.6813	41.0156	77.7805	41.0156	77.7217
42.4805	78.9978	42.4805	78.9319	42.4805	79.0462	42.4805	78.8506	42.4805	79.0754	42.4805	78.7564	42.4805	79.084	42.4805	78.6519	42.4805	79.0713	42.4805	78.5404	42.4805	79.0371	42.4805	78.425	42.4805	78.9822	42.4805	78.3092	42.4805	78.9081	42.4805	78.1967	42.4805	78.8174	42.4805	78.0908	42.4805	78.7133	42.4805	77.9949	42.4805	78.6	42.4805	77.912	42.4805	78.4817	42.4805	77.8444	42.4805	78.3627	42.4805	77.794	42.4805	78.2471	42.4805	77.7619	42.4805	78.1382	42.4805	77.7487	42.4805	78.0389	42.4805	77.7543	42.4805	77.9517	42.4805	77.7784	42.4805	77.8782	42.4805	77.82
43.9453	79.4818	43.9453	79.4157	43.9453	79.5294	43.9453	79.3334	43.9453	79.5571	43.9453	79.2372	43.9453	79.5635	43.9453	79.1298	43.9453	79.548	43.9453	79.0143	43.9453	79.5105	43.9453	78.8939	43.9453	79.452	43.9453	78.7722	43.9453	79.3738	43.9453	78.6528	43.9453	79.2786	43.9453	78.5392	43.9453	79.1696	43.9453	78.435	43.9453	79.0505	43.9453	78.3433	43.9453	78.9255	43.9453	78.2668	43.9453	78.7989	43.9453	78.2079	43.9453	78.675	43.9453	78.1682	43.9453	78.5574	43.9453	78.1488	43.9453	78.4498	43.9453	78.1501	43.9453	78.3552	43.9453	78.1722	43.9453	78.2761	43.9453	78.2146
45.4102	79.9806	45.4102	79.9161	45.4102	80.0262	45.4102	79.8347	45.4102	80.0515	45.4102	79.7387	45.4102	80.0554	45.4102	79.631	45.4102	80.0374	45.4102	79.5145	45.4102	79.9978	45.4102	79.3926	45.4102	79.9376	45.4102	79.2689	45.4102	79.8583	45.4102	79.147	45.4102	79.7627	45.4102	79.0305	45.4102	79.6537	45.4102	78.9231	45.4102	79.5352	45.4102	78.828	45.4102	79.411	45.4102	78.7482	45.4102	79.2849	45.4102	78.6861	45.4102	79.1609	45.4102	78.6439	45.4102	79.0424	45.4102	78.6227	45.4102	78.933	45.4102	78.6235	45.4102	78.8359	45.4102	78.6461	45.4102	78.7541	45.4102	78.6902
46.875	80.4238	46.875	80.3607	46.875	80.468	46.875	80.2809	46.875	80.4918	46.875	80.1869	46.875	80.494	46.875	80.0816	46.875	80.4744	46.875	79.9683	46.875	80.4332	46.875	79.8505	46.875	80.3717	46.875	79.7318	46.875	80.2919	46.875	79.616	46.875	80.1968	46.875	79.5067	46.875	80.0899	46.875	79.4073	46.875	79.9753	46.875	79.3207	46.875	79.857	46.875	79.2496	46.875	79.7391	46.875	79.1956	46.875	79.625	46.875	79.1601	46.875	79.5178	46.875	79.1436	46.875	79.4204	46.875	79.1463	46.875	79.3348	46.875	79.1676	46.875	79.2631	46.875	79.2069
48.3398	80.8555	48.3398	80.7902	48.3398	80.9018	48.3398	80.7079	48.3398	80.9273	48.3398	80.6113	48.3398	80.9311	48.3398	80.5035	48.3398	80.9128	48.3398	80.3878	48.3398	80.8727	48.3398	80.2679	48.3398	80.8122	48.3398	80.1477	48.3398	80.7333	48.3398	80.0312	48.3398	80.639	48.3398	79.9221	48.3398	80.5329	48.3398	79.824	48.3398	80.419	48.3398	79.7399	48.3398	80.3016	48.3398	79.672	48.3398	80.1845	48.3398	79.6222	48.3398	80.0712	48.3398	79.5911	48.3398	79.9649	48.3398	79.5791	48.3398	79.868	48.3398	79.5859	48.3398	79.7824	48.3398	79.6106	48.3398	79.7101	48.3398	79.6524
51.2695	81.754	51.2695	81.6885	51.2695	81.7975	51.2695	81.603	51.2695	81.8177	51.2695	81.5	51.2695	81.814	51.2695	81.383	51.2695	81.7867	51.2695	81.2556	51.2695	81.7367	51.2695	81.1222	51.2695	81.6657	51.2695	80.9873	51.2695	81.5765	51.2695	80.8558	51.2695	81.4726	51.2695	80.7323	51.2695	81.3579	51.2695	80.6213	51.2695	81.2368	51.2695	80.5265	51.2695	81.1136	51.2695	80.451	51.2695	80.9923	51.2695	80.3968	51.2695	80.8761	51.2695	80.3647	51.2695	80.7675	51.2695	80.3546	51.2695	80.6684	51.2695	80.3652	51.2695	80.5802	51.2695	80.395	51.2695	80.5042	51.2695	80.4419
52.7344	82.1748	52.7344	82.1115	52.7344	82.216	52.7344	82.0282	52.7344	82.2337	52.7344	81.9276	52.7344	82.2271	52.7344	81.8132	52.7344	82.1967	52.7344	81.6886	52.7344	82.1434	52.7344	81.5581	52.7344	82.0695	52.7344	81.4259	52.7344	81.9779	52.7344	81.2965	52.7344	81.8721	52.7344	81.1742	52.7344	81.7563	52.7344	81.0631	52.7344	81.6348	52.7344	80.9669	52.7344	81.5117	52.7344	80.8884	52.7344	81.3906	52.7344	80.8298	52.7344	81.2748	52.7344	80.7923	52.7344	81.1665	52.7344	80.776	52.7344	81.0678	52.7344	80.7806	52.7344	80.9807	52.7344	80.8049	52.7344	80.9066	52.7344	80.8475
54.1992	82.4894	54.1992	82.4307	54.1992	82.5262	54.1992	82.3524	54.1992	82.5396	54.1992	82.2572	54.1992	82.5293	54.1992	82.1485	54.1992	82.4956	54.1992	82.0303	54.1992	82.44	54.1992	81.9068	54.1992	82.365	54.1992	81.7822	54.1992	82.2739	54.1992	81.6612	54.1992	82.171	54.1992	81.5479	54.1992	82.0606	54.1992	81.4464	54.1992	81.9475	54.1992	81.36	54.1992	81.8356	54.1992	81.2913	54.1992	81.7285	54.1992	81.2418	54.1992	81.6284	54.1992	81.2121	54.1992	81.537	54.1992	81.2015	54.1992	81.4549	54.1992	81.2089	54.1992	81.3827	54.1992	81.2325	54.1992	81.3209	54.1992	81.2704
55.6641	82.8596	55.6641	82.8003	55.6641	82.8972	55.6641	82.7214	55.6641	82.9116	55.6641	82.6258	55.6641	82.9021	55.6641	82.5169	55.6641	82.8691	55.6641	82.3986	55.6641	82.8138	55.6641	82.2751	55.6641	82.7388	55.6641	82.151	55.6641	82.6473	55.6641	82.0308	55.6641	82.5436	55.6641	81.9191	55.6641	82.4326	55.6641	81.82	55.6641	82.3193	55.6641	81.7367	55.6641	82.2082	55.6641	81.6719	55.6641	82.1031	55.6641	81.6267	55.6641	82.0065	55.6641	81.6014	55.6641	81.9195	55.6641	81.5949	55.6641	81.8425	55.6641	81.6054	55.6641	81.775	55.6641	81.6307	55.6641	81.7169	55.6641	81.6684
58.5938	83.5556	58.5938	83.4904	58.5938	83.5975	58.5938	83.4041	58.5938	83.6145	58.5938	83.2997	58.5938	83.6059	58.5938	83.1805	58.5938	83.5717	58.5938	83.0505	58.5938	83.5131	58.5938	82.9142	58.5938	83.4322	58.5938	82.7762	58.5938	83.3324	58.5938	82.6415	58.5938	83.2178	58.5938	82.5147	58.5938	83.0936	58.5938	82.4005	58.5938	82.965	58.5938	82.3026	58.5938	82.8371	58.5938	82.2241	58.5938	82.714	58.5938	82.1669	58.5938	82.599	58.5938	82.1319	58.5938	82.4942	58.5938	82.1185	58.5938	82.4006	58.5938	82.1256	58.5938	82.3188	58.5938	82.1511	58.5938	82.2493	58.5938	82.1929
60.0586	83.9261	60.0586	83.8591	60.0586	83.9699	60.0586	83.7715	60.0586	83.9887	60.0586	83.6665	60.0586	83.9816	60.0586	83.5478	60.0586	83.9489	60.0586	83.4198	60.0586	83.8918	60.0586	83.287	60.0586	83.8128	60.0586	83.1542	60.0586	83.7155	60.0586	83.0262	60.0586	83.6045	60.0586	82.9076	60.0586	83.4851	60.0586	82.8026	60.0586	83.3627	60.0586	82.7145	60.0586	83.2422	60.0586	82.6459	60.0586	83.1274	60.0586	82.5979	60.0586	83.0211	60.0586	82.5708	60.0586	82.9247	60.0586	82.5637	60.0586	82.8387	60.0586	82.5749	60.0586	82.7631	60.0586	82.6024	60.0586	82.698	60.0586	82.644
62.9883	84.5865	62.9883	84.5169	62.9883	84.6315	62.9883	84.4253	62.9883	84.6502	62.9883	84.3151	62.9883	84.6417	62.9883	84.1903	62.9883	84.6062	62.9883	84.0554	62.9883	84.5451	62.9883	83.9155	62.9883	84.4611	62.9883	83.7758	62.9883	84.358	62.9883	83.6417	62.9883	84.2408	62.9883	83.5183	62.9883	84.1152	62.9883	83.4102	62.9883	83.9871	62.9883	83.3208	62.9883	83.8618	62.9883	83.2526	62.9883	83.7436	62.9883	83.2066	62.9883	83.6354	62.9883	83.1824	62.9883	83.5387	62.9883	83.1783	62.9883	83.4535	62.9883	83.1921	62.9883	83.3794	62.9883	83.2211	62.9883	83.3159	62.9883	83.2629
64.4531	84.9046	64.4531	84.8301	64.4531	84.9538	64.4531	84.7329	64.4531	84.9757	64.4531	84.6166	64.4531	84.9696	64.4531	84.4853	64.4531	84.9357	64.4531	84.3439	64.4531	84.8754	64.4531	84.1978	64.4531	84.7914	64.4531	84.0527	64.4531	84.6875	64.4531	83.9142	64.4531	84.5687	64.4531	83.7876	64.4531	84.4408	64.4531	83.6778	64.4531	84.3096	64.4531	83.5883	64.4531	84.1807	64.4531	83.5214	64.4531	84.0585	64.4531	83.4778	64.4531	83.9461	64.4531	83.4569	64.4531	83.8451	64.4531	83.4566	64.4531	83.7557	64.4531	83.4744	64.4531	83.6776	64.4531	83.5074	64.4531	83.6101	64.4531	83.5532
67.3828	85.4702	67.3828	85.3868	67.3828	85.5272	67.3828	85.2798	67.3828	85.5562	67.3828	85.1528	67.3828	85.5565	67.3828	85.0102	67.3828	85.5289	67.3828	84.8574	67.3828	85.4748	67.3828	84.7001	67.3828	85.3971	67.3828	84.5446	67.3828	85.2998	67.3828	84.3973	67.3828	85.1876	67.3828	84.2643	67.3828	85.0657	67.3828	84.151	67.3828	84.9395	67.3828	84.0616	67.3828	84.8135	67.3828	83.9988	67.3828	84.6916	67.3828	83.9633	67.3828	84.5761	67.3828	83.9541	67.3828	84.4683	67.3828	83.9686	67.3828	84.3686	67.3828	84.0033	67.3828	84.2769	67.3828	84.0545	67.3828	84.1934	67.3828	84.1187
68.8477	85.7282	68.8477	85.6477	68.8477	85.7828	68.8477	85.5437	68.8477	85.8101	68.8477	85.4195	68.8477	85.8097	68.8477	85.2793	68.8477	85.7822	68.8477	85.128	68.8477	85.7296	68.8477	84.9713	68.8477	85.6545	68.8477	84.8153	68.8477	85.561	68.8477	84.6664	68.8477	85.4536	68.8477	84.531	68.8477	85.3374	68.8477	84.4149	68.8477	85.2172	68.8477	84.3229	68.8477	85.0972	68.8477	84.2583	68.8477	84.9803	68.8477	84.2222	68.8477	84.8684	68.8477	84.2142	68.8477	84.7623	68.8477	84.2318	68.8477	84.662	68.8477	84.2712	68.8477	84.5676	68.8477	84.3283	68.8477	84.4794	68.8477	84.3989
