"SPL Vertical"
"On-Axis"		"10°"		"-10°"		"20°"		"-20°"		"30°"		"-30°"		"40°"		"-40°"		"50°"		"-50°"		"60°"		"-60°"		"70°"		"-70°"		"80°"		"-80°"		"90°"		"-90°"		"100°"		"-100°"		"110°"		"-110°"		"120°"		"-120°"		"130°"		"-130°"		"140°"		"-140°"		"150°"		"-150°"		"160°"		"-160°"		"170°"		"-170°"		"180°"
"Frequency [Hz]"	"Sound Pessure Level [dB]  / [2.83V 1m] "	"Frequency [Hz]"	"Sound Pessure Level [dB]  / [2.83V 1m] "	"Frequency [Hz]"	"Sound Pessure Level [dB]  / [2.83V 1m] "	"Frequency [Hz]"	"Sound Pessure Level [dB]  / [2.83V 1m] "	"Frequency [Hz]"	"Sound Pessure Level [dB]  / [2.83V 1m] "	"Frequency [Hz]"	"Sound Pessure Level [dB]  / [2.83V 1m] "	"Frequency [Hz]"	"Sound Pessure Level [dB]  / [2.83V 1m] "	"Frequency [Hz]"	"Sound Pessure Level [dB]  / [2.83V 1m] "	"Frequency [Hz]"	"Sound Pessure Level [dB]  / [2.83V 1m] "	"Frequency [Hz]"	"Sound Pessure Level [dB]  / [2.83V 1m] "	"Frequency [Hz]"	"Sound Pessure Level [dB]  / [2.83V 1m] "	"Frequency [Hz]"	"Sound Pessure Level [dB]  / [2.83V 1m] "	"Frequency [Hz]"	"Sound Pessure Level [dB]  / [2.83V 1m] "	"Frequency [Hz]"	"Sound Pessure Level [dB]  / [2.83V 1m] "	"Frequency [Hz]"	"Sound Pessure Level [dB]  / [2.83V 1m] "	"Frequency [Hz]"	"Sound Pessure Level [dB]  / [2.83V 1m] "	"Frequency [Hz]"	"Sound Pessure Level [dB]  / [2.83V 1m] "	"Frequency [Hz]"	"Sound Pessure Level [dB]  / [2.83V 1m] "	"Frequency [Hz]"	"Sound Pessure Level [dB]  / [2.83V 1m] "	"Frequency [Hz]"	"Sound Pessure Level [dB]  / [2.83V 1m] "	"Frequency [Hz]"	"Sound Pessure Level [dB]  / [2.83V 1m] "	"Frequency [Hz]"	"Sound Pessure Level [dB]  / [2.83V 1m] "	"Frequency [Hz]"	"Sound Pessure Level [dB]  / [2.83V 1m] "	"Frequency [Hz]"	"Sound Pessure Level [dB]  / [2.83V 1m] "	"Frequency [Hz]"	"Sound Pessure Level [dB]  / [2.83V 1m] "	"Frequency [Hz]"	"Sound Pessure Level [dB]  / [2.83V 1m] "	"Frequency [Hz]"	"Sound Pessure Level [dB]  / [2.83V 1m] "	"Frequency [Hz]"	"Sound Pessure Level [dB]  / [2.83V 1m] "	"Frequency [Hz]"	"Sound Pessure Level [dB]  / [2.83V 1m] "	"Frequency [Hz]"	"Sound Pessure Level [dB]  / [2.83V 1m] "	"Frequency [Hz]"	"Sound Pessure Level [dB]  / [2.83V 1m] "	"Frequency [Hz]"	"Sound Pessure Level [dB]  / [2.83V 1m] "	"Frequency [Hz]"	"Sound Pessure Level [dB]  / [2.83V 1m] "	"Frequency [Hz]"	"Sound Pessure Level [dB]  / [2.83V 1m] "	"Frequency [Hz]"	"Sound Pessure Level [dB]  / [2.83V 1m] "	"Frequency [Hz]"	"Sound Pessure Level [dB]  / [2.83V 1m] "
20.5078	38.1485	20.5078	36.8295	20.5078	38.931	20.5078	35.0201	20.5078	39.1993	20.5078	33.3897	20.5078	38.929	20.5078	33.9451	20.5078	38.0097	20.5078	36.7699	20.5078	36.1846	20.5078	39.8635	20.5078	32.999	20.5078	42.54	20.5078	29.8464	20.5078	44.784	20.5078	34.1233	20.5078	46.6764	20.5078	39.3532	20.5078	48.2857	20.5078	43.1737	20.5078	49.6593	20.5078	46.0474	20.5078	50.8267	20.5078	48.2796	20.5078	51.8045	20.5078	50.0326	20.5078	52.5995	20.5078	51.3978	20.5078	53.2108	20.5078	52.4312	20.5078	53.6323	20.5078	53.1693	20.5078	53.8535	20.5078	53.6389	20.5078	53.8609
21.9727	45.3588	21.9727	44.8692	21.9727	45.6736	21.9727	44.2571	21.9727	45.7878	21.9727	43.6335	21.9727	45.6858	21.9727	43.2044	21.9727	45.3602	21.9727	43.2433	21.9727	44.8252	21.9727	43.9123	21.9727	44.1612	21.9727	45.1018	21.9727	43.6084	21.9727	46.5484	21.9727	43.6193	21.9727	48.0341	21.9727	44.5458	21.9727	49.4394	21.9727	46.1791	21.9727	50.7116	21.9727	48.0276	21.9727	51.8292	21.9727	49.7676	21.9727	52.7828	21.9727	51.2705	21.9727	53.566	21.9727	52.5018	21.9727	54.1712	21.9727	53.4612	21.9727	54.5894	21.9727	54.1588	21.9727	54.8097	21.9727	54.6074	21.9727	54.82
23.4375	46.7893	23.4375	46.279	23.4375	47.1373	23.4375	45.6668	23.4375	47.2919	23.4375	45.0737	23.4375	47.2343	23.4375	44.7089	23.4375	46.9546	23.4375	44.8237	23.4375	46.4629	23.4375	45.5375	23.4375	45.8289	23.4375	46.7216	23.4375	45.2655	23.4375	48.1299	23.4375	45.1937	23.4375	49.5668	23.4375	45.9926	23.4375	50.9248	23.4375	47.5303	23.4375	52.1555	23.4375	49.3362	23.4375	53.2384	23.4375	51.0647	23.4375	54.1639	23.4375	52.5685	23.4375	54.9247	23.4375	53.8039	23.4375	55.513	23.4375	54.7674	23.4375	55.919	23.4375	55.4683	23.4375	56.1309	23.4375	55.9197	23.4375	56.1358
24.9023	47.7017	24.9023	47.1435	24.9023	48.0708	24.9023	46.4602	24.9023	48.219	24.9023	45.7902	24.9023	48.1254	24.9023	45.3879	24.9023	47.7737	24.9023	45.5597	24.9023	47.1627	24.9023	46.4188	24.9023	46.3516	24.9023	47.7638	24.9023	45.5786	24.9023	49.2952	24.9023	45.3953	24.9023	50.8099	24.9023	46.3237	24.9023	52.2118	24.9023	48.1209	24.9023	53.4638	24.9023	50.1458	24.9023	54.5536	24.9023	52.0177	24.9023	55.4766	24.9023	53.6116	24.9023	56.2285	24.9023	54.9065	24.9023	56.8033	24.9023	55.9125	24.9023	57.1922	24.9023	56.6466	24.9023	57.3844	24.9023	57.1261	24.9023	57.367
26.3672	50.322	26.3672	49.8941	26.3672	50.6021	26.3672	49.3655	26.3672	50.7087	26.3672	48.8264	26.3672	50.6264	26.3672	48.4315	26.3672	50.348	26.3672	48.3846	26.3672	49.8843	26.3672	48.8343	26.3672	49.2945	26.3672	49.7524	26.3672	48.7481	26.3672	50.9617	26.3672	48.5766	26.3672	52.2718	26.3672	49.1247	26.3672	53.5538	26.3672	50.3819	26.3672	54.7382	26.3672	51.988	26.3672	55.791	26.3672	53.6014	26.3672	56.6945	26.3672	55.0446	26.3672	57.4372	26.3672	56.2509	26.3672	58.0091	26.3672	57.2032	26.3672	58.3996	26.3672	57.9037	26.3672	58.5968	26.3672	58.3616	26.3672	58.5884
27.832	52.6535	27.832	52.223	27.832	52.9411	27.832	51.6833	27.832	53.0677	27.832	51.0998	27.832	53.0219	27.832	50.5913	27.832	52.7982	27.832	50.3357	27.832	52.4029	27.832	50.5105	27.832	51.874	27.832	51.1701	27.832	51.3215	27.832	52.1985	27.832	50.977	27.832	53.4071	27.832	51.1515	27.832	54.6412	27.832	51.9899	27.832	55.8069	27.832	53.2993	27.832	56.8548	27.832	54.7549	27.832	57.7589	27.832	56.1276	27.832	58.5037	27.832	57.3073	27.832	59.0769	27.832	58.2532	27.832	59.467	27.832	58.9557	27.832	59.6622	27.832	59.4183	27.832	59.65
29.2969	53.4546	29.2969	53.0491	29.2969	53.7322	29.2969	52.5608	29.2969	53.8569	29.2969	52.071	29.2969	53.8148	29.2969	51.7113	29.2969	53.6012	29.2969	51.649	29.2969	53.2285	29.2969	52.0105	29.2969	52.7485	29.2969	52.7895	29.2969	52.2937	29.2969	53.8539	29.2969	52.1109	29.2969	55.0413	29.2969	52.4764	29.2969	56.2288	29.2969	53.4523	29.2969	57.3425	29.2969	54.8097	29.2969	58.3423	29.2969	56.2543	29.2969	59.2055	29.2969	57.5939	29.2969	59.9173	29.2969	58.7383	29.2969	60.4657	29.2969	59.6544	29.2969	60.8387	29.2969	60.335	29.2969	61.0243	29.2969	60.784	29.2969	61.0101
30.7617	54.3308	30.7617	53.9791	30.7617	54.5634	30.7617	53.5595	30.7617	54.6478	30.7617	53.1592	30.7617	54.5693	30.7617	52.9091	30.7617	54.3267	30.7617	52.9591	30.7617	53.9416	30.7617	53.4045	30.7617	53.4839	30.7617	54.2192	30.7617	53.1106	30.7617	55.2774	30.7617	53.0763	30.7617	56.4362	30.7617	53.6082	30.7617	57.5883	30.7617	54.6915	30.7617	58.6678	30.7617	56.0793	30.7617	59.6374	30.7617	57.511	30.7617	60.475	30.7617	58.8261	30.7617	61.1655	30.7617	59.9494	30.7617	61.6961	30.7617	60.8519	30.7617	62.0546	30.7617	61.5263	30.7617	62.2287	30.7617	61.9753	30.7617	62.206
32.2266	57.0466	32.2266	56.7767	32.2266	57.2367	32.2266	56.4638	32.2266	57.3259	32.2266	56.1666	32.2266	57.3052	32.2266	55.9674	32.2266	57.1779	32.2266	55.9612	32.2266	56.9645	32.2266	56.2221	32.2266	56.7148	32.2266	56.7657	32.2266	56.5217	32.2266	57.5395	32.2266	56.5219	32.2266	58.453	32.2266	56.8486	32.2266	59.416	32.2266	57.5437	32.2266	60.3585	32.2266	58.5179	32.2266	61.2321	32.2266	59.6142	32.2266	62.0041	32.2266	60.6905	32.2266	62.6514	32.2266	61.6527	32.2266	63.1557	32.2266	62.4489	32.2266	63.5015	32.2266	63.054	32.2266	63.6749	32.2266	63.4589	32.2266	63.6639
33.6914	58.4605	33.6914	58.2174	33.6914	58.632	33.6914	57.9388	33.6914	58.7109	33.6914	57.68	33.6914	58.6882	33.6914	57.5169	33.6914	58.5673	33.6914	57.5337	33.6914	58.369	33.6914	57.7953	33.6914	58.1424	33.6914	58.3155	33.6914	57.9765	33.6914	59.0492	33.6914	57.9982	33.6914	59.9166	33.6914	58.3283	33.6914	60.8357	33.6914	59.0034	33.6914	61.7402	33.6914	59.942	33.6914	62.5826	33.6914	60.9992	33.6914	63.33	33.6914	62.041	33.6914	63.9583	33.6914	62.9761	33.6914	64.4487	33.6914	63.7522	33.6914	64.785	33.6914	64.3435	33.6914	64.9534	33.6914	64.7401	33.6914	64.9415
35.1562	60.1534	35.1562	59.9036	35.1562	60.3407	35.1562	59.6297	35.1562	60.4413	35.1562	59.3873	35.1562	60.4429	35.1562	59.2477	35.1562	60.3458	35.1562	59.2863	35.1562	60.1679	35.1562	59.5571	35.1562	59.9539	35.1562	60.0676	35.1562	59.7863	35.1562	60.7746	35.1562	59.7836	35.1562	61.6056	35.1562	60.0626	35.1562	62.4859	35.1562	60.669	35.1562	63.3538	35.1562	61.5385	35.1562	64.1641	35.1562	62.5393	35.1562	64.8839	35.1562	63.5415	35.1562	65.4888	35.1562	64.452	35.1562	65.9595	35.1562	65.2155	35.1562	66.2792	35.1562	65.8031	35.1562	66.4338	35.1562	66.2023	35.1562	66.4111
36.6211	61.8894	36.6211	61.6786	36.6211	62.0521	36.6211	61.4542	36.6211	62.1444	36.6211	61.264	36.6211	62.1555	36.6211	61.1664	36.6211	62.0869	36.6211	61.2215	36.6211	61.9565	36.6211	61.4722	36.6211	61.8058	36.6211	61.927	36.6211	61.7062	36.6211	62.5557	36.6211	61.7533	36.6211	63.3022	36.6211	62.0375	36.6211	64.1042	36.6211	62.5934	36.6211	64.9063	36.6211	63.3731	36.6211	65.6645	36.6211	64.273	36.6211	66.3455	36.6211	65.1832	36.6211	66.9233	36.6211	66.019	36.6211	67.3771	36.6211	66.7253	36.6211	67.689	36.6211	67.271	36.6211	67.8444	36.6211	67.641	36.6211	67.8311
38.0859	63.4011	38.0859	63.2124	38.0859	63.5516	38.0859	63.0173	38.0859	63.6428	38.0859	62.8595	38.0859	63.6648	38.0859	62.7909	38.0859	63.6193	38.0859	62.8632	38.0859	63.5232	38.0859	63.1129	38.0859	63.4139	38.0859	63.547	38.0859	63.3535	38.0859	64.1398	38.0859	63.4236	38.0859	64.8429	38.0859	63.7005	38.0859	65.6008	38.0859	64.2162	38.0859	66.3625	38.0859	64.9349	38.0859	67.0861	38.0859	65.7701	38.0859	67.7386	38.0859	66.6243	38.0859	68.2939	38.0859	67.4169	38.0859	68.7306	38.0859	68.0929	38.0859	69.0307	38.0859	68.619	38.0859	69.1791	38.0859	68.978	38.0859	69.1641
39.5508	64.9725	39.5508	64.8236	39.5508	65.0944	39.5508	64.676	39.5508	65.1705	39.5508	64.567	39.5508	65.1922	39.5508	64.5398	39.5508	65.1619	39.5508	64.6357	39.5508	65.0965	39.5508	64.8836	39.5508	65.0304	39.5508	65.2894	39.5508	65.0178	39.5508	65.8336	39.5508	65.126	39.5508	66.4777	39.5508	65.4152	39.5508	67.1754	39.5508	65.9086	39.5508	67.8818	39.5508	66.5762	39.5508	68.5578	39.5508	67.347	39.5508	69.1715	39.5508	68.1377	39.5508	69.6966	39.5508	68.8763	39.5508	70.1111	39.5508	69.5105	39.5508	70.3968	39.5508	70.007	39.5508	70.5382	39.5508	70.3473	39.5508	70.5241
41.0156	66.9563	41.0156	66.8416	41.0156	67.0515	41.0156	66.7312	41.0156	67.1118	41.0156	66.6561	41.0156	67.1312	41.0156	66.6518	41.0156	67.1146	41.0156	66.7523	41.0156	67.0797	41.0156	66.9824	41.0156	67.0598	41.0156	67.3497	41.0156	67.1032	41.0156	67.8414	41.0156	67.2653	41.0156	68.4285	41.0156	67.5909	41.0156	69.0727	41.0156	68.0919	41.0156	69.7344	41.0156	68.7374	41.0156	70.3772	41.0156	69.4651	41.0156	70.9696	41.0156	70.2029	41.0156	71.4848	41.0156	70.8873	41.0156	71.8999	41.0156	71.4706	41.0156	72.1954	41.0156	71.9217	41.0156	72.3551	41.0156	72.2227	41.0156	72.3667
42.4805	68.4329	42.4805	68.3146	42.4805	68.5381	42.4805	68.2042	42.4805	68.6165	42.4805	68.1292	42.4805	68.6624	42.4805	68.1207	42.4805	68.6788	42.4805	68.2086	42.4805	68.6795	42.4805	68.4147	42.4805	68.6899	42.4805	68.7464	42.4805	68.747	42.4805	69.1934	42.4805	68.8934	42.4805	69.7304	42.4805	69.1659	42.4805	70.3232	42.4805	69.5795	42.4805	70.9352	42.4805	70.1178	42.4805	71.532	42.4805	70.7368	42.4805	72.0828	42.4805	71.3788	42.4805	72.5614	42.4805	71.9875	42.4805	72.9453	42.4805	72.517	42.4805	73.2158	42.4805	72.9343	42.4805	73.3577	42.4805	73.2188	42.4805	73.3605
43.9453	69.8671	43.9453	69.768	43.9453	69.9624	43.9453	69.6842	43.9453	70.0408	43.9453	69.6394	43.9453	70.0965	43.9453	69.6595	43.9453	70.1318	43.9453	69.7685	43.9453	70.1586	43.9453	69.9828	43.9453	70.1987	43.9453	70.3068	43.9453	70.2834	43.9453	70.731	43.9453	70.448	43.9453	71.2341	43.9453	70.7223	43.9453	71.7871	43.9453	71.1185	43.9453	72.3584	43.9453	71.623	43.9453	72.9171	43.9453	72.1987	43.9453	73.435	43.9453	72.7958	43.9453	73.887	43.9453	73.3636	43.9453	74.2513	43.9453	73.8593	43.9453	74.5091	43.9453	74.251	43.9453	74.6457	43.9453	74.5181	43.9453	74.6503
45.4102	71.6468	45.4102	71.5578	45.4102	71.7348	45.4102	71.4838	45.4102	71.8107	45.4102	71.4448	45.4102	71.8689	45.4102	71.462	45.4102	71.9112	45.4102	71.5555	45.4102	71.9467	45.4102	71.7398	45.4102	71.9934	45.4102	72.0204	45.4102	72.0768	45.4102	72.3915	45.4102	72.2263	45.4102	72.837	45.4102	72.4679	45.4102	73.3333	45.4102	72.8141	45.4102	73.8526	45.4102	73.2567	45.4102	74.3665	45.4102	73.7669	45.4102	74.8476	45.4102	74.3024	45.4102	75.2712	45.4102	74.8174	45.4102	75.615	45.4102	75.2712	45.4102	75.8603	45.4102	75.632	45.4102	75.9919	45.4102	75.8786	45.4102	75.9995
46.875	73.3555	46.875	73.2741	46.875	73.4366	46.875	73.2064	46.875	73.5076	46.875	73.1692	46.875	73.5639	46.875	73.1813	46.875	73.6065	46.875	73.26	46.875	73.6436	46.875	73.4189	46.875	73.6905	46.875	73.6641	46.875	73.769	46.875	73.9927	46.875	73.9048	46.875	74.3923	46.875	74.121	46.875	74.843	46.875	74.43	46.875	75.3202	46.875	74.827	46.875	75.7974	46.875	75.2882	46.875	76.2484	46.875	75.7767	46.875	76.6485	46.875	76.2508	46.875	76.9756	46.875	76.6715	46.875	77.2107	46.875	77.0076	46.875	77.3385	46.875	77.2373	46.875	77.3487
48.3398	74.9307	48.3398	74.8537	48.3398	75.0078	48.3398	74.7896	48.3398	75.0763	48.3398	74.7537	48.3398	75.132	48.3398	74.7629	48.3398	75.1762	48.3398	74.8335	48.3398	75.2163	48.3398	74.9779	48.3398	75.2662	48.3398	75.2025	48.3398	75.3456	48.3398	75.5055	48.3398	75.4773	48.3398	75.8765	48.3398	75.6817	48.3398	76.2979	48.3398	75.9703	48.3398	76.7471	48.3398	76.3391	48.3398	77.1992	48.3398	76.7677	48.3398	77.629	48.3398	77.2229	48.3398	78.0125	48.3398	77.6662	48.3398	78.3276	48.3398	78.0609	48.3398	78.5555	48.3398	78.3766	48.3398	78.6813	48.3398	78.5919	48.3398	78.6947
51.2695	77.8996	51.2695	77.8408	51.2695	77.9657	51.2695	77.7986	51.2695	78.0324	51.2695	77.7842	51.2695	78.0967	51.2695	77.8098	51.2695	78.1593	51.2695	77.8869	51.2695	78.2256	51.2695	78.0246	51.2695	78.3055	51.2695	78.2275	51.2695	78.4125	51.2695	78.4948	51.2695	78.5619	51.2695	78.8195	51.2695	78.767	51.2695	79.1884	51.2695	79.035	51.2695	79.584	51.2695	79.3623	51.2695	79.9857	51.2695	79.7339	51.2695	80.3717	51.2695	80.1247	51.2695	80.7201	51.2695	80.5041	51.2695	81.0105	51.2695	80.8415	51.2695	81.2247	51.2695	81.1103	51.2695	81.3482	51.2695	81.2909	51.2695	81.3714
52.7344	79.2359	52.7344	79.1815	52.7344	79.2997	52.7344	79.1448	52.7344	79.3673	52.7344	79.1353	52.7344	79.4356	52.7344	79.1635	52.7344	79.5052	52.7344	79.2391	52.7344	79.5804	52.7344	79.3699	52.7344	79.669	52.7344	79.5602	52.7344	79.7821	52.7344	79.8094	52.7344	79.9322	52.7344	80.1116	52.7344	80.1304	52.7344	80.4554	52.7344	80.3827	52.7344	80.8254	52.7344	80.6864	52.7344	81.2028	52.7344	81.0288	52.7344	81.5673	52.7344	81.3881	52.7344	81.8982	52.7344	81.7371	52.7344	82.1757	52.7344	82.0477	52.7344	82.3822	52.7344	82.2949	52.7344	82.5036	52.7344	82.4596	52.7344	82.5305
54.1992	80.4134	54.1992	80.364	54.1992	80.4751	54.1992	80.3337	54.1992	80.544	54.1992	80.3307	54.1992	80.6173	54.1992	80.3634	54.1992	80.6953	54.1992	80.4398	54.1992	80.7809	54.1992	80.5664	54.1992	80.8803	54.1992	80.7466	54.1992	81.0023	54.1992	80.9799	54.1992	81.1568	54.1992	81.2615	54.1992	81.3525	54.1992	81.5819	54.1992	81.5939	54.1992	81.9274	54.1992	81.8788	54.1992	82.2814	54.1992	82.196	54.1992	82.6253	54.1992	82.5266	54.1992	82.9396	54.1992	82.8464	54.1992	83.2055	54.1992	83.13	54.1992	83.406	54.1992	83.3543	54.1992	83.5274	54.1992	83.5013	54.1992	83.5602
55.6641	81.34	55.6641	81.2903	55.6641	81.4028	55.6641	81.2598	55.6641	81.4742	55.6641	81.2555	55.6641	81.5516	55.6641	81.2849	55.6641	81.6346	55.6641	81.3549	55.6641	81.7256	55.6641	81.471	55.6641	81.8298	55.6641	81.6366	55.6641	81.9541	55.6641	81.8516	55.6641	82.1069	55.6641	82.112	55.6641	82.2954	55.6641	82.4098	55.6641	82.5233	55.6641	82.7329	55.6641	82.7882	55.6641	83.0663	55.6641	83.0805	55.6641	83.3926	55.6641	83.3835	55.6641	83.6933	55.6641	83.6754	55.6641	83.9504	55.6641	83.933	55.6641	84.1473	55.6641	84.1348	55.6641	84.2703	55.6641	84.2641	55.6641	84.3103
58.5938	82.6325	58.5938	82.5907	58.5938	82.6898	58.5938	82.5686	58.5938	82.7596	58.5938	82.5706	58.5938	82.8399	58.5938	82.6018	58.5938	82.9301	58.5938	82.6669	58.5938	83.0311	58.5938	82.7699	58.5938	83.1451	58.5938	82.9133	58.5938	83.276	58.5938	83.0974	58.5938	83.4279	58.5938	83.3198	58.5938	83.6049	58.5938	83.5748	58.5938	83.8086	58.5938	83.8534	58.5938	84.037	58.5938	84.1435	58.5938	84.2831	58.5938	84.4307	58.5938	84.5347	58.5938	84.6988	58.5938	84.7752	58.5938	84.9316	58.5938	84.986	58.5938	85.1136	58.5938	85.1491	58.5938	85.2321	58.5938	85.2498	58.5938	85.2785
60.0586	82.9529	60.0586	82.9136	60.0586	83.0089	60.0586	82.8942	60.0586	83.0789	60.0586	82.8984	60.0586	83.1612	60.0586	82.9302	60.0586	83.2551	60.0586	82.9935	60.0586	83.3609	60.0586	83.0915	60.0586	83.4801	60.0586	83.2264	60.0586	83.6151	60.0586	83.3984	60.0586	83.7687	60.0586	83.6056	60.0586	83.9433	60.0586	83.8431	60.0586	84.1395	60.0586	84.1033	60.0586	84.355	60.0586	84.3754	60.0586	84.5835	60.0586	84.6461	60.0586	84.8141	60.0586	84.9008	60.0586	85.0323	60.0586	85.1238	60.0586	85.2216	60.0586	85.3005	60.0586	85.3658	60.0586	85.4187	60.0586	85.4515	60.0586	85.4701
62.9883	83.1587	62.9883	83.1235	62.9883	83.2125	62.9883	83.1087	62.9883	83.2831	62.9883	83.1162	62.9883	83.3692	62.9883	83.1484	62.9883	83.4696	62.9883	83.2073	62.9883	83.5834	62.9883	83.2949	62.9883	83.7101	62.9883	83.4124	62.9883	83.8497	62.9883	83.5601	62.9883	84.0022	62.9883	83.7369	62.9883	84.1675	62.9883	83.9395	62.9883	84.3447	62.9883	84.1623	62.9883	84.5314	62.9883	84.3973	62.9883	84.7226	62.9883	84.6339	62.9883	84.9106	62.9883	84.8595	62.9883	85.0846	62.9883	85.0609	62.9883	85.232	62.9883	85.2247	62.9883	85.3402	62.9883	85.34	62.9883	85.3981	62.9883	85.3988
64.4531	83.1154	64.4531	83.0818	64.4531	83.1685	64.4531	83.069	64.4531	83.2399	64.4531	83.0782	64.4531	83.3282	64.4531	83.1109	64.4531	83.432	64.4531	83.1685	64.4531	83.5501	64.4531	83.2522	64.4531	83.6809	64.4531	83.3629	64.4531	83.8234	64.4531	83.5009	64.4531	83.9764	64.4531	83.6652	64.4531	84.1387	64.4531	83.8532	64.4531	84.3087	64.4531	84.0602	64.4531	84.4838	64.4531	84.2792	64.4531	84.6595	64.4531	84.5007	64.4531	84.8291	64.4531	84.7136	64.4531	84.9836	64.4531	84.9053	64.4531	85.1121	64.4531	85.0636	64.4531	85.2036	64.4531	85.1778	64.4531	85.2485	64.4531	85.2405
67.3828	82.9647	67.3828	82.9356	67.3828	83.0142	67.3828	82.9271	67.3828	83.0835	67.3828	82.9396	67.3828	83.1715	67.3828	82.973	67.3828	83.2766	67.3828	83.0278	67.3828	83.3969	67.3828	83.1042	67.3828	83.5298	67.3828	83.2023	67.3828	83.6725	67.3828	83.3221	67.3828	83.8221	67.3828	83.4629	67.3828	83.9756	67.3828	83.6228	67.3828	84.1301	67.3828	83.7987	67.3828	84.2827	67.3828	83.9854	67.3828	84.4295	67.3828	84.1758	67.3828	84.5658	67.3828	84.3609	67.3828	84.6853	67.3828	84.5302	67.3828	84.7805	67.3828	84.6734	67.3828	84.8435	67.3828	84.7811	67.3828	84.8671	67.3828	84.8467
68.8477	82.9133	68.8477	82.8858	68.8477	82.9617	68.8477	82.8791	68.8477	83.0307	68.8477	82.8927	68.8477	83.1192	68.8477	82.9264	68.8477	83.2255	68.8477	82.9797	68.8477	83.3471	68.8477	83.0525	68.8477	83.4809	68.8477	83.1445	68.8477	83.6232	68.8477	83.2555	68.8477	83.7703	68.8477	83.3848	68.8477	83.9186	68.8477	83.5312	68.8477	84.0648	68.8477	83.6921	68.8477	84.2058	68.8477	83.8633	68.8477	84.3382	68.8477	84.0386	68.8477	84.4582	68.8477	84.2101	68.8477	84.5609	68.8477	84.3687	68.8477	84.6401	68.8477	84.5046	68.8477	84.6894	68.8477	84.6092	68.8477	84.7028	68.8477	84.6763
