"SPL Horizontal"
"On-Axis"		"10°"		"-10°"		"20°"		"-20°"		"30°"		"-30°"		"40°"		"-40°"		"50°"		"-50°"		"60°"		"-60°"		"70°"		"-70°"		"80°"		"-80°"		"90°"		"-90°"		"100°"		"-100°"		"110°"		"-110°"		"120°"		"-120°"		"130°"		"-130°"		"140°"		"-140°"		"150°"		"-150°"		"160°"		"-160°"		"170°"		"-170°"		"180°"
"Frequency / Hz"	"Sound Pressure Level / dB (re 20 µPa/V)  [2.83  V @ 1. m]"	"Frequency / Hz"	"Sound Pressure Level / dB (re 20 µPa/V)  [2.83  V @ 1. m]"	"Frequency / Hz"	"Sound Pressure Level / dB (re 20 µPa/V)  [2.83  V @ 1. m]"	"Frequency / Hz"	"Sound Pressure Level / dB (re 20 µPa/V)  [2.83  V @ 1. m]"	"Frequency / Hz"	"Sound Pressure Level / dB (re 20 µPa/V)  [2.83  V @ 1. m]"	"Frequency / Hz"	"Sound Pressure Level / dB (re 20 µPa/V)  [2.83  V @ 1. m]"	"Frequency / Hz"	"Sound Pressure Level / dB (re 20 µPa/V)  [2.83  V @ 1. m]"	"Frequency / Hz"	"Sound Pressure Level / dB (re 20 µPa/V)  [2.83  V @ 1. m]"	"Frequency / Hz"	"Sound Pressure Level / dB (re 20 µPa/V)  [2.83  V @ 1. m]"	"Frequency / Hz"	"Sound Pressure Level / dB (re 20 µPa/V)  [2.83  V @ 1. m]"	"Frequency / Hz"	"Sound Pressure Level / dB (re 20 µPa/V)  [2.83  V @ 1. m]"	"Frequency / Hz"	"Sound Pressure Level / dB (re 20 µPa/V)  [2.83  V @ 1. m]"	"Frequency / Hz"	"Sound Pressure Level / dB (re 20 µPa/V)  [2.83  V @ 1. m]"	"Frequency / Hz"	"Sound Pressure Level / dB (re 20 µPa/V)  [2.83  V @ 1. m]"	"Frequency / Hz"	"Sound Pressure Level / dB (re 20 µPa/V)  [2.83  V @ 1. m]"	"Frequency / Hz"	"Sound Pressure Level / dB (re 20 µPa/V)  [2.83  V @ 1. m]"	"Frequency / Hz"	"Sound Pressure Level / dB (re 20 µPa/V)  [2.83  V @ 1. m]"	"Frequency / Hz"	"Sound Pressure Level / dB (re 20 µPa/V)  [2.83  V @ 1. m]"	"Frequency / Hz"	"Sound Pressure Level / dB (re 20 µPa/V)  [2.83  V @ 1. m]"	"Frequency / Hz"	"Sound Pressure Level / dB (re 20 µPa/V)  [2.83  V @ 1. m]"	"Frequency / Hz"	"Sound Pressure Level / dB (re 20 µPa/V)  [2.83  V @ 1. m]"	"Frequency / Hz"	"Sound Pressure Level / dB (re 20 µPa/V)  [2.83  V @ 1. m]"	"Frequency / Hz"	"Sound Pressure Level / dB (re 20 µPa/V)  [2.83  V @ 1. m]"	"Frequency / Hz"	"Sound Pressure Level / dB (re 20 µPa/V)  [2.83  V @ 1. m]"	"Frequency / Hz"	"Sound Pressure Level / dB (re 20 µPa/V)  [2.83  V @ 1. m]"	"Frequency / Hz"	"Sound Pressure Level / dB (re 20 µPa/V)  [2.83  V @ 1. m]"	"Frequency / Hz"	"Sound Pressure Level / dB (re 20 µPa/V)  [2.83  V @ 1. m]"	"Frequency / Hz"	"Sound Pressure Level / dB (re 20 µPa/V)  [2.83  V @ 1. m]"	"Frequency / Hz"	"Sound Pressure Level / dB (re 20 µPa/V)  [2.83  V @ 1. m]"	"Frequency / Hz"	"Sound Pressure Level / dB (re 20 µPa/V)  [2.83  V @ 1. m]"	"Frequency / Hz"	"Sound Pressure Level / dB (re 20 µPa/V)  [2.83  V @ 1. m]"	"Frequency / Hz"	"Sound Pressure Level / dB (re 20 µPa/V)  [2.83  V @ 1. m]"	"Frequency / Hz"	"Sound Pressure Level / dB (re 20 µPa/V)  [2.83  V @ 1. m]"	"Frequency / Hz"	"Sound Pressure Level / dB (re 20 µPa/V)  [2.83  V @ 1. m]"	"Frequency / Hz"	"Sound Pressure Level / dB (re 20 µPa/V)  [2.83  V @ 1. m]"	"Frequency / Hz"	"Sound Pressure Level / dB (re 20 µPa/V)  [2.83  V @ 1. m]"
20.5078	75.415	20.5078	75.2599	20.5078	75.6645	20.5078	75.2008	20.5078	76.007	20.5078	75.2418	20.5078	76.4383	20.5078	75.3909	20.5078	76.9505	20.5078	75.6585	20.5078	77.5328	20.5078	76.0535	20.5078	78.1732	20.5078	76.5781	20.5078	78.859	20.5078	77.224	20.5078	79.5763	20.5078	77.9716	20.5078	80.308	20.5078	78.7921	20.5078	81.033	20.5078	79.651	20.5078	81.7267	20.5078	80.5117	20.5078	82.3638	20.5078	81.3381	20.5078	82.9207	20.5078	82.0956	20.5078	83.3774	20.5078	82.7535	20.5078	83.7177	20.5078	83.2865	20.5078	83.9277	20.5078	83.6765	20.5078	83.9959	20.5078	83.9137
21.9727	77.4323	21.9727	77.3725	21.9727	77.5756	21.9727	77.3973	21.9727	77.8073	21.9727	77.5164	21.9727	78.134	21.9727	77.7465	21.9727	78.5603	21.9727	78.1054	21.9727	79.0856	21.9727	78.6045	21.9727	79.7035	21.9727	79.2409	21.9727	80.402	21.9727	79.9955	21.9727	81.1633	21.9727	80.8365	21.9727	81.964	21.9727	81.7262	21.9727	82.7764	21.9727	82.6269	21.9727	83.5711	21.9727	83.5032	21.9727	84.3196	21.9727	84.322	21.9727	84.9964	21.9727	85.0522	21.9727	85.5791	21.9727	85.6649	21.9727	86.0472	21.9727	86.1361	21.9727	86.3824	21.9727	86.4484	21.9727	86.5684	21.9727	86.5927
23.4375	81.6455	23.4375	81.6634	23.4375	81.6991	23.4375	81.7528	23.4375	81.8297	23.4375	81.9198	23.4375	82.0468	23.4375	82.1744	23.4375	82.3602	23.4375	82.528	23.4375	82.7768	23.4375	82.9879	23.4375	83.297	23.4375	83.5539	23.4375	83.9129	23.4375	84.2158	23.4375	84.6084	23.4375	84.9537	23.4375	85.3601	23.4375	85.7401	23.4375	86.1401	23.4375	86.5437	23.4375	86.9184	23.4375	87.3317	23.4375	87.6656	23.4375	88.0716	23.4375	88.3537	23.4375	88.7324	23.4375	88.9567	23.4375	89.2858	23.4375	89.4509	23.4375	89.7073	23.4375	89.8149	23.4375	89.9782	23.4375	90.031	23.4375	90.0872
24.9023	86.1842	24.9023	86.2194	24.9023	86.2129	24.9023	86.3172	24.9023	86.3111	24.9023	86.4807	24.9023	86.4872	24.9023	86.7169	24.9023	86.7502	24.9023	87.0335	24.9023	87.1059	24.9023	87.4368	24.9023	87.5551	24.9023	87.9276	24.9023	88.091	24.9023	88.4994	24.9023	88.6997	24.9023	89.1375	24.9023	89.3614	24.9023	89.8202	24.9023	90.0518	24.9023	90.521	24.9023	90.745	24.9023	91.2111	24.9023	91.4148	24.9023	91.8612	24.9023	92.0357	24.9023	92.4433	24.9023	92.5836	24.9023	92.9314	24.9023	93.0357	24.9023	93.3029	24.9023	93.3715	24.9023	93.5401	24.9023	93.574	24.9023	93.6317
26.3672	90.3599	26.3672	90.3922	26.3672	90.376	26.3672	90.4729	26.3672	90.4435	26.3672	90.6053	26.3672	90.5678	26.3672	90.7949	26.3672	90.7557	26.3672	91.0481	26.3672	91.0136	26.3672	91.3704	26.3672	91.3453	26.3672	91.7641	26.3672	91.751	26.3672	92.2266	26.3672	92.2256	26.3672	92.7489	26.3672	92.7583	26.3672	93.3162	26.3672	93.3332	26.3672	93.908	26.3672	93.9294	26.3672	94.5003	26.3672	94.523	26.3672	95.0665	26.3672	95.0877	26.3672	95.5797	26.3672	95.5973	26.3672	96.0131	26.3672	96.0261	26.3672	96.343	26.3672	96.3512	26.3672	96.55	26.3672	96.5539	26.3672	96.6216
27.832	94.2598	27.832	94.2985	27.832	94.2659	27.832	94.3818	27.832	94.3193	27.832	94.5124	27.832	94.4251	27.832	94.6947	27.832	94.5894	27.832	94.9343	27.832	94.8185	27.832	95.2361	27.832	95.1169	27.832	95.6024	27.832	95.4857	27.832	96.0316	27.832	95.9214	27.832	96.5164	27.832	96.415	27.832	97.0435	27.832	96.9522	27.832	97.5946	27.832	97.5141	27.832	98.147	27.832	98.0779	27.832	98.6758	27.832	98.6184	27.832	99.1549	27.832	99.1096	27.832	99.559	27.832	99.5257	27.832	99.8653	27.832	99.8436	27.832	100.055	27.832	100.045	27.832	100.117
29.2969	97.8912	29.2969	97.9177	29.2969	97.9062	29.2969	97.9863	29.2969	97.9644	29.2969	98.0993	29.2969	98.0689	29.2969	98.2605	29.2969	98.2242	29.2969	98.4741	29.2969	98.4348	29.2969	98.7439	29.2969	98.704	29.2969	99.0715	29.2969	99.0331	29.2969	99.4555	29.2969	99.4195	29.2969	99.8899	29.2969	99.8566	29.2969	100.364	29.2969	100.333	29.2969	100.862	29.2969	100.833	29.2969	101.363	29.2969	101.337	29.2969	101.846	29.2969	101.823	29.2969	102.286	29.2969	102.267	29.2969	102.659	29.2969	102.644	29.2969	102.944	29.2969	102.933	29.2969	103.121	29.2969	103.115	29.2969	103.179
30.7617	101.033	30.7617	101.058	30.7617	101.048	30.7617	101.123	30.7617	101.105	30.7617	101.232	30.7617	101.206	30.7617	101.385	30.7617	101.352	30.7617	101.586	30.7617	101.548	30.7617	101.837	30.7617	101.796	30.7617	102.139	30.7617	102.095	30.7617	102.49	30.7617	102.444	30.7617	102.886	30.7617	102.839	30.7617	103.316	30.7617	103.268	30.7617	103.769	30.7617	103.721	30.7617	104.225	30.7617	104.178	30.7617	104.665	30.7617	104.621	30.7617	105.067	30.7617	105.028	30.7617	105.407	30.7617	105.376	30.7617	105.666	30.7617	105.644	30.7617	105.827	30.7617	105.815	30.7617	105.878
32.2266	103.269	32.2266	103.293	32.2266	103.285	32.2266	103.358	32.2266	103.342	32.2266	103.466	32.2266	103.442	32.2266	103.617	32.2266	103.586	32.2266	103.813	32.2266	103.774	32.2266	104.054	32.2266	104.009	32.2266	104.341	32.2266	104.29	32.2266	104.671	32.2266	104.615	32.2266	105.039	32.2266	104.979	32.2266	105.437	32.2266	105.374	32.2266	105.852	32.2266	105.788	32.2266	106.269	32.2266	106.207	32.2266	106.67	32.2266	106.613	32.2266	107.036	32.2266	106.985	32.2266	107.345	32.2266	107.304	32.2266	107.58	32.2266	107.551	32.2266	107.724	32.2266	107.709	32.2266	107.768
33.6914	104.706	33.6914	104.724	33.6914	104.724	33.6914	104.779	33.6914	104.78	33.6914	104.872	33.6914	104.872	33.6914	105.004	33.6914	105.002	33.6914	105.175	33.6914	105.17	33.6914	105.387	33.6914	105.378	33.6914	105.637	33.6914	105.624	33.6914	105.926	33.6914	105.908	33.6914	106.248	33.6914	106.226	33.6914	106.597	33.6914	106.572	33.6914	106.963	33.6914	106.935	33.6914	107.334	33.6914	107.304	33.6914	107.693	33.6914	107.664	33.6914	108.022	33.6914	107.995	33.6914	108.303	33.6914	108.28	33.6914	108.517	33.6914	108.501	33.6914	108.65	33.6914	108.642	33.6914	108.693
35.1562	105.346	35.1562	105.362	35.1562	105.366	35.1562	105.414	35.1562	105.421	35.1562	105.502	35.1562	105.511	35.1562	105.627	35.1562	105.637	35.1562	105.79	35.1562	105.799	35.1562	105.99	35.1562	105.996	35.1562	106.227	35.1562	106.23	35.1562	106.498	35.1562	106.496	35.1562	106.799	35.1562	106.794	35.1562	107.126	35.1562	107.116	35.1562	107.468	35.1562	107.454	35.1562	107.814	35.1562	107.797	35.1562	108.149	35.1562	108.131	35.1562	108.458	35.1562	108.44	35.1562	108.722	35.1562	108.706	35.1562	108.924	35.1562	108.912	35.1562	109.05	35.1562	109.043	35.1562	109.091
36.6211	105.823	36.6211	105.839	36.6211	105.841	36.6211	105.888	36.6211	105.892	36.6211	105.972	36.6211	105.977	36.6211	106.089	36.6211	106.094	36.6211	106.24	36.6211	106.244	36.6211	106.424	36.6211	106.426	36.6211	106.64	36.6211	106.64	36.6211	106.887	36.6211	106.885	36.6211	107.16	36.6211	107.156	36.6211	107.454	36.6211	107.449	36.6211	107.763	36.6211	107.756	36.6211	108.075	36.6211	108.068	36.6211	108.378	36.6211	108.371	36.6211	108.658	36.6211	108.65	36.6211	108.898	36.6211	108.891	36.6211	109.083	36.6211	109.077	36.6211	109.199	36.6211	109.196	36.6211	109.237
38.0859	106.111	38.0859	106.124	38.0859	106.13	38.0859	106.168	38.0859	106.18	38.0859	106.245	38.0859	106.261	38.0859	106.353	38.0859	106.372	38.0859	106.494	38.0859	106.513	38.0859	106.664	38.0859	106.682	38.0859	106.864	38.0859	106.88	38.0859	107.091	38.0859	107.103	38.0859	107.342	38.0859	107.351	38.0859	107.613	38.0859	107.617	38.0859	107.895	38.0859	107.896	38.0859	108.181	38.0859	108.179	38.0859	108.459	38.0859	108.455	38.0859	108.715	38.0859	108.709	38.0859	108.935	38.0859	108.929	38.0859	109.104	38.0859	109.099	38.0859	109.21	38.0859	109.207	38.0859	109.246
39.5508	106.299	39.5508	106.311	39.5508	106.318	39.5508	106.352	39.5508	106.367	39.5508	106.424	39.5508	106.444	39.5508	106.526	39.5508	106.549	39.5508	106.657	39.5508	106.681	39.5508	106.817	39.5508	106.839	39.5508	107.003	39.5508	107.022	39.5508	107.213	39.5508	107.228	39.5508	107.445	39.5508	107.455	39.5508	107.694	39.5508	107.7	39.5508	107.953	39.5508	107.956	39.5508	108.216	39.5508	108.215	39.5508	108.471	39.5508	108.468	39.5508	108.707	39.5508	108.702	39.5508	108.91	39.5508	108.904	39.5508	109.066	39.5508	109.061	39.5508	109.164	39.5508	109.161	39.5508	109.197
41.0156	106.39	41.0156	106.399	41.0156	106.412	41.0156	106.437	41.0156	106.462	41.0156	106.505	41.0156	106.542	41.0156	106.602	41.0156	106.649	41.0156	106.728	41.0156	106.783	41.0156	106.881	41.0156	106.944	41.0156	107.061	41.0156	107.129	41.0156	107.264	41.0156	107.337	41.0156	107.488	41.0156	107.565	41.0156	107.729	41.0156	107.807	41.0156	107.981	41.0156	108.058	41.0156	108.236	41.0156	108.309	41.0156	108.485	41.0156	108.549	41.0156	108.716	41.0156	108.768	41.0156	108.916	41.0156	108.954	41.0156	109.072	41.0156	109.095	41.0156	109.172	41.0156	109.183	41.0156	109.209
42.4805	106.521	42.4805	106.54	42.4805	106.531	42.4805	106.587	42.4805	106.569	42.4805	106.662	42.4805	106.635	42.4805	106.763	42.4805	106.728	42.4805	106.889	42.4805	106.847	42.4805	107.038	42.4805	106.989	42.4805	107.208	42.4805	107.154	42.4805	107.395	42.4805	107.337	42.4805	107.598	42.4805	107.538	42.4805	107.811	42.4805	107.751	42.4805	108.029	42.4805	107.972	42.4805	108.246	42.4805	108.193	42.4805	108.454	42.4805	108.407	42.4805	108.644	42.4805	108.605	42.4805	108.806	42.4805	108.776	42.4805	108.93	42.4805	108.909	42.4805	109.007	42.4805	108.996	42.4805	109.029
43.9453	106.549	43.9453	106.571	43.9453	106.554	43.9453	106.619	43.9453	106.588	43.9453	106.694	43.9453	106.648	43.9453	106.793	43.9453	106.734	43.9453	106.915	43.9453	106.846	43.9453	107.057	43.9453	106.98	43.9453	107.217	43.9453	107.136	43.9453	107.393	43.9453	107.309	43.9453	107.581	43.9453	107.497	43.9453	107.777	43.9453	107.695	43.9453	107.977	43.9453	107.9	43.9453	108.175	43.9453	108.105	43.9453	108.364	43.9453	108.302	43.9453	108.537	43.9453	108.485	43.9453	108.683	43.9453	108.643	43.9453	108.795	43.9453	108.768	43.9453	108.863	43.9453	108.849	43.9453	108.882
45.4102	106.627	45.4102	106.65	45.4102	106.631	45.4102	106.698	45.4102	106.66	45.4102	106.77	45.4102	106.716	45.4102	106.866	45.4102	106.796	45.4102	106.982	45.4102	106.901	45.4102	107.116	45.4102	107.027	45.4102	107.267	45.4102	107.172	45.4102	107.431	45.4102	107.335	45.4102	107.606	45.4102	107.51	45.4102	107.787	45.4102	107.695	45.4102	107.971	45.4102	107.884	45.4102	108.153	45.4102	108.074	45.4102	108.325	45.4102	108.257	45.4102	108.482	45.4102	108.426	45.4102	108.615	45.4102	108.572	45.4102	108.716	45.4102	108.686	45.4102	108.776	45.4102	108.762	45.4102	108.792
46.875	106.693	46.875	106.711	46.875	106.7	46.875	106.753	46.875	106.731	46.875	106.818	46.875	106.787	46.875	106.905	46.875	106.865	46.875	107.012	46.875	106.965	46.875	107.137	46.875	107.084	46.875	107.277	46.875	107.22	46.875	107.43	46.875	107.371	46.875	107.592	46.875	107.532	46.875	107.76	46.875	107.701	46.875	107.93	46.875	107.874	46.875	108.097	46.875	108.045	46.875	108.255	46.875	108.209	46.875	108.398	46.875	108.36	46.875	108.519	46.875	108.49	46.875	108.611	46.875	108.591	46.875	108.667	46.875	108.657	46.875	108.683
48.3398	106.749	48.3398	106.767	48.3398	106.756	48.3398	106.807	48.3398	106.785	48.3398	106.87	48.3398	106.837	48.3398	106.953	48.3398	106.91	48.3398	107.054	48.3398	107.004	48.3398	107.173	48.3398	107.114	48.3398	107.304	48.3398	107.241	48.3398	107.446	48.3398	107.38	48.3398	107.596	48.3398	107.528	48.3398	107.749	48.3398	107.683	48.3398	107.902	48.3398	107.84	48.3398	108.051	48.3398	107.995	48.3398	108.192	48.3398	108.143	48.3398	108.318	48.3398	108.279	48.3398	108.424	48.3398	108.395	48.3398	108.504	48.3398	108.485	48.3398	108.553	48.3398	108.544	48.3398	108.567
51.2695	106.803	51.2695	106.819	51.2695	106.807	51.2695	106.854	51.2695	106.831	51.2695	106.908	51.2695	106.874	51.2695	106.979	51.2695	106.935	51.2695	107.064	51.2695	107.013	51.2695	107.163	51.2695	107.105	51.2695	107.272	51.2695	107.209	51.2695	107.387	51.2695	107.322	51.2695	107.508	51.2695	107.442	51.2695	107.629	51.2695	107.565	51.2695	107.749	51.2695	107.689	51.2695	107.865	51.2695	107.81	51.2695	107.972	51.2695	107.925	51.2695	108.068	51.2695	108.03	51.2695	108.148	51.2695	108.119	51.2695	108.208	51.2695	108.189	51.2695	108.244	51.2695	108.235	51.2695	108.253
52.7344	106.852	52.7344	106.868	52.7344	106.854	52.7344	106.902	52.7344	106.873	52.7344	106.952	52.7344	106.911	52.7344	107.017	52.7344	106.964	52.7344	107.096	52.7344	107.033	52.7344	107.185	52.7344	107.114	52.7344	107.283	52.7344	107.206	52.7344	107.387	52.7344	107.306	52.7344	107.494	52.7344	107.412	52.7344	107.602	52.7344	107.52	52.7344	107.707	52.7344	107.629	52.7344	107.806	52.7344	107.736	52.7344	107.898	52.7344	107.837	52.7344	107.978	52.7344	107.928	52.7344	108.044	52.7344	108.007	52.7344	108.093	52.7344	108.068	52.7344	108.121	52.7344	108.109	52.7344	108.127
54.1992	106.735	54.1992	106.755	54.1992	106.734	54.1992	106.793	54.1992	106.753	54.1992	106.848	54.1992	106.789	54.1992	106.919	54.1992	106.843	54.1992	107.003	54.1992	106.913	54.1992	107.099	54.1992	106.996	54.1992	107.203	54.1992	107.091	54.1992	107.312	54.1992	107.194	54.1992	107.423	54.1992	107.304	54.1992	107.533	54.1992	107.416	54.1992	107.639	54.1992	107.528	54.1992	107.739	54.1992	107.638	54.1992	107.829	54.1992	107.741	54.1992	107.907	54.1992	107.835	54.1992	107.97	54.1992	107.916	54.1992	108.016	54.1992	107.979	54.1992	108.041	54.1992	108.023	54.1992	108.043
55.6641	106.719	55.6641	106.741	55.6641	106.713	55.6641	106.78	55.6641	106.725	55.6641	106.833	55.6641	106.753	55.6641	106.9	55.6641	106.797	55.6641	106.979	55.6641	106.855	55.6641	107.066	55.6641	106.925	55.6641	107.159	55.6641	107.005	55.6641	107.255	55.6641	107.092	55.6641	107.351	55.6641	107.183	55.6641	107.444	55.6641	107.277	55.6641	107.532	55.6641	107.369	55.6641	107.611	55.6641	107.459	55.6641	107.68	55.6641	107.545	55.6641	107.738	55.6641	107.623	55.6641	107.782	55.6641	107.692	55.6641	107.81	55.6641	107.749	55.6641	107.822	55.6641	107.791	55.6641	107.816
58.5938	106.711	58.5938	106.722	58.5938	106.719	58.5938	106.749	58.5938	106.744	58.5938	106.793	58.5938	106.786	58.5938	106.851	58.5938	106.843	58.5938	106.923	58.5938	106.914	58.5938	107.004	58.5938	106.996	58.5938	107.093	58.5938	107.085	58.5938	107.187	58.5938	107.179	58.5938	107.281	58.5938	107.274	58.5938	107.374	58.5938	107.366	58.5938	107.461	58.5938	107.454	58.5938	107.541	58.5938	107.535	58.5938	107.612	58.5938	107.606	58.5938	107.672	58.5938	107.667	58.5938	107.72	58.5938	107.715	58.5938	107.754	58.5938	107.751	58.5938	107.775	58.5938	107.774	58.5938	107.782
60.0586	106.666	60.0586	106.678	60.0586	106.671	60.0586	106.707	60.0586	106.693	60.0586	106.751	60.0586	106.731	60.0586	106.809	60.0586	106.784	60.0586	106.878	60.0586	106.85	60.0586	106.957	60.0586	106.927	60.0586	107.042	60.0586	107.011	60.0586	107.13	60.0586	107.099	60.0586	107.218	60.0586	107.187	60.0586	107.302	60.0586	107.274	60.0586	107.381	60.0586	107.355	60.0586	107.452	60.0586	107.429	60.0586	107.514	60.0586	107.494	60.0586	107.564	60.0586	107.549	60.0586	107.603	60.0586	107.592	60.0586	107.631	60.0586	107.624	60.0586	107.647	60.0586	107.644	60.0586	107.652
62.9883	106.628	62.9883	106.635	62.9883	106.636	62.9883	106.656	62.9883	106.658	62.9883	106.691	62.9883	106.693	62.9883	106.739	62.9883	106.74	62.9883	106.797	62.9883	106.798	62.9883	106.864	62.9883	106.864	62.9883	106.938	62.9883	106.935	62.9883	107.015	62.9883	107.01	62.9883	107.091	62.9883	107.084	62.9883	107.165	62.9883	107.155	62.9883	107.232	62.9883	107.22	62.9883	107.29	62.9883	107.278	62.9883	107.339	62.9883	107.328	62.9883	107.378	62.9883	107.367	62.9883	107.406	62.9883	107.397	62.9883	107.424	62.9883	107.419	62.9883	107.435	62.9883	107.432	62.9883	107.437
64.4531	106.595	64.4531	106.598	64.4531	106.607	64.4531	106.613	64.4531	106.632	64.4531	106.642	64.4531	106.67	64.4531	106.683	64.4531	106.719	64.4531	106.735	64.4531	106.778	64.4531	106.795	64.4531	106.844	64.4531	106.861	64.4531	106.915	64.4531	106.93	64.4531	106.989	64.4531	106.999	64.4531	107.06	64.4531	107.066	64.4531	107.128	64.4531	107.128	64.4531	107.189	64.4531	107.182	64.4531	107.242	64.4531	107.229	64.4531	107.284	64.4531	107.266	64.4531	107.315	64.4531	107.296	64.4531	107.336	64.4531	107.32	64.4531	107.348	64.4531	107.336	64.4531	107.351	64.4531	107.347
67.3828	106.46	67.3828	106.458	67.3828	106.476	67.3828	106.469	67.3828	106.505	67.3828	106.493	67.3828	106.546	67.3828	106.528	67.3828	106.598	67.3828	106.574	67.3828	106.66	67.3828	106.628	67.3828	106.728	67.3828	106.688	67.3828	106.801	67.3828	106.751	67.3828	106.874	67.3828	106.814	67.3828	106.945	67.3828	106.874	67.3828	107.01	67.3828	106.929	67.3828	107.067	67.3828	106.978	67.3828	107.113	67.3828	107.019	67.3828	107.147	67.3828	107.055	67.3828	107.169	67.3828	107.085	67.3828	107.179	67.3828	107.111	67.3828	107.179	67.3828	107.134	67.3828	107.17	67.3828	107.154
