"SPL Vertical"
"On-Axis"		"10°"		"-10°"		"20°"		"-20°"		"30°"		"-30°"		"40°"		"-40°"		"50°"		"-50°"		"60°"		"-60°"		"70°"		"-70°"		"80°"		"-80°"		"90°"		"-90°"		"100°"		"-100°"		"110°"		"-110°"		"120°"		"-120°"		"130°"		"-130°"		"140°"		"-140°"		"150°"		"-150°"		"160°"		"-160°"		"170°"		"-170°"		"180°"
"Frequency / Hz"	"Sound Pressure Level / dB (re 20 µPa/V)  [2.83  V @ 1. m]"	"Frequency / Hz"	"Sound Pressure Level / dB (re 20 µPa/V)  [2.83  V @ 1. m]"	"Frequency / Hz"	"Sound Pressure Level / dB (re 20 µPa/V)  [2.83  V @ 1. m]"	"Frequency / Hz"	"Sound Pressure Level / dB (re 20 µPa/V)  [2.83  V @ 1. m]"	"Frequency / Hz"	"Sound Pressure Level / dB (re 20 µPa/V)  [2.83  V @ 1. m]"	"Frequency / Hz"	"Sound Pressure Level / dB (re 20 µPa/V)  [2.83  V @ 1. m]"	"Frequency / Hz"	"Sound Pressure Level / dB (re 20 µPa/V)  [2.83  V @ 1. m]"	"Frequency / Hz"	"Sound Pressure Level / dB (re 20 µPa/V)  [2.83  V @ 1. m]"	"Frequency / Hz"	"Sound Pressure Level / dB (re 20 µPa/V)  [2.83  V @ 1. m]"	"Frequency / Hz"	"Sound Pressure Level / dB (re 20 µPa/V)  [2.83  V @ 1. m]"	"Frequency / Hz"	"Sound Pressure Level / dB (re 20 µPa/V)  [2.83  V @ 1. m]"	"Frequency / Hz"	"Sound Pressure Level / dB (re 20 µPa/V)  [2.83  V @ 1. m]"	"Frequency / Hz"	"Sound Pressure Level / dB (re 20 µPa/V)  [2.83  V @ 1. m]"	"Frequency / Hz"	"Sound Pressure Level / dB (re 20 µPa/V)  [2.83  V @ 1. m]"	"Frequency / Hz"	"Sound Pressure Level / dB (re 20 µPa/V)  [2.83  V @ 1. m]"	"Frequency / Hz"	"Sound Pressure Level / dB (re 20 µPa/V)  [2.83  V @ 1. m]"	"Frequency / Hz"	"Sound Pressure Level / dB (re 20 µPa/V)  [2.83  V @ 1. m]"	"Frequency / Hz"	"Sound Pressure Level / dB (re 20 µPa/V)  [2.83  V @ 1. m]"	"Frequency / Hz"	"Sound Pressure Level / dB (re 20 µPa/V)  [2.83  V @ 1. m]"	"Frequency / Hz"	"Sound Pressure Level / dB (re 20 µPa/V)  [2.83  V @ 1. m]"	"Frequency / Hz"	"Sound Pressure Level / dB (re 20 µPa/V)  [2.83  V @ 1. m]"	"Frequency / Hz"	"Sound Pressure Level / dB (re 20 µPa/V)  [2.83  V @ 1. m]"	"Frequency / Hz"	"Sound Pressure Level / dB (re 20 µPa/V)  [2.83  V @ 1. m]"	"Frequency / Hz"	"Sound Pressure Level / dB (re 20 µPa/V)  [2.83  V @ 1. m]"	"Frequency / Hz"	"Sound Pressure Level / dB (re 20 µPa/V)  [2.83  V @ 1. m]"	"Frequency / Hz"	"Sound Pressure Level / dB (re 20 µPa/V)  [2.83  V @ 1. m]"	"Frequency / Hz"	"Sound Pressure Level / dB (re 20 µPa/V)  [2.83  V @ 1. m]"	"Frequency / Hz"	"Sound Pressure Level / dB (re 20 µPa/V)  [2.83  V @ 1. m]"	"Frequency / Hz"	"Sound Pressure Level / dB (re 20 µPa/V)  [2.83  V @ 1. m]"	"Frequency / Hz"	"Sound Pressure Level / dB (re 20 µPa/V)  [2.83  V @ 1. m]"	"Frequency / Hz"	"Sound Pressure Level / dB (re 20 µPa/V)  [2.83  V @ 1. m]"	"Frequency / Hz"	"Sound Pressure Level / dB (re 20 µPa/V)  [2.83  V @ 1. m]"	"Frequency / Hz"	"Sound Pressure Level / dB (re 20 µPa/V)  [2.83  V @ 1. m]"	"Frequency / Hz"	"Sound Pressure Level / dB (re 20 µPa/V)  [2.83  V @ 1. m]"	"Frequency / Hz"	"Sound Pressure Level / dB (re 20 µPa/V)  [2.83  V @ 1. m]"	"Frequency / Hz"	"Sound Pressure Level / dB (re 20 µPa/V)  [2.83  V @ 1. m]"
20.5078	53.2152	20.5078	53.1862	20.5078	53.2333	20.5078	53.1469	20.5078	53.2399	20.5078	53.0979	20.5078	53.234	20.5078	53.0393	20.5078	53.2149	20.5078	52.9716	20.5078	53.1821	20.5078	52.8952	20.5078	53.1356	20.5078	52.811	20.5078	53.0757	20.5078	52.7207	20.5078	53.0034	20.5078	52.6265	20.5078	52.9203	20.5078	52.5314	20.5078	52.8285	20.5078	52.4389	20.5078	52.7309	20.5078	52.3532	20.5078	52.6305	20.5078	52.2784	20.5078	52.5309	20.5078	52.2182	20.5078	52.4358	20.5078	52.176	20.5078	52.3491	20.5078	52.1539	20.5078	52.2744	20.5078	52.1533	20.5078	52.2151	20.5078	52.174
21.9727	55.3486	21.9727	55.3484	21.9727	55.3397	21.9727	55.3389	21.9727	55.3218	21.9727	55.32	21.9727	55.2955	21.9727	55.292	21.9727	55.2613	21.9727	55.2554	21.9727	55.2199	21.9727	55.211	21.9727	55.1723	21.9727	55.1599	21.9727	55.1197	21.9727	55.1037	21.9727	55.0635	21.9727	55.0442	21.9727	55.0055	21.9727	54.9834	21.9727	54.9473	21.9727	54.9236	21.9727	54.891	21.9727	54.8667	21.9727	54.8384	21.9727	54.8148	21.9727	54.7913	21.9727	54.7698	21.9727	54.751	21.9727	54.7328	21.9727	54.719	21.9727	54.7051	21.9727	54.696	21.9727	54.6874	21.9727	54.6829	21.9727	54.6799
23.4375	54.8287	23.4375	54.8077	23.4375	54.8372	23.4375	54.7747	23.4375	54.8326	23.4375	54.7303	23.4375	54.8149	23.4375	54.6754	23.4375	54.7841	23.4375	54.6111	23.4375	54.7407	23.4375	54.5388	23.4375	54.6855	23.4375	54.4603	23.4375	54.6197	23.4375	54.3778	23.4375	54.5453	23.4375	54.2937	23.4375	54.4643	23.4375	54.2107	23.4375	54.3793	23.4375	54.1318	23.4375	54.2932	23.4375	54.0597	23.4375	54.2088	23.4375	53.997	23.4375	54.1292	23.4375	53.9459	23.4375	54.0569	23.4375	53.908	23.4375	53.9945	23.4375	53.8847	23.4375	53.9438	23.4375	53.8766	23.4375	53.9067	23.4375	53.884
24.9023	55.6474	24.9023	55.6255	24.9023	55.652	24.9023	55.5865	24.9023	55.6394	24.9023	55.531	24.9023	55.6097	24.9023	55.46	24.9023	55.5638	24.9023	55.3749	24.9023	55.5024	24.9023	55.2776	24.9023	55.4268	24.9023	55.1707	24.9023	55.3389	24.9023	55.0571	24.9023	55.2406	24.9023	54.9402	24.9023	55.1345	24.9023	54.8241	24.9023	55.0235	24.9023	54.7127	24.9023	54.9107	24.9023	54.6102	24.9023	54.7996	24.9023	54.5204	24.9023	54.6937	24.9023	54.4468	24.9023	54.5965	24.9023	54.3922	24.9023	54.5114	24.9023	54.3586	24.9023	54.4415	24.9023	54.3469	24.9023	54.3894	24.9023	54.3574
26.3672	56.3893	26.3672	56.365	26.3672	56.3985	26.3672	56.3263	26.3672	56.3923	26.3672	56.274	26.3672	56.3703	26.3672	56.209	26.3672	56.3328	26.3672	56.1325	26.3672	56.2803	26.3672	56.0463	26.3672	56.2135	26.3672	55.9523	26.3672	56.1341	26.3672	55.8527	26.3672	56.0441	26.3672	55.7505	26.3672	55.9458	26.3672	55.6487	26.3672	55.8422	26.3672	55.5507	26.3672	55.7365	26.3672	55.4599	26.3672	55.6324	26.3672	55.3795	26.3672	55.5333	26.3672	55.3128	26.3672	55.4427	26.3672	55.2624	26.3672	55.364	26.3672	55.2303	26.3672	55.3001	26.3672	55.2178	26.3672	55.2534	26.3672	55.2256
27.832	56.7081	27.832	56.6808	27.832	56.7171	27.832	56.6358	27.832	56.7074	27.832	56.5742	27.832	56.6793	27.832	56.4977	27.832	56.6335	27.832	56.4085	27.832	56.5711	27.832	56.3089	27.832	56.4938	27.832	56.2022	27.832	56.4037	27.832	56.0916	27.832	56.3035	27.832	55.9808	27.832	56.1962	27.832	55.8734	27.832	56.0853	27.832	55.773	27.832	55.9744	27.832	55.6826	27.832	55.8671	27.832	55.6052	27.832	55.767	27.832	55.5427	27.832	55.6772	27.832	55.4969	27.832	55.6005	27.832	55.4687	27.832	55.539	27.832	55.4588	27.832	55.4943	27.832	55.4674
29.2969	57.4358	29.2969	57.4162	29.2969	57.4359	29.2969	57.3775	29.2969	57.4166	29.2969	57.3208	29.2969	57.3784	29.2969	57.2474	29.2969	57.3222	29.2969	57.1593	29.2969	57.2494	29.2969	57.0591	29.2969	57.1618	29.2969	56.9497	29.2969	57.062	29.2969	56.8346	29.2969	56.9526	29.2969	56.7173	29.2969	56.837	29.2969	56.6015	29.2969	56.7189	29.2969	56.4911	29.2969	56.6019	29.2969	56.3894	29.2969	56.4901	29.2969	56.2995	29.2969	56.3871	29.2969	56.2241	29.2969	56.2963	29.2969	56.1654	29.2969	56.2206	29.2969	56.125	29.2969	56.1622	29.2969	56.1041	29.2969	56.1228	29.2969	56.1033
30.7617	57.7637	30.7617	57.7402	30.7617	57.7673	30.7617	57.6972	30.7617	57.751	30.7617	57.6357	30.7617	57.7154	30.7617	57.5573	30.7617	57.6614	30.7617	57.4639	30.7617	57.5903	30.7617	57.3582	30.7617	57.5041	30.7617	57.2434	30.7617	57.405	30.7617	57.1229	30.7617	57.2957	30.7617	57.0006	30.7617	57.1795	30.7617	56.8805	30.7617	57.0597	30.7617	56.7664	30.7617	56.94	30.7617	56.6622	30.7617	56.8242	30.7617	56.5712	30.7617	56.716	30.7617	56.4962	30.7617	56.6188	30.7617	56.4397	30.7617	56.5356	30.7617	56.4033	30.7617	56.4692	30.7617	56.388	30.7617	56.4215	30.7617	56.3942
32.2266	58.3124	32.2266	58.289	32.2266	58.3148	32.2266	58.2454	32.2266	58.2962	32.2266	58.1826	32.2266	58.2568	32.2266	58.1024	32.2266	58.1976	32.2266	58.0072	32.2266	58.1201	32.2266	57.8997	32.2266	58.0262	32.2266	57.7835	32.2266	57.9186	32.2266	57.6621	32.2266	57.8005	32.2266	57.5395	32.2266	57.6757	32.2266	57.4197	32.2266	57.5484	32.2266	57.3063	32.2266	57.4231	32.2266	57.2026	32.2266	57.3041	32.2266	57.1114	32.2266	57.1955	32.2266	57.035	32.2266	57.101	32.2266	56.9752	32.2266	57.0234	32.2266	56.9335	32.2266	56.9648	32.2266	56.9109	32.2266	56.9263	32.2266	56.9084
33.6914	58.96	33.6914	58.9322	33.6914	58.9652	33.6914	58.8826	33.6914	58.9476	33.6914	58.8124	33.6914	58.9076	33.6914	58.7237	33.6914	58.8461	33.6914	58.619	33.6914	58.7646	33.6914	58.5014	33.6914	58.6653	33.6914	58.3748	33.6914	58.5512	33.6914	58.2432	33.6914	58.4256	33.6914	58.1112	33.6914	58.2927	33.6914	57.9831	33.6914	58.1571	33.6914	57.863	33.6914	58.0233	33.6914	57.7546	33.6914	57.8962	33.6914	57.6606	33.6914	57.7801	33.6914	57.5834	33.6914	57.6788	33.6914	57.5243	33.6914	57.5951	33.6914	57.4845	33.6914	57.531	33.6914	57.4648	33.6914	57.4878	33.6914	57.4657
35.1562	59.816	35.1562	59.7818	35.1562	59.8248	35.1562	59.7229	35.1562	59.8078	35.1562	59.6409	35.1562	59.7654	35.1562	59.5377	35.1562	59.6987	35.1562	59.4163	35.1562	59.6092	35.1562	59.2802	35.1562	59.4992	35.1562	59.1333	35.1562	59.3717	35.1562	58.9803	35.1562	59.2304	35.1562	58.8261	35.1562	59.0795	35.1562	58.6758	35.1562	58.9238	35.1562	58.5343	35.1562	58.7686	35.1562	58.406	35.1562	58.619	35.1562	58.2949	35.1562	58.4802	35.1562	58.2039	35.1562	58.3567	35.1562	58.1355	35.1562	58.2524	35.1562	58.0914	35.1562	58.1702	35.1562	58.0725	35.1562	58.1121	35.1562	58.0794
36.6211	60.3769	36.6211	60.3427	36.6211	60.3863	36.6211	60.2845	36.6211	60.3708	36.6211	60.2038	36.6211	60.3306	36.6211	60.1028	36.6211	60.2668	36.6211	59.9842	36.6211	60.1809	36.6211	59.8514	36.6211	60.0752	36.6211	59.7086	36.6211	59.9526	36.6211	59.5602	36.6211	59.8167	36.6211	59.4112	36.6211	59.6715	36.6211	59.2663	36.6211	59.5218	36.6211	59.1304	36.6211	59.3724	36.6211	59.0077	36.6211	59.2284	36.6211	58.9019	36.6211	59.0946	36.6211	58.8159	36.6211	58.9753	36.6211	58.7518	36.6211	58.8741	36.6211	58.7112	36.6211	58.7939	36.6211	58.6949	36.6211	58.7365	36.6211	58.7034
38.0859	60.7042	38.0859	60.6681	38.0859	60.7138	38.0859	60.6065	38.0859	60.6966	38.0859	60.521	38.0859	60.6532	38.0859	60.4143	38.0859	60.5847	38.0859	60.2896	38.0859	60.493	38.0859	60.1509	38.0859	60.3807	38.0859	60.0028	38.0859	60.2514	38.0859	59.8505	38.0859	60.1091	38.0859	59.6993	38.0859	59.9586	38.0859	59.5546	38.0859	59.8052	38.0859	59.4209	38.0859	59.6542	38.0859	59.3024	38.0859	59.5109	38.0859	59.2019	38.0859	59.3801	38.0859	59.1216	38.0859	59.2658	38.0859	59.0625	38.0859	59.1709	38.0859	59.0251	38.0859	59.0972	38.0859	59.0098	38.0859	59.0457	38.0859	59.0166
39.5508	61.0317	39.5508	60.991	39.5508	61.0446	39.5508	60.9235	39.5508	61.0295	39.5508	60.831	39.5508	60.9868	39.5508	60.7159	39.5508	60.9179	39.5508	60.5818	39.5508	60.8246	39.5508	60.4329	39.5508	60.7098	39.5508	60.2742	39.5508	60.577	39.5508	60.1113	39.5508	60.4303	39.5508	59.95	39.5508	60.2747	39.5508	59.7962	39.5508	60.1155	39.5508	59.6552	39.5508	59.9582	39.5508	59.5315	39.5508	59.8081	39.5508	59.4284	39.5508	59.6701	39.5508	59.3481	39.5508	59.548	39.5508	59.2917	39.5508	59.4449	39.5508	59.2592	39.5508	59.3627	39.5508	59.2504	39.5508	59.3026	39.5508	59.265
41.0156	61.7119	41.0156	61.6795	41.0156	61.7169	41.0156	61.6206	41.0156	61.6943	41.0156	61.5367	41.0156	61.6442	41.0156	61.4299	41.0156	61.5677	41.0156	61.3028	41.0156	61.4663	41.0156	61.1591	41.0156	61.3425	41.0156	61.0029	41.0156	61.1998	41.0156	60.8391	41.0156	61.0422	41.0156	60.6731	41.0156	60.8749	41.0156	60.5103	41.0156	60.7035	41.0156	60.3564	41.0156	60.5344	41.0156	60.2163	41.0156	60.3736	41.0156	60.0941	41.0156	60.227	41.0156	59.9932	41.0156	60.0993	41.0156	59.9157	41.0156	59.9945	41.0156	59.863	41.0156	59.9149	41.0156	59.8361	41.0156	59.8618	41.0156	59.8356
42.4805	62.3468	42.4805	62.3067	42.4805	62.3579	42.4805	62.2384	42.4805	62.3393	42.4805	62.144	42.4805	62.2915	42.4805	62.0262	42.4805	62.2157	42.4805	61.8884	42.4805	62.1137	42.4805	61.7351	42.4805	61.9884	42.4805	61.5711	42.4805	61.8436	42.4805	61.4022	42.4805	61.684	42.4805	61.2344	42.4805	61.515	42.4805	61.0734	42.4805	61.3426	42.4805	60.9247	42.4805	61.1731	42.4805	60.7928	42.4805	61.0127	42.4805	60.681	42.4805	60.867	42.4805	60.5915	42.4805	60.7404	42.4805	60.5254	42.4805	60.6362	42.4805	60.4832	42.4805	60.5562	42.4805	60.4649	42.4805	60.501	42.4805	60.4707
43.9453	62.7115	43.9453	62.6658	43.9453	62.7268	43.9453	62.5908	43.9453	62.7111	43.9453	62.4884	43.9453	62.6647	43.9453	62.3615	43.9453	62.5888	43.9453	62.2139	43.9453	62.4852	43.9453	62.0503	43.9453	62.3567	43.9453	61.8761	43.9453	62.2072	43.9453	61.6976	43.9453	62.0413	43.9453	61.5213	43.9453	61.8647	43.9453	61.3535	43.9453	61.6838	43.9453	61.2	43.9453	61.5053	43.9453	61.0653	43.9453	61.3359	43.9453	60.9527	43.9453	61.1814	43.9453	60.8639	43.9453	61.0469	43.9453	60.7999	43.9453	60.9358	43.9453	60.7604	43.9453	60.8498	43.9453	60.7455	43.9453	60.7897	43.9453	60.7551
45.4102	63.2609	45.4102	63.2131	45.4102	63.2762	45.4102	63.1342	45.4102	63.2589	45.4102	63.0264	45.4102	63.2094	45.4102	62.8929	45.4102	63.1291	45.4102	62.7379	45.4102	63.0203	45.4102	62.5667	45.4102	62.8863	45.4102	62.3854	45.4102	62.7314	45.4102	62.201	45.4102	62.5608	45.4102	62.0202	45.4102	62.3804	45.4102	61.85	45.4102	62.1969	45.4102	61.696	45.4102	62.0171	45.4102	61.5628	45.4102	61.8477	45.4102	61.4531	45.4102	61.6943	45.4102	61.3684	45.4102	61.5614	45.4102	61.3086	45.4102	61.4521	45.4102	61.2731	45.4102	61.3676	45.4102	61.2612	45.4102	61.308	45.4102	61.2728
46.875	63.4545	46.875	63.4017	46.875	63.4724	46.875	63.3153	46.875	63.455	46.875	63.1977	46.875	63.403	46.875	63.0526	46.875	63.3178	46.875	62.8846	46.875	63.2022	46.875	62.6996	46.875	63.0597	46.875	62.5045	46.875	62.8951	46.875	62.3069	46.875	62.7139	46.875	62.1147	46.875	62.5228	46.875	61.9353	46.875	62.3291	46.875	61.7751	46.875	62.1401	46.875	61.6387	46.875	61.9628	46.875	61.5289	46.875	61.8034	46.875	61.4463	46.875	61.6661	46.875	61.3902	46.875	61.5536	46.875	61.3591	46.875	61.4666	46.875	61.3514	46.875	61.4046	46.875	61.3665
48.3398	62.6486	48.3398	62.5554	48.3398	62.6938	48.3398	62.4162	48.3398	62.6899	48.3398	62.2348	48.3398	62.6373	48.3398	62.0161	48.3398	62.5373	48.3398	61.767	48.3398	62.3926	48.3398	61.496	48.3398	62.2072	48.3398	61.2134	48.3398	61.9867	48.3398	60.9309	48.3398	61.7383	48.3398	60.6608	48.3398	61.471	48.3398	60.4144	48.3398	61.1953	48.3398	60.2016	48.3398	60.9225	48.3398	60.0283	48.3398	60.664	48.3398	59.8971	48.3398	60.4299	48.3398	59.8065	48.3398	60.2278	48.3398	59.7528	48.3398	60.0617	48.3398	59.7315	48.3398	59.9323	48.3398	59.7391	48.3398	59.8375	48.3398	59.7741
51.2695	63.492	51.2695	63.3894	51.2695	63.54	51.2695	63.2344	51.2695	63.5325	51.2695	63.0302	51.2695	63.4697	51.2695	62.7818	51.2695	63.3528	51.2695	62.496	51.2695	63.1843	51.2695	62.182	51.2695	62.968	51.2695	61.8514	51.2695	62.7099	51.2695	61.5178	51.2695	62.4178	51.2695	61.1964	51.2695	62.102	51.2695	60.9019	51.2695	61.775	51.2695	60.6473	51.2695	61.4509	51.2695	60.4408	51.2695	61.1443	51.2695	60.2855	51.2695	60.8683	51.2695	60.1794	51.2695	60.633	51.2695	60.1166	51.2695	60.4433	51.2695	60.0905	51.2695	60.2992	51.2695	60.0958	51.2695	60.1969	51.2695	60.1306
52.7344	63.964	52.7344	63.8553	52.7344	64.0136	52.7344	63.6896	52.7344	64.0032	52.7344	63.4705	52.7344	63.9331	52.7344	63.2032	52.7344	63.8047	52.7344	62.8953	52.7344	63.6206	52.7344	62.557	52.7344	63.3852	52.7344	62.2013	52.7344	63.1049	52.7344	61.8435	52.7344	62.7884	52.7344	61.5009	52.7344	62.4471	52.7344	61.19	52.7344	62.0951	52.7344	60.9249	52.7344	61.7484	52.7344	60.7141	52.7344	61.4235	52.7344	60.5596	52.7344	61.1353	52.7344	60.457	52.7344	60.8943	52.7344	60.3984	52.7344	60.705	52.7344	60.3746	52.7344	60.5658	52.7344	60.3793	52.7344	60.4702	52.7344	60.4103
54.1992	64.0947	54.1992	63.9663	54.1992	64.1589	54.1992	63.7757	54.1992	64.1577	54.1992	63.5266	54.1992	64.0912	54.1992	63.2245	54.1992	63.9606	54.1992	62.8771	54.1992	63.7682	54.1992	62.4952	54.1992	63.518	54.1992	62.0929	54.1992	63.216	54.1992	61.6877	54.1992	62.8708	54.1992	61.2992	54.1992	62.494	54.1992	60.9473	54.1992	62.1006	54.1992	60.649	54.1992	61.7081	54.1992	60.4148	54.1992	61.3354	54.1992	60.2473	54.1992	61.0005	54.1992	60.1408	54.1992	60.7168	54.1992	60.0851	54.1992	60.4913	54.1992	60.0688	54.1992	60.3232	54.1992	60.0841	54.1992	60.2054	54.1992	60.1284
55.6641	64.4034	55.6641	64.2632	55.6641	64.4694	55.6641	64.0506	55.6641	64.4602	55.6641	63.7692	55.6641	64.3759	55.6641	63.4243	55.6641	64.2177	55.6641	63.0238	55.6641	63.9878	55.6641	62.5794	55.6641	63.69	55.6641	62.1069	55.6641	63.3306	55.6641	61.6268	55.6641	62.9185	55.6641	61.1636	55.6641	62.4669	55.6641	60.7431	55.6641	61.9935	55.6641	60.3883	55.6641	61.5205	55.6641	60.1138	55.6641	61.0734	55.6641	59.9222	55.6641	60.6771	55.6641	59.8043	55.6641	60.3509	55.6641	59.7436	55.6641	60.1039	55.6641	59.7229	55.6641	59.9326	55.6641	59.7298	55.6641	59.8241	55.6641	59.7613
58.5938	64.6591	58.5938	64.5088	58.5938	64.734	58.5938	64.2849	58.5938	64.7327	58.5938	63.9906	58.5938	64.6554	58.5938	63.631	58.5938	64.503	58.5938	63.2143	58.5938	64.2778	58.5938	62.7524	58.5938	63.9832	58.5938	62.262	58.5938	63.6249	58.5938	61.7647	58.5938	63.2114	58.5938	61.2864	58.5938	62.7553	58.5938	60.8542	58.5938	62.2735	58.5938	60.4918	58.5938	61.7876	58.5938	60.2137	58.5938	61.3231	58.5938	60.0217	58.5938	60.9053	58.5938	59.9057	58.5938	60.5553	58.5938	59.8484	58.5938	60.2841	58.5938	59.8324	58.5938	60.0909	58.5938	59.8461	58.5938	59.9642	58.5938	59.8875
60.0586	64.5569	60.0586	64.3816	60.0586	64.6434	60.0586	64.1187	60.0586	64.6408	60.0586	63.7709	60.0586	64.5494	60.0586	63.3429	60.0586	64.3702	60.0586	62.843	60.0586	64.1052	60.0586	62.2844	60.0586	63.7577	60.0586	61.6874	60.0586	63.3336	60.0586	61.0805	60.0586	62.8421	60.0586	60.5006	60.0586	62.298	60.0586	59.9884	60.0586	61.7224	60.0586	59.5797	60.0586	61.1442	60.0586	59.2944	60.0586	60.5985	60.0586	59.1292	60.0586	60.1212	60.0586	59.06	60.0586	59.7409	60.0586	59.0524	60.0586	59.469	60.0586	59.0744	60.0586	59.2964	60.0586	59.1059	60.0586	59.198	60.0586	59.143
62.9883	64.635	62.9883	64.4217	62.9883	64.7383	62.9883	64.0972	62.9883	64.7322	62.9883	63.6607	62.9883	64.617	62.9883	63.1116	62.9883	64.3922	62.9883	62.4518	62.9883	64.0574	62.9883	61.6873	62.9883	63.612	62.9883	60.8324	62.9883	63.0566	62.9883	59.9156	62.9883	62.3944	62.9883	58.9863	62.9883	61.6339	62.9883	58.1188	62.9883	60.7931	62.9883	57.4024	62.9883	59.9047	62.9883	56.9102	62.9883	59.022	62.9883	56.6595	62.9883	58.2182	62.9883	56.6003	62.9883	57.5711	62.9883	56.6464	62.9883	57.1319	62.9883	56.7178	62.9883	56.8965	62.9883	56.7667	62.9883	56.8073	62.9883	56.7858
64.4531	64.7089	64.4531	64.4743	64.4531	64.8264	64.4531	64.1203	64.4531	64.8281	64.4531	63.6437	64.4531	64.7138	64.4531	63.0408	64.4531	64.4824	64.4531	62.3079	64.4531	64.1317	64.4531	61.4439	64.4531	63.6586	64.4531	60.453	64.4531	63.0599	64.4531	59.3524	64.4531	62.3331	64.4531	58.1828	64.4531	61.4791	64.4531	57.0236	64.4531	60.5054	64.4531	55.9987	64.4531	59.434	64.4531	55.2468	64.4531	58.3112	64.4531	54.8433	64.4531	57.2187	64.4531	54.7411	64.4531	56.2713	64.4531	54.8077	64.4531	55.5801	64.4531	54.9121	64.4531	55.1875	64.4531	54.979	64.4531	55.034	64.4531	55.0007
67.3828	65.2382	67.3828	64.9623	67.3828	65.3806	67.3828	64.5477	67.3828	65.3921	67.3828	63.9856	67.3828	65.2724	67.3828	63.2639	67.3828	65.0187	67.3828	62.3656	67.3828	64.6255	67.3828	61.2682	67.3828	64.0842	67.3828	59.9422	67.3828	63.3827	67.3828	58.3513	67.3828	62.505	67.3828	56.4573	67.3828	61.4304	67.3828	54.2437	67.3828	60.1337	67.3828	51.8099	67.3828	58.5864	67.3828	49.6202	67.3828	56.7655	67.3828	48.5824	67.3828	54.6835	67.3828	48.9019	67.3828	52.4762	67.3828	49.6806	67.3828	50.5706	67.3828	50.241	67.3828	49.6121	67.3828	50.3783	67.3828	49.6774	67.3828	50.116
