"SPL Vertical"
"On-Axis"		"10°"		"-10°"		"20°"		"-20°"		"30°"		"-30°"		"40°"		"-40°"		"50°"		"-50°"		"60°"		"-60°"		"70°"		"-70°"		"80°"		"-80°"		"90°"		"-90°"		"100°"		"-100°"		"110°"		"-110°"		"120°"		"-120°"		"130°"		"-130°"		"140°"		"-140°"		"150°"		"-150°"		"160°"		"-160°"		"170°"		"-170°"		"180°"
"Frequency / Hz"	"Sound Pressure Level / dB (re 20 µPa/V)  [2.83  V @ 1. m]"	"Frequency / Hz"	"Sound Pressure Level / dB (re 20 µPa/V)  [2.83  V @ 1. m]"	"Frequency / Hz"	"Sound Pressure Level / dB (re 20 µPa/V)  [2.83  V @ 1. m]"	"Frequency / Hz"	"Sound Pressure Level / dB (re 20 µPa/V)  [2.83  V @ 1. m]"	"Frequency / Hz"	"Sound Pressure Level / dB (re 20 µPa/V)  [2.83  V @ 1. m]"	"Frequency / Hz"	"Sound Pressure Level / dB (re 20 µPa/V)  [2.83  V @ 1. m]"	"Frequency / Hz"	"Sound Pressure Level / dB (re 20 µPa/V)  [2.83  V @ 1. m]"	"Frequency / Hz"	"Sound Pressure Level / dB (re 20 µPa/V)  [2.83  V @ 1. m]"	"Frequency / Hz"	"Sound Pressure Level / dB (re 20 µPa/V)  [2.83  V @ 1. m]"	"Frequency / Hz"	"Sound Pressure Level / dB (re 20 µPa/V)  [2.83  V @ 1. m]"	"Frequency / Hz"	"Sound Pressure Level / dB (re 20 µPa/V)  [2.83  V @ 1. m]"	"Frequency / Hz"	"Sound Pressure Level / dB (re 20 µPa/V)  [2.83  V @ 1. m]"	"Frequency / Hz"	"Sound Pressure Level / dB (re 20 µPa/V)  [2.83  V @ 1. m]"	"Frequency / Hz"	"Sound Pressure Level / dB (re 20 µPa/V)  [2.83  V @ 1. m]"	"Frequency / Hz"	"Sound Pressure Level / dB (re 20 µPa/V)  [2.83  V @ 1. m]"	"Frequency / Hz"	"Sound Pressure Level / dB (re 20 µPa/V)  [2.83  V @ 1. m]"	"Frequency / Hz"	"Sound Pressure Level / dB (re 20 µPa/V)  [2.83  V @ 1. m]"	"Frequency / Hz"	"Sound Pressure Level / dB (re 20 µPa/V)  [2.83  V @ 1. m]"	"Frequency / Hz"	"Sound Pressure Level / dB (re 20 µPa/V)  [2.83  V @ 1. m]"	"Frequency / Hz"	"Sound Pressure Level / dB (re 20 µPa/V)  [2.83  V @ 1. m]"	"Frequency / Hz"	"Sound Pressure Level / dB (re 20 µPa/V)  [2.83  V @ 1. m]"	"Frequency / Hz"	"Sound Pressure Level / dB (re 20 µPa/V)  [2.83  V @ 1. m]"	"Frequency / Hz"	"Sound Pressure Level / dB (re 20 µPa/V)  [2.83  V @ 1. m]"	"Frequency / Hz"	"Sound Pressure Level / dB (re 20 µPa/V)  [2.83  V @ 1. m]"	"Frequency / Hz"	"Sound Pressure Level / dB (re 20 µPa/V)  [2.83  V @ 1. m]"	"Frequency / Hz"	"Sound Pressure Level / dB (re 20 µPa/V)  [2.83  V @ 1. m]"	"Frequency / Hz"	"Sound Pressure Level / dB (re 20 µPa/V)  [2.83  V @ 1. m]"	"Frequency / Hz"	"Sound Pressure Level / dB (re 20 µPa/V)  [2.83  V @ 1. m]"	"Frequency / Hz"	"Sound Pressure Level / dB (re 20 µPa/V)  [2.83  V @ 1. m]"	"Frequency / Hz"	"Sound Pressure Level / dB (re 20 µPa/V)  [2.83  V @ 1. m]"	"Frequency / Hz"	"Sound Pressure Level / dB (re 20 µPa/V)  [2.83  V @ 1. m]"	"Frequency / Hz"	"Sound Pressure Level / dB (re 20 µPa/V)  [2.83  V @ 1. m]"	"Frequency / Hz"	"Sound Pressure Level / dB (re 20 µPa/V)  [2.83  V @ 1. m]"	"Frequency / Hz"	"Sound Pressure Level / dB (re 20 µPa/V)  [2.83  V @ 1. m]"	"Frequency / Hz"	"Sound Pressure Level / dB (re 20 µPa/V)  [2.83  V @ 1. m]"	"Frequency / Hz"	"Sound Pressure Level / dB (re 20 µPa/V)  [2.83  V @ 1. m]"
20.5078	57.0005	20.5078	56.9514	20.5078	57.0398	20.5078	56.8987	20.5078	57.0638	20.5078	56.8486	20.5078	57.069	20.5078	56.8058	20.5078	57.0542	20.5078	56.7731	20.5078	57.0207	20.5078	56.7517	20.5078	56.972	20.5078	56.7409	20.5078	56.9129	20.5078	56.7393	20.5078	56.849	20.5078	56.7448	20.5078	56.7865	20.5078	56.7553	20.5078	56.731	20.5078	56.7688	20.5078	56.6876	20.5078	56.7833	20.5078	56.6597	20.5078	56.7966	20.5078	56.6493	20.5078	56.8064	20.5078	56.6557	20.5078	56.8102	20.5078	56.676	20.5078	56.8057	20.5078	56.7054	20.5078	56.7916	20.5078	56.738	20.5078	56.7682
21.9727	49.675	21.9727	49.4385	21.9727	49.8238	21.9727	49.1086	21.9727	49.8905	21.9727	48.6791	21.9727	49.8806	21.9727	48.1431	21.9727	49.7993	21.9727	47.4922	21.9727	49.6515	21.9727	46.7172	21.9727	49.4406	21.9727	45.8089	21.9727	49.1688	21.9727	44.7619	21.9727	48.8363	21.9727	43.5816	21.9727	48.4411	21.9727	42.3006	21.9727	47.9798	21.9727	41.0069	21.9727	47.4482	21.9727	39.8793	21.9727	46.843	21.9727	39.1696	21.9727	46.1634	21.9727	39.0535	21.9727	45.4136	21.9727	39.4707	21.9727	44.6037	21.9727	40.2046	21.9727	43.7487	21.9727	41.0683	21.9727	42.8651	21.9727	41.9668
23.4375	46.588	23.4375	46.4005	23.4375	46.7324	23.4375	46.1803	23.4375	46.8273	23.4375	45.9406	23.4375	46.8704	23.4375	45.6961	23.4375	46.8634	23.4375	45.4615	23.4375	46.8117	23.4375	45.2506	23.4375	46.7231	23.4375	45.0752	23.4375	46.6075	23.4375	44.9448	23.4375	46.4758	23.4375	44.866	23.4375	46.3391	23.4375	44.8425	23.4375	46.2081	23.4375	44.8735	23.4375	46.0919	23.4375	44.953	23.4375	45.9968	23.4375	45.0699	23.4375	45.925	23.4375	45.2091	23.4375	45.8737	23.4375	45.354	23.4375	45.8356	23.4375	45.4894	23.4375	45.8002	23.4375	45.6041	23.4375	45.756	23.4375	45.6927
24.9023	44.3857	24.9023	44.1382	24.9023	44.5719	24.9023	43.843	24.9023	44.6811	24.9023	43.5088	24.9023	44.6975	24.9023	43.1369	24.9023	44.6073	24.9023	42.7209	24.9023	44.3982	24.9023	42.2474	24.9023	44.0595	24.9023	41.6985	24.9023	43.581	24.9023	41.0544	24.9023	42.9522	24.9023	40.2965	24.9023	42.1626	24.9023	39.4091	24.9023	41.202	24.9023	38.3818	24.9023	40.0625	24.9023	37.2127	24.9023	38.7425	24.9023	35.9144	24.9023	37.254	24.9023	34.5243	24.9023	35.6361	24.9023	33.1237	24.9023	33.9755	24.9023	31.8641	24.9023	32.435	24.9023	30.9815	24.9023	31.2654	24.9023	30.7394
26.3672	50.2767	26.3672	50.2041	26.3672	50.2349	26.3672	50.0169	26.3672	50.0765	26.3672	49.7123	26.3672	49.7966	26.3672	49.2844	26.3672	49.3877	26.3672	48.7237	26.3672	48.8384	26.3672	48.0161	26.3672	48.1327	26.3672	47.1424	26.3672	47.2486	26.3672	46.0778	26.3672	46.1571	26.3672	44.7923	26.3672	44.8209	26.3672	43.2563	26.3672	43.1964	26.3672	41.4585	26.3672	41.249	26.3672	39.4653	26.3672	39.013	26.3672	37.5627	26.3672	36.7876	26.3672	36.3537	26.3672	35.3944	26.3672	36.2327	26.3672	35.4576	26.3672	36.753	26.3672	36.3004	26.3672	37.2533	26.3672	37.0569	26.3672	37.3904
27.832	47.9992	27.832	47.8887	27.832	47.9491	27.832	47.6182	27.832	47.7313	27.832	47.1815	27.832	47.3312	27.832	46.5654	27.832	46.7262	27.832	45.7502	27.832	45.8832	27.832	44.7132	27.832	44.7576	27.832	43.4436	27.832	43.2975	27.832	41.9919	27.832	41.4804	27.832	40.6044	27.832	39.4905	27.832	39.8859	27.832	38.2094	27.832	40.3993	27.832	38.8773	27.832	41.8237	27.832	40.8801	27.832	43.4484	27.832	42.9488	27.832	44.887	27.832	44.6415	27.832	46.0197	27.832	45.9082	27.832	46.8244	27.832	46.7794	27.832	47.3033	27.832	47.2887	27.832	47.4592
29.2969	53.6629	29.2969	53.5414	29.2969	53.6488	29.2969	53.2838	29.2969	53.4957	29.2969	52.8859	29.2969	53.1966	29.2969	52.3399	29.2969	52.7417	29.2969	51.6357	29.2969	52.1186	29.2969	50.7654	29.2969	51.3151	29.2969	49.734	29.2969	50.3273	29.2969	48.5875	29.2969	49.1797	29.2969	47.4692	29.2969	47.9754	29.2969	46.6786	29.2969	46.9736	29.2969	46.5699	29.2969	46.5769	29.2969	47.2003	29.2969	46.9992	29.2969	48.2445	29.2969	47.984	29.2969	49.3395	29.2969	49.1097	29.2969	50.2769	29.2969	50.1066	29.2969	50.9679	29.2969	50.8588	29.2969	51.3796	29.2969	51.3269	29.2969	51.5007
30.7617	54.9574	30.7617	54.881	30.7617	54.878	30.7617	54.646	30.7617	54.6427	30.7617	54.2472	30.7617	54.2485	30.7617	53.6791	30.7617	53.6915	30.7617	52.9423	30.7617	52.9728	30.7617	52.0575	30.7617	52.1115	30.7617	51.098	30.7617	51.1758	30.7617	50.2453	30.7617	50.3346	30.7617	49.8126	30.7617	49.8854	30.7617	50.0768	30.7617	50.1066	30.7617	50.9835	30.7617	50.9713	30.7617	52.2044	30.7617	52.1696	30.7617	53.4394	30.7617	53.3995	30.7617	54.5259	30.7617	54.49	30.7617	55.3949	30.7617	55.367	30.7617	56.0212	30.7617	56.0024	30.7617	56.3966	30.7617	56.3872	30.7617	56.5188
32.2266	56.1945	32.2266	56.1072	32.2266	56.1245	32.2266	55.8605	32.2266	55.8983	32.2266	55.4525	32.2266	55.5164	32.2266	54.8862	32.2266	54.9834	32.2266	54.1806	32.2266	54.3176	32.2266	53.3946	32.2266	53.5718	32.2266	52.6669	32.2266	52.8691	32.2266	52.2437	32.2266	52.4311	32.2266	52.3873	32.2266	52.5099	32.2266	53.1464	32.2266	53.1851	32.2266	54.2967	32.2266	54.2733	32.2266	55.5558	32.2266	55.5025	32.2266	56.7364	32.2266	56.6765	32.2266	57.7463	32.2266	57.6922	32.2266	58.5463	32.2266	58.5037	32.2266	59.1208	32.2266	59.0919	32.2266	59.464	32.2266	59.4495	32.2266	59.5737
33.6914	58.5543	33.6914	58.4805	33.6914	58.4896	33.6914	58.2679	33.6914	58.2883	33.6914	57.9195	33.6914	57.9552	33.6914	57.4471	33.6914	57.5027	33.6914	56.8831	33.6914	56.9613	33.6914	56.2998	33.6914	56.3979	33.6914	55.8324	33.6914	55.9369	33.6914	55.6701	33.6914	55.757	33.6914	55.9663	33.6914	56.0129	33.6914	56.7123	33.6914	56.7144	33.6914	57.7406	33.6914	57.7117	33.6914	58.8524	33.6914	58.8099	33.6914	59.9049	33.6914	59.8615	33.6914	60.8174	33.6914	60.7797	33.6914	61.5488	33.6914	61.5199	33.6914	62.079	33.6914	62.0598	33.6914	62.3982	33.6914	62.3887	33.6914	62.5019
35.1562	60.5734	35.1562	60.5045	35.1562	60.5124	35.1562	60.306	35.1562	60.3263	35.1562	59.9843	35.1562	60.026	35.1562	59.559	35.1562	59.6346	35.1562	59.0746	35.1562	59.1981	35.1562	58.618	35.1562	58.7996	35.1562	58.3287	35.1562	58.566	35.1562	58.3679	35.1562	58.6378	35.1562	58.8267	35.1562	59.0919	35.1562	59.6504	35.1562	59.8807	35.1562	60.6801	35.1562	60.8645	35.1562	61.7538	35.1562	61.8952	35.1562	62.7583	35.1562	62.8644	35.1562	63.6277	35.1562	63.7058	35.1562	64.3271	35.1562	64.3823	35.1562	64.8381	35.1562	64.8734	35.1562	65.1511	35.1562	65.1684	35.1562	65.2616
36.6211	63.4804	36.6211	63.4175	36.6211	63.4397	36.6211	63.2519	36.6211	63.2999	36.6211	62.9917	36.6211	63.0722	36.6211	62.6564	36.6211	62.778	36.6211	62.2848	36.6211	62.4555	36.6211	61.9437	36.6211	62.167	36.6211	61.7308	36.6211	61.9994	36.6211	61.7546	36.6211	62.0471	36.6211	62.0849	36.6211	62.3709	36.6211	62.7055	36.6211	62.9588	36.6211	63.5225	36.6211	63.7306	36.6211	64.4162	36.6211	64.579	36.6211	65.2851	36.6211	65.4084	36.6211	66.0591	36.6211	66.1498	36.6211	66.6945	36.6211	66.7582	36.6211	67.1653	36.6211	67.2058	36.6211	67.4567	36.6211	67.4764	36.6211	67.561
38.0859	65.8035	38.0859	65.7242	38.0859	65.7923	38.0859	65.5578	38.0859	65.6938	38.0859	65.316	38.0859	65.5186	38.0859	65.0222	38.0859	65.2877	38.0859	64.718	38.0859	65.0376	38.0859	64.4678	38.0859	64.8242	38.0859	64.3557	38.0859	64.7215	38.0859	64.464	38.0859	64.8055	38.0859	64.8348	38.0859	65.1231	38.0859	65.4429	38.0859	65.6648	38.0859	66.2081	38.0859	66.3669	38.0859	67.0327	38.0859	67.141	38.0859	67.8323	38.0859	67.9042	38.0859	68.5459	38.0859	68.5926	38.0859	69.1329	38.0859	69.1625	38.0859	69.5679	38.0859	69.5854	38.0859	69.8358	38.0859	69.8439	38.0859	69.9285
39.5508	67.702	39.5508	67.6293	39.5508	67.6822	39.5508	67.4691	39.5508	67.5716	39.5508	67.2349	39.5508	67.38	39.5508	66.952	39.5508	67.128	39.5508	66.662	39.5508	66.8521	39.5508	66.4273	39.5508	66.6094	39.5508	66.3267	39.5508	66.4763	39.5508	66.4351	39.5508	66.5327	39.5508	66.7898	39.5508	66.8294	39.5508	67.3679	39.5508	67.3587	39.5508	68.0959	39.5508	68.0558	39.5508	68.8831	39.5508	68.8298	39.5508	69.6493	39.5508	69.5954	39.5508	70.3347	39.5508	70.2876	39.5508	70.8988	39.5508	70.8623	39.5508	71.3156	39.5508	71.291	39.5508	71.569	39.5508	71.5567	39.5508	71.6503
41.0156	69.2592	41.0156	69.1978	41.0156	69.2579	41.0156	69.0795	41.0156	69.1964	41.0156	68.9201	41.0156	69.0867	41.0156	68.7473	41.0156	68.952	41.0156	68.6023	41.0156	68.8286	41.0156	68.5391	41.0156	68.766	41.0156	68.6149	41.0156	68.8199	41.0156	68.8727	41.0156	69.0375	41.0156	69.321	41.0156	69.4372	41.0156	69.9279	41.0156	69.9983	41.0156	70.6332	41.0156	70.668	41.0156	71.3691	41.0156	71.3802	41.0156	72.075	41.0156	72.0729	41.0156	72.704	41.0156	72.6962	41.0156	73.2222	41.0156	73.2135	41.0156	73.6064	41.0156	73.5995	41.0156	73.8417	41.0156	73.8379	41.0156	73.9197
42.4805	71.1932	42.4805	71.1486	42.4805	71.2054	42.4805	71.0792	42.4805	71.1859	42.4805	71.0009	42.4805	71.1442	42.4805	70.9383	42.4805	71.0992	42.4805	70.9235	42.4805	71.0798	42.4805	70.9931	42.4805	71.122	42.4805	71.1797	42.4805	71.2638	42.4805	71.5026	42.4805	71.5337	42.4805	71.9589	42.4805	71.9398	42.4805	72.5225	42.4805	72.465	42.4805	73.1511	42.4805	73.0707	42.4805	73.7968	42.4805	73.7082	42.4805	74.4144	42.4805	74.329	42.4805	74.9655	42.4805	74.8912	42.4805	75.4205	42.4805	75.3619	42.4805	75.7573	42.4805	75.7172	42.4805	75.961	42.4805	75.9407	42.4805	76.023
43.9453	74.2018	43.9453	74.1804	43.9453	74.1961	43.9453	74.1367	43.9453	74.1634	43.9453	74.0801	43.9453	74.1096	43.9453	74.0252	43.9453	74.0463	43.9453	73.9914	43.9453	73.9922	43.9453	74.0022	43.9453	73.9726	43.9453	74.0824	43.9453	74.0163	43.9453	74.2528	43.9453	74.1503	43.9453	74.5237	43.9453	74.3917	43.9453	74.8904	43.9453	74.7403	43.9453	75.3316	43.9453	75.1768	43.9453	75.814	43.9453	75.6667	43.9453	76.299	43.9453	76.1682	43.9453	76.7486	43.9453	76.6402	43.9453	77.1299	43.9453	77.0471	43.9453	77.4168	43.9453	77.3611	43.9453	77.5906	43.9453	77.5627	43.9453	77.6405
45.4102	75.7825	45.4102	75.7671	45.4102	75.7651	45.4102	75.7216	45.4102	75.717	45.4102	75.6535	45.4102	75.6454	45.4102	75.5755	45.4102	75.563	45.4102	75.5062	45.4102	75.4894	45.4102	75.4699	45.4102	75.4497	45.4102	75.494	45.4102	75.4727	45.4102	75.6046	45.4102	75.5852	45.4102	75.8189	45.4102	75.804	45.4102	76.1381	45.4102	76.1294	45.4102	76.5448	45.4102	76.5427	45.4102	77.0065	45.4102	77.0099	45.4102	77.4827	45.4102	77.4899	45.4102	77.9326	45.4102	77.9416	45.4102	78.3207	45.4102	78.3293	45.4102	78.6185	45.4102	78.6252	45.4102	78.8059	45.4102	78.8096	45.4102	78.871
46.875	77.0338	46.875	77.0002	46.875	77.0411	46.875	76.9441	46.875	77.0235	46.875	76.8741	46.875	76.9876	46.875	76.8043	46.875	76.9455	46.875	76.7541	46.875	76.915	46.875	76.7474	46.875	76.919	46.875	76.8098	46.875	76.9824	46.875	76.9628	46.875	77.1276	46.875	77.2179	46.875	77.3677	46.875	77.5708	46.875	77.7009	46.875	78.0009	46.875	78.1096	46.875	78.4753	46.875	78.5633	46.875	78.9557	46.875	79.0249	46.875	79.4047	46.875	79.4572	46.875	79.7895	46.875	79.8273	46.875	80.0843	46.875	80.1088	46.875	80.2708	46.875	80.2828	46.875	80.3381
48.3398	78.3926	48.3398	78.345	48.3398	78.4267	48.3398	78.2875	48.3398	78.4477	48.3398	78.2281	48.3398	78.4605	48.3398	78.1791	48.3398	78.4739	48.3398	78.1571	48.3398	78.501	48.3398	78.1817	48.3398	78.5578	48.3398	78.2726	48.3398	78.6617	48.3398	78.4454	48.3398	78.8273	48.3398	78.7066	48.3398	79.0634	48.3398	79.0505	48.3398	79.3683	48.3398	79.4584	48.3398	79.7295	48.3398	79.9024	48.3398	80.1245	48.3398	80.3496	48.3398	80.5247	48.3398	80.7674	48.3398	80.8996	48.3398	81.1268	48.3398	81.2208	48.3398	81.4043	48.3398	81.4644	48.3398	81.5831	48.3398	81.6124	48.3398	81.6534
51.2695	81.4207	51.2695	81.3978	51.2695	81.4358	51.2695	81.3701	51.2695	81.4423	51.2695	81.343	51.2695	81.4419	51.2695	81.3234	51.2695	81.4392	51.2695	81.3201	51.2695	81.4418	51.2695	81.3432	51.2695	81.4598	51.2695	81.403	51.2695	81.5051	51.2695	81.5088	51.2695	81.5896	51.2695	81.6663	51.2695	81.7224	51.2695	81.8759	51.2695	81.9074	51.2695	82.1306	51.2695	82.1408	51.2695	82.4164	51.2695	82.4106	51.2695	82.7134	51.2695	82.6976	51.2695	82.9984	51.2695	82.9785	51.2695	83.248	51.2695	83.2288	51.2695	83.4414	51.2695	83.4266	51.2695	83.5625	51.2695	83.5545	51.2695	83.6012
52.7344	82.6734	52.7344	82.6518	52.7344	82.676	52.7344	82.6134	52.7344	82.6599	52.7344	82.5627	52.7344	82.6278	52.7344	82.5067	52.7344	82.5852	52.7344	82.4548	52.7344	82.5406	52.7344	82.4187	52.7344	82.5049	52.7344	82.4114	52.7344	82.4915	52.7344	82.446	52.7344	82.5141	52.7344	82.5325	52.7344	82.5846	52.7344	82.6758	52.7344	82.71	52.7344	82.8727	52.7344	82.8895	52.7344	83.1111	52.7344	83.1135	52.7344	83.3717	52.7344	83.3639	52.7344	83.6304	52.7344	83.6172	52.7344	83.8624	52.7344	83.8482	52.7344	84.0449	52.7344	84.0333	52.7344	84.1603	52.7344	84.1539	52.7344	84.1977
54.1992	83.014	54.1992	82.9846	54.1992	83.0225	54.1992	82.9372	54.1992	83.0106	54.1992	82.8777	54.1992	82.9821	54.1992	82.8152	54.1992	82.9439	54.1992	82.7616	54.1992	82.9063	54.1992	82.7306	54.1992	82.882	54.1992	82.737	54.1992	82.8853	54.1992	82.7937	54.1992	82.9302	54.1992	82.9095	54.1992	83.0274	54.1992	83.0865	54.1992	83.1817	54.1992	83.318	54.1992	83.3897	54.1992	83.5889	54.1992	83.6391	54.1992	83.8777	54.1992	83.91	54.1992	84.1593	54.1992	84.1784	54.1992	84.4089	54.1992	84.419	54.1992	84.6044	54.1992	84.6091	54.1992	84.7289	54.1992	84.7306	54.1992	84.772
55.6641	82.8649	55.6641	82.8381	55.6641	82.8946	55.6641	82.8171	55.6641	82.9268	55.6641	82.8074	55.6641	82.9634	55.6641	82.8161	55.6641	83.0089	55.6641	82.8515	55.6641	83.0695	55.6641	82.9219	55.6641	83.1525	55.6641	83.0345	55.6641	83.2651	55.6641	83.1938	55.6641	83.4132	55.6641	83.4005	55.6641	83.5999	55.6641	83.6501	55.6641	83.8238	55.6641	83.9331	55.6641	84.0787	55.6641	84.2352	55.6641	84.3529	55.6641	84.5387	55.6641	84.6305	55.6641	84.8238	55.6641	84.8925	55.6641	85.0712	55.6641	85.1199	55.6641	85.2637	55.6641	85.2947	55.6641	85.3878	55.6641	85.4029	55.6641	85.4351
58.5938	84.5073	58.5938	84.4916	58.5938	84.5289	58.5938	84.4837	58.5938	84.555	58.5938	84.4862	58.5938	84.5857	58.5938	84.5023	58.5938	84.6217	58.5938	84.5353	58.5938	84.6655	58.5938	84.5889	58.5938	84.7202	58.5938	84.6664	58.5938	84.79	58.5938	84.7704	58.5938	84.879	58.5938	84.9023	58.5938	84.9908	58.5938	85.0611	58.5938	85.127	58.5938	85.2428	58.5938	85.2865	58.5938	85.4398	58.5938	85.4639	58.5938	85.6414	58.5938	85.65	58.5938	85.8339	58.5938	85.8324	58.5938	86.0027	58.5938	85.9962	58.5938	86.134	58.5938	86.127	58.5938	86.2166	58.5938	86.2123	58.5938	86.2433
60.0586	84.9936	60.0586	84.9822	60.0586	85.0103	60.0586	84.9778	60.0586	85.0314	60.0586	84.9826	60.0586	85.0566	60.0586	84.9993	60.0586	85.0869	60.0586	85.0306	60.0586	85.124	60.0586	85.0794	60.0586	85.1709	60.0586	85.1486	60.0586	85.2311	60.0586	85.2406	60.0586	85.3084	60.0586	85.3565	60.0586	85.406	60.0586	85.4957	60.0586	85.5257	60.0586	85.6552	60.0586	85.6667	60.0586	85.8286	60.0586	85.8248	60.0586	86.0065	60.0586	85.9919	60.0586	86.177	60.0586	86.1569	60.0586	86.3268	60.0586	86.3065	60.0586	86.4432	60.0586	86.427	60.0586	86.5157	60.0586	86.5067	60.0586	86.5374
62.9883	86.0545	62.9883	86.0543	62.9883	86.0617	62.9883	86.0609	62.9883	86.0764	62.9883	86.0747	62.9883	86.0994	62.9883	86.0966	62.9883	86.1315	62.9883	86.1282	62.9883	86.1739	62.9883	86.1718	62.9883	86.2275	62.9883	86.2299	62.9883	86.2938	62.9883	86.3051	62.9883	86.374	62.9883	86.3991	62.9883	86.4691	62.9883	86.5124	62.9883	86.5795	62.9883	86.6434	62.9883	86.7038	62.9883	86.7875	62.9883	86.8388	62.9883	86.9376	62.9883	86.9784	62.9883	87.0839	62.9883	87.1141	62.9883	87.2148	62.9883	87.2355	62.9883	87.3191	62.9883	87.3317	62.9883	87.387	62.9883	87.393	62.9883	87.4123
64.4531	86.3523	64.4531	86.3532	64.4531	86.3592	64.4531	86.3617	64.4531	86.3746	64.4531	86.378	64.4531	86.3988	64.4531	86.4025	64.4531	86.4324	64.4531	86.4362	64.4531	86.4759	64.4531	86.4807	64.4531	86.5297	64.4531	86.5379	64.4531	86.5946	64.4531	86.6094	64.4531	86.6711	64.4531	86.6965	64.4531	86.7599	64.4531	86.7996	64.4531	86.8609	64.4531	86.9173	64.4531	86.9732	64.4531	87.0459	64.4531	87.0939	64.4531	87.1794	64.4531	87.2181	64.4531	87.3093	64.4531	87.3386	64.4531	87.4259	64.4531	87.4463	64.4531	87.5189	64.4531	87.5316	64.4531	87.5798	64.4531	87.5858	64.4531	87.6027
67.3828	86.822	67.3828	86.8237	67.3828	86.8308	67.3828	86.8354	67.3828	86.8505	67.3828	86.8565	67.3828	86.8808	67.3828	86.8867	67.3828	86.9214	67.3828	86.9254	67.3828	86.9714	67.3828	86.9728	67.3828	87.03	67.3828	87.0291	67.3828	87.0962	67.3828	87.0947	67.3828	87.1694	67.3828	87.1699	67.3828	87.249	67.3828	87.2547	67.3828	87.3344	67.3828	87.3484	67.3828	87.4248	67.3828	87.4489	67.3828	87.5184	67.3828	87.5522	67.3828	87.6122	67.3828	87.6529	67.3828	87.7016	67.3828	87.7438	67.3828	87.7803	67.3828	87.8174	67.3828	87.8417	67.3828	87.8671	67.3828	87.8792	67.3828	87.8882
