"SPL Vertical"
"On-Axis"		"10°"		"-10°"		"20°"		"-20°"		"30°"		"-30°"		"40°"		"-40°"		"50°"		"-50°"		"60°"		"-60°"		"70°"		"-70°"		"80°"		"-80°"		"90°"		"-90°"		"100°"		"-100°"		"110°"		"-110°"		"120°"		"-120°"		"130°"		"-130°"		"140°"		"-140°"		"150°"		"-150°"		"160°"		"-160°"		"170°"		"-170°"		"180°"
"Frequency / Hz"	"Sound Pressure Level / dB (re 20 µPa/V)  [2.83  V @ 1. m]"	"Frequency / Hz"	"Sound Pressure Level / dB (re 20 µPa/V)  [2.83  V @ 1. m]"	"Frequency / Hz"	"Sound Pressure Level / dB (re 20 µPa/V)  [2.83  V @ 1. m]"	"Frequency / Hz"	"Sound Pressure Level / dB (re 20 µPa/V)  [2.83  V @ 1. m]"	"Frequency / Hz"	"Sound Pressure Level / dB (re 20 µPa/V)  [2.83  V @ 1. m]"	"Frequency / Hz"	"Sound Pressure Level / dB (re 20 µPa/V)  [2.83  V @ 1. m]"	"Frequency / Hz"	"Sound Pressure Level / dB (re 20 µPa/V)  [2.83  V @ 1. m]"	"Frequency / Hz"	"Sound Pressure Level / dB (re 20 µPa/V)  [2.83  V @ 1. m]"	"Frequency / Hz"	"Sound Pressure Level / dB (re 20 µPa/V)  [2.83  V @ 1. m]"	"Frequency / Hz"	"Sound Pressure Level / dB (re 20 µPa/V)  [2.83  V @ 1. m]"	"Frequency / Hz"	"Sound Pressure Level / dB (re 20 µPa/V)  [2.83  V @ 1. m]"	"Frequency / Hz"	"Sound Pressure Level / dB (re 20 µPa/V)  [2.83  V @ 1. m]"	"Frequency / Hz"	"Sound Pressure Level / dB (re 20 µPa/V)  [2.83  V @ 1. m]"	"Frequency / Hz"	"Sound Pressure Level / dB (re 20 µPa/V)  [2.83  V @ 1. m]"	"Frequency / Hz"	"Sound Pressure Level / dB (re 20 µPa/V)  [2.83  V @ 1. m]"	"Frequency / Hz"	"Sound Pressure Level / dB (re 20 µPa/V)  [2.83  V @ 1. m]"	"Frequency / Hz"	"Sound Pressure Level / dB (re 20 µPa/V)  [2.83  V @ 1. m]"	"Frequency / Hz"	"Sound Pressure Level / dB (re 20 µPa/V)  [2.83  V @ 1. m]"	"Frequency / Hz"	"Sound Pressure Level / dB (re 20 µPa/V)  [2.83  V @ 1. m]"	"Frequency / Hz"	"Sound Pressure Level / dB (re 20 µPa/V)  [2.83  V @ 1. m]"	"Frequency / Hz"	"Sound Pressure Level / dB (re 20 µPa/V)  [2.83  V @ 1. m]"	"Frequency / Hz"	"Sound Pressure Level / dB (re 20 µPa/V)  [2.83  V @ 1. m]"	"Frequency / Hz"	"Sound Pressure Level / dB (re 20 µPa/V)  [2.83  V @ 1. m]"	"Frequency / Hz"	"Sound Pressure Level / dB (re 20 µPa/V)  [2.83  V @ 1. m]"	"Frequency / Hz"	"Sound Pressure Level / dB (re 20 µPa/V)  [2.83  V @ 1. m]"	"Frequency / Hz"	"Sound Pressure Level / dB (re 20 µPa/V)  [2.83  V @ 1. m]"	"Frequency / Hz"	"Sound Pressure Level / dB (re 20 µPa/V)  [2.83  V @ 1. m]"	"Frequency / Hz"	"Sound Pressure Level / dB (re 20 µPa/V)  [2.83  V @ 1. m]"	"Frequency / Hz"	"Sound Pressure Level / dB (re 20 µPa/V)  [2.83  V @ 1. m]"	"Frequency / Hz"	"Sound Pressure Level / dB (re 20 µPa/V)  [2.83  V @ 1. m]"	"Frequency / Hz"	"Sound Pressure Level / dB (re 20 µPa/V)  [2.83  V @ 1. m]"	"Frequency / Hz"	"Sound Pressure Level / dB (re 20 µPa/V)  [2.83  V @ 1. m]"	"Frequency / Hz"	"Sound Pressure Level / dB (re 20 µPa/V)  [2.83  V @ 1. m]"	"Frequency / Hz"	"Sound Pressure Level / dB (re 20 µPa/V)  [2.83  V @ 1. m]"	"Frequency / Hz"	"Sound Pressure Level / dB (re 20 µPa/V)  [2.83  V @ 1. m]"	"Frequency / Hz"	"Sound Pressure Level / dB (re 20 µPa/V)  [2.83  V @ 1. m]"
20.5078	68.4932	20.5078	68.5208	20.5078	68.4682	20.5078	68.5504	20.5078	68.447	20.5078	68.5826	20.5078	68.4319	20.5078	68.6188	20.5078	68.4252	20.5078	68.661	20.5078	68.4291	20.5078	68.7113	20.5078	68.4458	20.5078	68.7713	20.5078	68.4767	20.5078	68.842	20.5078	68.5226	20.5078	68.923	20.5078	68.584	20.5078	69.0128	20.5078	68.6604	20.5078	69.1079	20.5078	68.7508	20.5078	69.2036	20.5078	68.8528	20.5078	69.2936	20.5078	68.9631	20.5078	69.3708	20.5078	69.0768	20.5078	69.4281	20.5078	69.1877	20.5078	69.4593	20.5078	69.2885	20.5078	69.4605	20.5078	69.3717	20.5078	69.4306
21.9727	65.5969	21.9727	65.5849	21.9727	65.6022	21.9727	65.5663	21.9727	65.6014	21.9727	65.5416	21.9727	65.5954	21.9727	65.5123	21.9727	65.5852	21.9727	65.4803	21.9727	65.5718	21.9727	65.4478	21.9727	65.556	21.9727	65.4172	21.9727	65.5385	21.9727	65.3909	21.9727	65.5196	21.9727	65.3706	21.9727	65.4999	21.9727	65.3576	21.9727	65.4799	21.9727	65.3521	21.9727	65.4604	21.9727	65.3534	21.9727	65.4423	21.9727	65.36	21.9727	65.4267	21.9727	65.3696	21.9727	65.4145	21.9727	65.3798	21.9727	65.4063	21.9727	65.3883	21.9727	65.4016	21.9727	65.3942	21.9727	65.3993	21.9727	65.3974
23.4375	67.7307	23.4375	67.7266	23.4375	67.7287	23.4375	67.7162	23.4375	67.7209	23.4375	67.6997	23.4375	67.7081	23.4375	67.6779	23.4375	67.6909	23.4375	67.6515	23.4375	67.6699	23.4375	67.6219	23.4375	67.6458	23.4375	67.5904	23.4375	67.6192	23.4375	67.5586	23.4375	67.5909	23.4375	67.5279	23.4375	67.5615	23.4375	67.4995	23.4375	67.532	23.4375	67.4743	23.4375	67.5034	23.4375	67.4531	23.4375	67.4766	23.4375	67.4358	23.4375	67.4529	23.4375	67.4225	23.4375	67.4331	23.4375	67.4125	23.4375	67.4179	23.4375	67.4054	23.4375	67.4075	23.4375	67.4012	23.4375	67.4016	23.4375	67.3997
24.9023	69.1838	24.9023	69.189	24.9023	69.1715	24.9023	69.187	24.9023	69.1529	24.9023	69.1779	24.9023	69.1287	24.9023	69.1627	24.9023	69.1001	24.9023	69.1423	24.9023	69.0685	24.9023	69.1181	24.9023	69.035	24.9023	69.0915	24.9023	69.0009	24.9023	69.064	24.9023	68.9676	24.9023	69.0369	24.9023	68.9362	24.9023	69.0113	24.9023	68.9079	24.9023	68.9877	24.9023	68.8839	24.9023	68.9664	24.9023	68.865	24.9023	68.9473	24.9023	68.8519	24.9023	68.93	24.9023	68.845	24.9023	68.9138	24.9023	68.8441	24.9023	68.8983	24.9023	68.8487	24.9023	68.8834	24.9023	68.8576	24.9023	68.8695
26.3672	69.7332	26.3672	69.7383	26.3672	69.7201	26.3672	69.735	26.3672	69.6992	26.3672	69.724	26.3672	69.6714	26.3672	69.7059	26.3672	69.6379	26.3672	69.6819	26.3672	69.5999	26.3672	69.6535	26.3672	69.5588	26.3672	69.622	26.3672	69.5162	26.3672	69.589	26.3672	69.4737	26.3672	69.5559	26.3672	69.4329	26.3672	69.5237	26.3672	69.3954	26.3672	69.4934	26.3672	69.3628	26.3672	69.4654	26.3672	69.3366	26.3672	69.4396	26.3672	69.3178	26.3672	69.4157	26.3672	69.3071	26.3672	69.3934	26.3672	69.3043	26.3672	69.3723	26.3672	69.3088	26.3672	69.3524	26.3672	69.3193	26.3672	69.3344
27.832	69.9909	27.832	69.9906	27.832	69.987	27.832	69.9859	27.832	69.979	27.832	69.9768	27.832	69.9669	27.832	69.9634	27.832	69.9511	27.832	69.9461	27.832	69.9318	27.832	69.9251	27.832	69.9091	27.832	69.9011	27.832	69.8837	27.832	69.8749	27.832	69.856	27.832	69.8473	27.832	69.827	27.832	69.8192	27.832	69.7974	27.832	69.7915	27.832	69.7684	27.832	69.7651	27.832	69.7412	27.832	69.7408	27.832	69.717	27.832	69.719	27.832	69.6967	27.832	69.7004	27.832	69.6814	27.832	69.6854	27.832	69.6714	27.832	69.6745	27.832	69.6671	27.832	69.6683
29.2969	71.2754	29.2969	71.2743	29.2969	71.2701	29.2969	71.2669	29.2969	71.2586	29.2969	71.2534	29.2969	71.2409	29.2969	71.2341	29.2969	71.2176	29.2969	71.2095	29.2969	71.1891	29.2969	71.1802	29.2969	71.156	29.2969	71.147	29.2969	71.1192	29.2969	71.1108	29.2969	71.0796	29.2969	71.0726	29.2969	71.0384	29.2969	71.0336	29.2969	70.9968	29.2969	70.9948	29.2969	70.9563	29.2969	70.9573	29.2969	70.9184	29.2969	70.9223	29.2969	70.8846	29.2969	70.8906	29.2969	70.8562	29.2969	70.8632	29.2969	70.8345	29.2969	70.841	29.2969	70.8203	29.2969	70.8249	29.2969	70.814	29.2969	70.8157
30.7617	72.1122	30.7617	72.1087	30.7617	72.1071	30.7617	72.0968	30.7617	72.0937	30.7617	72.0768	30.7617	72.0725	30.7617	72.0494	30.7617	72.0443	30.7617	72.0158	30.7617	72.0099	30.7617	71.9769	30.7617	71.9705	30.7617	71.9343	30.7617	71.9273	30.7617	71.8893	30.7617	71.8818	30.7617	71.8435	30.7617	71.8352	30.7617	71.7984	30.7617	71.7891	30.7617	71.7554	30.7617	71.7451	30.7617	71.7157	30.7617	71.7045	30.7617	71.6802	30.7617	71.6686	30.7617	71.6498	30.7617	71.6387	30.7617	71.6251	30.7617	71.6154	30.7617	71.6065	30.7617	71.5992	30.7617	71.5943	30.7617	71.5904	30.7617	71.5888
32.2266	72.6139	32.2266	72.6093	32.2266	72.6104	32.2266	72.5967	32.2266	72.5989	32.2266	72.5765	32.2266	72.5797	32.2266	72.5494	32.2266	72.5533	32.2266	72.5163	32.2266	72.5207	32.2266	72.4783	32.2266	72.4827	32.2266	72.4367	32.2266	72.4405	32.2266	72.3928	32.2266	72.3954	32.2266	72.3481	32.2266	72.3489	32.2266	72.3042	32.2266	72.3027	32.2266	72.2622	32.2266	72.2582	32.2266	72.2236	32.2266	72.2171	32.2266	72.1892	32.2266	72.1809	32.2266	72.1597	32.2266	72.1506	32.2266	72.1358	32.2266	72.1271	32.2266	72.1177	32.2266	72.1109	32.2266	72.1058	32.2266	72.1021	32.2266	72.1005
33.6914	73.4012	33.6914	73.3908	33.6914	73.4031	33.6914	73.3722	33.6914	73.3964	33.6914	73.3459	33.6914	73.3813	33.6914	73.3126	33.6914	73.358	33.6914	73.2734	33.6914	73.3273	33.6914	73.2294	33.6914	73.2898	33.6914	73.1819	33.6914	73.2465	33.6914	73.1324	33.6914	73.1988	33.6914	73.0824	33.6914	73.1479	33.6914	73.0336	33.6914	73.0956	33.6914	72.9874	33.6914	73.0436	33.6914	72.9452	33.6914	72.9937	33.6914	72.9081	33.6914	72.9478	33.6914	72.8769	33.6914	72.9076	33.6914	72.8524	33.6914	72.8744	33.6914	72.8353	33.6914	72.8492	33.6914	72.826	33.6914	72.8327	33.6914	72.825
35.1562	74.1366	35.1562	74.1334	35.1562	74.1314	35.1562	74.1218	35.1562	74.1179	35.1562	74.102	35.1562	74.0966	35.1562	74.0748	35.1562	74.0681	35.1562	74.0407	35.1562	74.033	35.1562	74.0009	35.1562	73.9924	35.1562	73.9567	35.1562	73.9474	35.1562	73.9094	35.1562	73.8993	35.1562	73.8607	35.1562	73.8495	35.1562	73.812	35.1562	73.7996	35.1562	73.7648	35.1562	73.7512	35.1562	73.7207	35.1562	73.7059	35.1562	73.6807	35.1562	73.6654	35.1562	73.6459	35.1562	73.6312	35.1562	73.6171	35.1562	73.6042	35.1562	73.5951	35.1562	73.5855	35.1562	73.5804	35.1562	73.5752	35.1562	73.5736
36.6211	74.7716	36.6211	74.7668	36.6211	74.7674	36.6211	74.7531	36.6211	74.7545	36.6211	74.7309	36.6211	74.7334	36.6211	74.7008	36.6211	74.7045	36.6211	74.6637	36.6211	74.6689	36.6211	74.6207	36.6211	74.6276	36.6211	74.5729	36.6211	74.5817	36.6211	74.522	36.6211	74.5327	36.6211	74.4696	36.6211	74.4818	36.6211	74.4173	36.6211	74.4307	36.6211	74.3668	36.6211	74.3808	36.6211	74.3197	36.6211	74.3337	36.6211	74.2776	36.6211	74.2907	36.6211	74.2417	36.6211	74.2532	36.6211	74.2131	36.6211	74.2224	36.6211	74.1926	36.6211	74.1991	36.6211	74.1808	36.6211	74.1841	36.6211	74.1779
38.0859	75.3492	38.0859	75.3439	38.0859	75.3447	38.0859	75.3289	38.0859	75.3308	38.0859	75.3046	38.0859	75.308	38.0859	75.2714	38.0859	75.277	38.0859	75.2303	38.0859	75.2388	38.0859	75.1823	38.0859	75.1945	38.0859	75.129	38.0859	75.1453	38.0859	75.0718	38.0859	75.0926	38.0859	75.0127	38.0859	75.0379	38.0859	74.9535	38.0859	74.9826	38.0859	74.8963	38.0859	74.9283	38.0859	74.8431	38.0859	74.8764	38.0859	74.7956	38.0859	74.8285	38.0859	74.7556	38.0859	74.7857	38.0859	74.7245	38.0859	74.7496	38.0859	74.7031	38.0859	74.7212	38.0859	74.6922	38.0859	74.7016	38.0859	74.6917
39.5508	75.9179	39.5508	75.9128	39.5508	75.9151	39.5508	75.8996	39.5508	75.9046	39.5508	75.8787	39.5508	75.8867	39.5508	75.8504	39.5508	75.8622	39.5508	75.8154	39.5508	75.8316	39.5508	75.7745	39.5508	75.7959	39.5508	75.7289	39.5508	75.756	39.5508	75.68	39.5508	75.713	39.5508	75.6293	39.5508	75.6681	39.5508	75.5785	39.5508	75.6223	39.5508	75.5295	39.5508	75.5769	39.5508	75.484	39.5508	75.533	39.5508	75.4437	39.5508	75.4917	39.5508	75.4102	39.5508	75.4541	39.5508	75.3848	39.5508	75.4214	39.5508	75.3684	39.5508	75.3947	39.5508	75.3613	39.5508	75.3751	39.5508	75.3638
41.0156	76.467	41.0156	76.4694	41.0156	76.4585	41.0156	76.4655	41.0156	76.4443	41.0156	76.4553	41.0156	76.4249	41.0156	76.439	41.0156	76.401	41.0156	76.4172	41.0156	76.3734	41.0156	76.3905	41.0156	76.3431	41.0156	76.3598	41.0156	76.3112	41.0156	76.3263	41.0156	76.2788	41.0156	76.2914	41.0156	76.2471	41.0156	76.2564	41.0156	76.2171	41.0156	76.2227	41.0156	76.1898	41.0156	76.1916	41.0156	76.1658	41.0156	76.1642	41.0156	76.1454	41.0156	76.1414	41.0156	76.1289	41.0156	76.1236	41.0156	76.1161	41.0156	76.111	41.0156	76.1071	41.0156	76.1034	41.0156	76.1018	41.0156	76.1004
42.4805	76.926	42.4805	76.9177	42.4805	76.9256	42.4805	76.9009	42.4805	76.9168	42.4805	76.8756	42.4805	76.9001	42.4805	76.8426	42.4805	76.8763	42.4805	76.8027	42.4805	76.8463	42.4805	76.7571	42.4805	76.8112	42.4805	76.7074	42.4805	76.7724	42.4805	76.6555	42.4805	76.7313	42.4805	76.6035	42.4805	76.6892	42.4805	76.5536	42.4805	76.6476	42.4805	76.5079	42.4805	76.6075	42.4805	76.4685	42.4805	76.5696	42.4805	76.4368	42.4805	76.5346	42.4805	76.414	42.4805	76.5027	42.4805	76.4005	42.4805	76.474	42.4805	76.396	42.4805	76.4487	42.4805	76.3997	42.4805	76.4273	42.4805	76.4106
43.9453	77.4811	43.9453	77.4744	43.9453	77.4768	43.9453	77.4567	43.9453	77.4619	43.9453	77.428	43.9453	77.4372	43.9453	77.389	43.9453	77.4038	43.9453	77.3408	43.9453	77.3628	43.9453	77.2847	43.9453	77.3158	43.9453	77.2228	43.9453	77.2643	43.9453	77.1573	43.9453	77.21	43.9453	77.0906	43.9453	77.1547	43.9453	77.0254	43.9453	77.1001	43.9453	76.9646	43.9453	77.0475	43.9453	76.9106	43.9453	76.9981	43.9453	76.8655	43.9453	76.9528	43.9453	76.831	43.9453	76.912	43.9453	76.8079	43.9453	76.8762	43.9453	76.7962	43.9453	76.8457	43.9453	76.7954	43.9453	76.8214	43.9453	76.8042
45.4102	78.1356	45.4102	78.1293	45.4102	78.1296	45.4102	78.1106	45.4102	78.1119	45.4102	78.0798	45.4102	78.0829	45.4102	78.0375	45.4102	78.0435	45.4102	77.9844	45.4102	77.9949	45.4102	77.922	45.4102	77.9385	45.4102	77.852	45.4102	77.8757	45.4102	77.7765	45.4102	77.8084	45.4102	77.6979	45.4102	77.7384	45.4102	77.6192	45.4102	77.6679	45.4102	77.5432	45.4102	77.5987	45.4102	77.4729	45.4102	77.5328	45.4102	77.4112	45.4102	77.4719	45.4102	77.3604	45.4102	77.4175	45.4102	77.3223	45.4102	77.3708	45.4102	77.2978	45.4102	77.3333	45.4102	77.2873	45.4102	77.3061	45.4102	77.2904
46.875	78.6777	46.875	78.6725	46.875	78.6731	46.875	78.6575	46.875	78.659	46.875	78.6329	46.875	78.6357	46.875	78.5991	46.875	78.604	46.875	78.5567	46.875	78.5646	46.875	78.5068	46.875	78.5185	46.875	78.4505	46.875	78.467	46.875	78.3896	46.875	78.4114	46.875	78.326	46.875	78.3533	46.875	78.2617	46.875	78.2943	46.875	78.1991	46.875	78.2361	46.875	78.1406	46.875	78.1803	46.875	78.0883	46.875	78.1285	46.875	78.0444	46.875	78.082	46.875	78.0105	46.875	78.0424	46.875	77.9876	46.875	78.0109	46.875	77.9764	46.875	77.9887	46.875	77.977
48.3398	79.1581	48.3398	79.1512	48.3398	79.1576	48.3398	79.137	48.3398	79.1498	48.3398	79.1153	48.3398	79.1346	48.3398	79.0864	48.3398	79.112	48.3398	79.0503	48.3398	79.0826	48.3398	79.0077	48.3398	79.0466	48.3398	78.9594	48.3398	79.0052	48.3398	78.907	48.3398	78.9592	48.3398	78.8521	48.3398	78.9103	48.3398	78.797	48.3398	78.8598	48.3398	78.7437	48.3398	78.8093	48.3398	78.6946	48.3398	78.7605	48.3398	78.6517	48.3398	78.7148	48.3398	78.6168	48.3398	78.6734	48.3398	78.591	48.3398	78.6376	48.3398	78.5751	48.3398	78.6083	48.3398	78.5693	48.3398	78.5866	48.3398	78.5733
51.2695	80.5218	51.2695	80.5131	51.2695	80.5179	51.2695	80.4919	51.2695	80.5018	51.2695	80.4588	51.2695	80.4743	51.2695	80.4148	51.2695	80.4366	51.2695	80.3613	51.2695	80.3902	51.2695	80.2999	51.2695	80.3369	51.2695	80.2328	51.2695	80.2785	51.2695	80.1624	51.2695	80.2172	51.2695	80.0911	51.2695	80.1548	51.2695	80.0215	51.2695	80.0931	51.2695	79.9563	51.2695	80.0337	51.2695	79.8977	51.2695	79.978	51.2695	79.848	51.2695	79.9269	51.2695	79.8087	51.2695	79.8811	51.2695	79.7809	51.2695	79.8415	51.2695	79.7649	51.2695	79.8087	51.2695	79.7606	51.2695	79.7836	51.2695	79.7672
52.7344	81.0709	52.7344	81.0695	52.7344	81.0583	52.7344	81.054	52.7344	81.0325	52.7344	81.025	52.7344	80.9949	52.7344	80.9839	52.7344	80.9473	52.7344	80.9324	52.7344	80.8922	52.7344	80.8728	52.7344	80.8319	52.7344	80.8078	52.7344	80.7691	52.7344	80.74	52.7344	80.7064	52.7344	80.6721	52.7344	80.6461	52.7344	80.6068	52.7344	80.59	52.7344	80.5465	52.7344	80.5396	52.7344	80.4931	52.7344	80.4956	52.7344	80.4481	52.7344	80.4584	52.7344	80.4127	52.7344	80.4276	52.7344	80.3869	52.7344	80.4029	52.7344	80.3707	52.7344	80.384	52.7344	80.3633	52.7344	80.3708	52.7344	80.3637
54.1992	81.3585	54.1992	81.3573	54.1992	81.3453	54.1992	81.342	54.1992	81.3182	54.1992	81.3134	54.1992	81.2785	54.1992	81.2731	54.1992	81.2281	54.1992	81.2231	54.1992	81.1693	54.1992	81.1659	54.1992	81.105	54.1992	81.1042	54.1992	81.0381	54.1992	81.0409	54.1992	80.9719	54.1992	80.9788	54.1992	80.9093	54.1992	80.9202	54.1992	80.8528	54.1992	80.8674	54.1992	80.8044	54.1992	80.8217	54.1992	80.7651	54.1992	80.7839	54.1992	80.7354	54.1992	80.7539	54.1992	80.7147	54.1992	80.7313	54.1992	80.7018	54.1992	80.7149	54.1992	80.6953	54.1992	80.7037	54.1992	80.6939	54.1992	80.6968
55.6641	81.7384	55.6641	81.7363	55.6641	81.7253	55.6641	81.7191	55.6641	81.6977	55.6641	81.6875	55.6641	81.6563	55.6641	81.6428	55.6641	81.603	55.6641	81.5866	55.6641	81.5395	55.6641	81.5213	55.6641	81.4686	55.6641	81.4494	55.6641	81.3929	55.6641	81.3742	55.6641	81.3157	55.6641	81.2988	55.6641	81.24	55.6641	81.2262	55.6641	81.1689	55.6641	81.1593	55.6641	81.1051	55.6641	81.1002	55.6641	81.0506	55.6641	81.0503	55.6641	81.0065	55.6641	81.0099	55.6641	80.9732	55.6641	80.9788	55.6641	80.9503	55.6641	80.9561	55.6641	80.9367	55.6641	80.941	55.6641	80.9311	55.6641	80.9327
58.5938	82.5335	58.5938	82.5256	58.5938	82.5273	58.5938	82.5036	58.5938	82.5074	58.5938	82.4681	58.5938	82.4744	58.5938	82.4197	58.5938	82.4294	58.5938	82.3597	58.5938	82.3738	58.5938	82.2899	58.5938	82.3093	58.5938	82.2122	58.5938	82.2381	58.5938	82.1294	58.5938	82.1623	58.5938	82.0443	58.5938	82.0845	58.5938	81.9601	58.5938	82.0071	58.5938	81.8801	58.5938	81.9325	58.5938	81.8073	58.5938	81.8627	58.5938	81.7444	58.5938	81.7996	58.5938	81.6934	58.5938	81.7445	58.5938	81.6555	58.5938	81.6985	58.5938	81.6312	58.5938	81.6624	58.5938	81.6205	58.5938	81.6368	58.5938	81.6226
60.0586	83.0334	60.0586	83.0258	60.0586	83.0272	60.0586	83.0047	60.0586	83.0076	60.0586	82.9703	60.0586	82.9753	60.0586	82.9237	60.0586	82.9313	60.0586	82.8661	60.0586	82.877	60.0586	82.7992	60.0586	82.8143	60.0586	82.7251	60.0586	82.7452	60.0586	82.6462	60.0586	82.6719	60.0586	82.5652	60.0586	82.5968	60.0586	82.485	60.0586	82.5222	60.0586	82.4084	60.0586	82.4505	60.0586	82.3384	60.0586	82.3834	60.0586	82.2773	60.0586	82.3228	60.0586	82.2272	60.0586	82.2698	60.0586	82.1894	60.0586	82.2256	60.0586	82.1646	60.0586	82.191	60.0586	82.1529	60.0586	82.1668	60.0586	82.1538
62.9883	83.8709	62.9883	83.8636	62.9883	83.865	62.9883	83.8432	62.9883	83.8462	62.9883	83.8103	62.9883	83.8155	62.9883	83.7661	62.9883	83.7742	62.9883	83.7123	62.9883	83.7241	62.9883	83.6509	62.9883	83.6673	62.9883	83.5845	62.9883	83.6061	62.9883	83.5157	62.9883	83.543	62.9883	83.4476	62.9883	83.4805	62.9883	83.3828	62.9883	83.4209	62.9883	83.3239	62.9883	83.366	62.9883	83.2729	62.9883	83.3173	62.9883	83.2314	62.9883	83.2754	62.9883	83.1998	62.9883	83.2405	62.9883	83.1783	62.9883	83.2124	62.9883	83.166	62.9883	83.1907	62.9883	83.162	62.9883	83.175	62.9883	83.1653
64.4531	84.2403	64.4531	84.2308	64.4531	84.2362	64.4531	84.208	64.4531	84.219	64.4531	84.1726	64.4531	84.1896	64.4531	84.1259	64.4531	84.1491	64.4531	84.0697	64.4531	84.0995	64.4531	84.0063	64.4531	84.043	64.4531	83.9385	64.4531	83.982	64.4531	83.869	64.4531	83.9191	64.4531	83.8012	64.4531	83.8569	64.4531	83.7378	64.4531	83.7978	64.4531	83.6813	64.4531	83.7438	64.4531	83.6338	64.4531	83.6962	64.4531	83.5964	64.4531	83.6556	64.4531	83.5693	64.4531	83.6221	64.4531	83.552	64.4531	83.5952	64.4531	83.5436	64.4531	83.5742	64.4531	83.5426	64.4531	83.5585	64.4531	83.5478
67.3828	84.9779	67.3828	84.9639	67.3828	84.9776	67.3828	84.9356	67.3828	84.9634	67.3828	84.8939	67.3828	84.9362	67.3828	84.8402	67.3828	84.8975	67.3828	84.7765	67.3828	84.8494	67.3828	84.7054	67.3828	84.7941	67.3828	84.63	67.3828	84.7342	67.3828	84.5539	67.3828	84.6725	67.3828	84.4806	67.3828	84.6114	67.3828	84.4136	67.3828	84.5534	67.3828	84.3559	67.3828	84.5	67.3828	84.3097	67.3828	84.4522	67.3828	84.2761	67.3828	84.4105	67.3828	84.2554	67.3828	84.3744	67.3828	84.2465	67.3828	84.3433	67.3828	84.2478	67.3828	84.3161	67.3828	84.2572	67.3828	84.2926	67.3828	84.2727
