"SPL Vertical"
"On-Axis"		"10°"		"-10°"		"20°"		"-20°"		"30°"		"-30°"		"40°"		"-40°"		"50°"		"-50°"		"60°"		"-60°"		"70°"		"-70°"		"80°"		"-80°"		"90°"		"-90°"		"100°"		"-100°"		"110°"		"-110°"		"120°"		"-120°"		"130°"		"-130°"		"140°"		"-140°"		"150°"		"-150°"		"160°"		"-160°"		"170°"		"-170°"		"180°"
"Frequency / Hz"	"Sound Pressure Level / dB (re 20 µPa/V)  [2.83V at 1m]"	"Frequency / Hz"	"Sound Pressure Level / dB (re 20 µPa/V)  [2.83V at 1m]"	"Frequency / Hz"	"Sound Pressure Level / dB (re 20 µPa/V)  [2.83V at 1m]"	"Frequency / Hz"	"Sound Pressure Level / dB (re 20 µPa/V)  [2.83V at 1m]"	"Frequency / Hz"	"Sound Pressure Level / dB (re 20 µPa/V)  [2.83V at 1m]"	"Frequency / Hz"	"Sound Pressure Level / dB (re 20 µPa/V)  [2.83V at 1m]"	"Frequency / Hz"	"Sound Pressure Level / dB (re 20 µPa/V)  [2.83V at 1m]"	"Frequency / Hz"	"Sound Pressure Level / dB (re 20 µPa/V)  [2.83V at 1m]"	"Frequency / Hz"	"Sound Pressure Level / dB (re 20 µPa/V)  [2.83V at 1m]"	"Frequency / Hz"	"Sound Pressure Level / dB (re 20 µPa/V)  [2.83V at 1m]"	"Frequency / Hz"	"Sound Pressure Level / dB (re 20 µPa/V)  [2.83V at 1m]"	"Frequency / Hz"	"Sound Pressure Level / dB (re 20 µPa/V)  [2.83V at 1m]"	"Frequency / Hz"	"Sound Pressure Level / dB (re 20 µPa/V)  [2.83V at 1m]"	"Frequency / Hz"	"Sound Pressure Level / dB (re 20 µPa/V)  [2.83V at 1m]"	"Frequency / Hz"	"Sound Pressure Level / dB (re 20 µPa/V)  [2.83V at 1m]"	"Frequency / Hz"	"Sound Pressure Level / dB (re 20 µPa/V)  [2.83V at 1m]"	"Frequency / Hz"	"Sound Pressure Level / dB (re 20 µPa/V)  [2.83V at 1m]"	"Frequency / Hz"	"Sound Pressure Level / dB (re 20 µPa/V)  [2.83V at 1m]"	"Frequency / Hz"	"Sound Pressure Level / dB (re 20 µPa/V)  [2.83V at 1m]"	"Frequency / Hz"	"Sound Pressure Level / dB (re 20 µPa/V)  [2.83V at 1m]"	"Frequency / Hz"	"Sound Pressure Level / dB (re 20 µPa/V)  [2.83V at 1m]"	"Frequency / Hz"	"Sound Pressure Level / dB (re 20 µPa/V)  [2.83V at 1m]"	"Frequency / Hz"	"Sound Pressure Level / dB (re 20 µPa/V)  [2.83V at 1m]"	"Frequency / Hz"	"Sound Pressure Level / dB (re 20 µPa/V)  [2.83V at 1m]"	"Frequency / Hz"	"Sound Pressure Level / dB (re 20 µPa/V)  [2.83V at 1m]"	"Frequency / Hz"	"Sound Pressure Level / dB (re 20 µPa/V)  [2.83V at 1m]"	"Frequency / Hz"	"Sound Pressure Level / dB (re 20 µPa/V)  [2.83V at 1m]"	"Frequency / Hz"	"Sound Pressure Level / dB (re 20 µPa/V)  [2.83V at 1m]"	"Frequency / Hz"	"Sound Pressure Level / dB (re 20 µPa/V)  [2.83V at 1m]"	"Frequency / Hz"	"Sound Pressure Level / dB (re 20 µPa/V)  [2.83V at 1m]"	"Frequency / Hz"	"Sound Pressure Level / dB (re 20 µPa/V)  [2.83V at 1m]"	"Frequency / Hz"	"Sound Pressure Level / dB (re 20 µPa/V)  [2.83V at 1m]"	"Frequency / Hz"	"Sound Pressure Level / dB (re 20 µPa/V)  [2.83V at 1m]"	"Frequency / Hz"	"Sound Pressure Level / dB (re 20 µPa/V)  [2.83V at 1m]"	"Frequency / Hz"	"Sound Pressure Level / dB (re 20 µPa/V)  [2.83V at 1m]"	"Frequency / Hz"	"Sound Pressure Level / dB (re 20 µPa/V)  [2.83V at 1m]"
20.5078	49.9629	20.5078	49.925	20.5078	49.9861	20.5078	49.8734	20.5078	49.9938	20.5078	49.8096	20.5078	49.9857	20.5078	49.7353	20.5078	49.9619	20.5078	49.6525	20.5078	49.9232	20.5078	49.5633	20.5078	49.8706	20.5078	49.4705	20.5078	49.8061	20.5078	49.3766	20.5078	49.7318	20.5078	49.2849	20.5078	49.6503	20.5078	49.1984	20.5078	49.5643	20.5078	49.1202	20.5078	49.4765	20.5078	49.0535	20.5078	49.3894	20.5078	49.0008	20.5078	49.305	20.5078	48.9641	20.5078	49.2253	20.5078	48.9446	20.5078	49.152	20.5078	48.9425	20.5078	49.0867	20.5078	48.9571	20.5078	49.0311	20.5078	48.9873
21.2402	51.3185	21.2402	51.2984	21.2402	51.3262	21.2402	51.2662	21.2402	51.3211	21.2402	51.223	21.2402	51.3034	21.2402	51.1699	21.2402	51.2737	21.2402	51.1084	21.2402	51.2327	21.2402	51.0405	21.2402	51.1819	21.2402	50.9683	21.2402	51.123	21.2402	50.8941	21.2402	51.0579	21.2402	50.8205	21.2402	50.9889	21.2402	50.7499	21.2402	50.9183	21.2402	50.6848	21.2402	50.8484	21.2402	50.6274	21.2402	50.7812	21.2402	50.5796	21.2402	50.7185	21.2402	50.5428	21.2402	50.6618	21.2402	50.5179	21.2402	50.6123	21.2402	50.5053	21.2402	50.5709	21.2402	50.505	21.2402	50.5386	21.2402	50.5163
21.9727	52.3193	21.9727	52.2963	21.9727	52.3297	21.9727	52.2612	21.9727	52.3272	21.9727	52.215	21.9727	52.3119	21.9727	52.159	21.9727	52.2844	21.9727	52.0946	21.9727	52.2454	21.9727	52.0239	21.9727	52.1963	21.9727	51.9488	21.9727	52.1385	21.9727	51.8718	21.9727	52.0741	21.9727	51.7954	21.9727	52.0049	21.9727	51.7221	21.9727	51.9333	21.9727	51.6545	21.9727	51.8613	21.9727	51.5952	21.9727	51.791	21.9727	51.5461	21.9727	51.7242	21.9727	51.5091	21.9727	51.6625	21.9727	51.4852	21.9727	51.6072	21.9727	51.4749	21.9727	51.5599	21.9727	51.4781	21.9727	51.5217	21.9727	51.494
22.7051	53.1149	22.7051	53.0948	22.7051	53.1219	22.7051	53.062	22.7051	53.1156	22.7051	53.0174	22.7051	53.0962	22.7051	52.962	22.7051	53.0643	22.7051	52.8975	22.7051	53.0207	22.7051	52.8255	22.7051	52.9667	22.7051	52.7482	22.7051	52.904	22.7051	52.6679	22.7051	52.8345	22.7051	52.5873	22.7051	52.7603	22.7051	52.509	22.7051	52.6838	22.7051	52.4359	22.7051	52.6073	22.7051	52.3705	22.7051	52.533	22.7051	52.3151	22.7051	52.4629	22.7051	52.2717	22.7051	52.399	22.7051	52.2416	22.7051	52.3428	22.7051	52.2255	22.7051	52.2959	22.7051	52.2234	22.7051	52.2596	22.7051	52.2351
23.4375	53.8852	23.4375	53.8643	23.4375	53.8936	23.4375	53.8313	23.4375	53.8893	23.4375	53.7869	23.4375	53.8724	23.4375	53.7323	23.4375	53.8434	23.4375	53.6689	23.4375	53.8032	23.4375	53.5983	23.4375	53.7529	23.4375	53.5227	23.4375	53.694	23.4375	53.4444	23.4375	53.6282	23.4375	53.3658	23.4375	53.5576	23.4375	53.2899	23.4375	53.4841	23.4375	53.2192	23.4375	53.41	23.4375	53.1563	23.4375	53.3373	23.4375	53.1036	23.4375	53.2682	23.4375	53.0628	23.4375	53.2043	23.4375	53.0353	23.4375	53.1476	23.4375	53.0216	23.4375	53.0996	23.4375	53.0218	23.4375	53.0618	23.4375	53.0355
24.1699	54.4341	24.1699	54.4255	24.1699	54.4306	24.1699	54.405	24.1699	54.4151	24.1699	54.3731	24.1699	54.388	24.1699	54.3305	24.1699	54.35	24.1699	54.2785	24.1699	54.3022	24.1699	54.2184	24.1699	54.246	24.1699	54.1519	24.1699	54.1828	24.1699	54.0809	24.1699	54.1147	24.1699	54.0078	24.1699	54.0437	24.1699	53.9348	24.1699	53.9719	24.1699	53.8642	24.1699	53.9016	24.1699	53.7985	24.1699	53.8348	24.1699	53.7399	24.1699	53.7735	24.1699	53.6902	24.1699	53.7197	24.1699	53.6511	24.1699	53.6748	24.1699	53.6237	24.1699	53.6404	24.1699	53.6088	24.1699	53.6174	24.1699	53.6068
25.6348	55.5375	25.6348	55.5178	25.6348	55.5445	25.6348	55.4858	25.6348	55.5387	25.6348	55.4425	25.6348	55.5201	25.6348	55.3889	25.6348	55.4893	25.6348	55.3266	25.6348	55.4473	25.6348	55.2572	25.6348	55.3952	25.6348	55.183	25.6348	55.3346	25.6348	55.1062	25.6348	55.2673	25.6348	55.0292	25.6348	55.1954	25.6348	54.9547	25.6348	55.1212	25.6348	54.8851	25.6348	55.0469	25.6348	54.8228	25.6348	54.9746	25.6348	54.7699	25.6348	54.9065	25.6348	54.728	25.6348	54.8446	25.6348	54.6985	25.6348	54.7904	25.6348	54.682	25.6348	54.7455	25.6348	54.6788	25.6348	54.7113	25.6348	54.6887
26.3672	56.0786	26.3672	56.066	26.3672	56.079	26.3672	56.0414	26.3672	56.0671	26.3672	56.0055	26.3672	56.0434	26.3672	55.9591	26.3672	56.0083	26.3672	55.9034	26.3672	55.9629	26.3672	55.8399	26.3672	55.9083	26.3672	55.7703	26.3672	55.8461	26.3672	55.6966	26.3672	55.7781	26.3672	55.621	26.3672	55.7062	26.3672	55.546	26.3672	55.6327	26.3672	55.474	26.3672	55.5596	26.3672	55.4076	26.3672	55.4892	26.3672	55.3489	26.3672	55.4236	26.3672	55.3002	26.3672	55.3648	26.3672	55.263	26.3672	55.3145	26.3672	55.2386	26.3672	55.2745	26.3672	55.2275	26.3672	55.246	26.3672	55.2301
27.0996	56.6762	27.0996	56.6695	27.0996	56.6717	27.0996	56.6518	27.0996	56.656	27.0996	56.6236	27.0996	56.6295	27.0996	56.5855	27.0996	56.5929	27.0996	56.5388	27.0996	56.547	27.0996	56.4845	27.0996	56.4932	27.0996	56.4242	27.0996	56.4329	27.0996	56.3597	27.0996	56.3679	27.0996	56.2928	27.0996	56.3004	27.0996	56.2256	27.0996	56.2322	27.0996	56.1601	27.0996	56.1657	27.0996	56.0984	27.0996	56.1031	27.0996	56.0426	27.0996	56.0462	27.0996	55.9942	27.0996	55.9969	27.0996	55.955	27.0996	55.9569	27.0996	55.9261	27.0996	55.9273	27.0996	55.9085	27.0996	55.9091	27.0996	55.9028
27.832	57.1925	27.832	57.1834	27.832	57.1917	27.832	57.1647	27.832	57.181	27.832	57.137	27.832	57.1608	27.832	57.1008	27.832	57.1315	27.832	57.0574	27.832	57.094	27.832	57.0078	27.832	57.0493	27.832	56.9537	27.832	56.9986	27.832	56.8966	27.832	56.9436	27.832	56.8383	27.832	56.8859	27.832	56.7806	27.832	56.8272	27.832	56.7253	27.832	56.7696	27.832	56.6743	27.832	56.7147	27.832	56.6289	27.832	56.6643	27.832	56.5907	27.832	56.6201	27.832	56.5606	27.832	56.5833	27.832	56.5397	27.832	56.5551	27.832	56.5285	27.832	56.5362	27.832	56.5273
29.2969	57.8427	29.2969	57.8376	29.2969	57.837	29.2969	57.8219	29.2969	57.8207	29.2969	57.7962	29.2969	57.7943	29.2969	57.7611	29.2969	57.7586	29.2969	57.7177	29.2969	57.7145	29.2969	57.6674	29.2969	57.6636	29.2969	57.6117	29.2969	57.6074	29.2969	57.5524	29.2969	57.5478	29.2969	57.4913	29.2969	57.4866	29.2969	57.4304	29.2969	57.4259	29.2969	57.3717	29.2969	57.3675	29.2969	57.3168	29.2969	57.3132	29.2969	57.2676	29.2969	57.2645	29.2969	57.2254	29.2969	57.223	29.2969	57.1913	29.2969	57.1895	29.2969	57.1663	29.2969	57.1651	29.2969	57.1509	29.2969	57.1504	29.2969	57.1456
30.0293	58.3156	30.0293	58.3128	30.0293	58.3071	30.0293	58.2988	30.0293	58.2875	30.0293	58.2741	30.0293	58.2571	30.0293	58.2396	30.0293	58.217	30.0293	58.1962	30.0293	58.1682	30.0293	58.1454	30.0293	58.1122	30.0293	58.0885	30.0293	58.0509	30.0293	58.0275	30.0293	57.9861	30.0293	57.9641	30.0293	57.9201	30.0293	57.9002	30.0293	57.855	30.0293	57.8377	30.0293	57.7929	30.0293	57.7786	30.0293	57.7358	30.0293	57.7245	30.0293	57.6855	30.0293	57.6769	30.0293	57.6434	30.0293	57.6373	30.0293	57.6107	30.0293	57.6067	30.0293	57.5882	30.0293	57.586	30.0293	57.5765	30.0293	57.5758
31.4941	59.0884	31.4941	59.0843	31.4941	59.0806	31.4941	59.0684	31.4941	59.0609	31.4941	59.0414	31.4941	59.0299	31.4941	59.0039	31.4941	58.9882	31.4941	58.9572	31.4941	58.9371	31.4941	58.9026	31.4941	58.8781	31.4941	58.8417	31.4941	58.8129	31.4941	58.7762	31.4941	58.7437	31.4941	58.7083	31.4941	58.6727	31.4941	58.6397	31.4941	58.6022	31.4941	58.5726	31.4941	58.5346	31.4941	58.509	31.4941	58.472	31.4941	58.4508	31.4941	58.4165	31.4941	58.3997	31.4941	58.3697	31.4941	58.3571	31.4941	58.3331	31.4941	58.3244	31.4941	58.3076	31.4941	58.3025	31.4941	58.2939	31.4941	58.2922
32.2266	59.5103	32.2266	59.5002	32.2266	59.5085	32.2266	59.4786	32.2266	59.4947	32.2266	59.446	32.2266	59.4694	32.2266	59.4035	32.2266	59.4332	32.2266	59.3522	32.2266	59.387	32.2266	59.2939	32.2266	59.3324	32.2266	59.2301	32.2266	59.2709	32.2266	59.1628	32.2266	59.2045	32.2266	59.094	32.2266	59.1353	32.2266	59.0259	32.2266	59.0655	32.2266	58.9606	32.2266	58.9973	32.2266	58.9	32.2266	58.9329	32.2266	58.8459	32.2266	58.8743	32.2266	58.8	32.2266	58.8234	32.2266	58.7636	32.2266	58.7814	32.2266	58.7377	32.2266	58.7497	32.2266	58.7231	32.2266	58.7292	32.2266	58.7202
33.6914	60.2766	33.6914	60.2664	33.6914	60.2753	33.6914	60.2451	33.6914	60.2626	33.6914	60.213	33.6914	60.2389	33.6914	60.1712	33.6914	60.205	33.6914	60.1208	33.6914	60.1619	33.6914	60.0634	33.6914	60.111	33.6914	60.0007	33.6914	60.0537	33.6914	59.9347	33.6914	59.9918	33.6914	59.8675	33.6914	59.9273	33.6914	59.8013	33.6914	59.8621	33.6914	59.7383	33.6914	59.7982	33.6914	59.6806	33.6914	59.7373	33.6914	59.6299	33.6914	59.6814	33.6914	59.5878	33.6914	59.632	33.6914	59.5554	33.6914	59.5905	33.6914	59.5337	33.6914	59.558	33.6914	59.5231	33.6914	59.5355	33.6914	59.5237
34.4238	60.6455	34.4238	60.6389	34.4238	60.6404	34.4238	60.6208	34.4238	60.6238	34.4238	60.5918	34.4238	60.5961	34.4238	60.5526	34.4238	60.5582	34.4238	60.5045	34.4238	60.5111	34.4238	60.4489	34.4238	60.4564	34.4238	60.3875	34.4238	60.3957	34.4238	60.3222	34.4238	60.3308	34.4238	60.2549	34.4238	60.2639	34.4238	60.1879	34.4238	60.1969	34.4238	60.1233	34.4238	60.132	34.4238	60.0629	34.4238	60.0711	34.4238	60.0087	34.4238	60.0161	34.4238	59.9623	34.4238	59.9686	34.4238	59.925	34.4238	59.9299	34.4238	59.8978	34.4238	59.9012	34.4238	59.8816	34.4238	59.8833	34.4238	59.8767
35.8887	61.3541	35.8887	61.347	35.8887	61.3496	35.8887	61.3284	35.8887	61.3334	35.8887	61.2989	35.8887	61.3061	35.8887	61.2593	35.8887	61.2686	35.8887	61.211	35.8887	61.2219	35.8887	61.1553	35.8887	61.1675	35.8887	61.094	35.8887	61.1072	35.8887	61.029	35.8887	61.0428	35.8887	60.9624	35.8887	60.9764	35.8887	60.8963	35.8887	60.9101	35.8887	60.8328	35.8887	60.846	35.8887	60.7737	35.8887	60.786	35.8887	60.7208	35.8887	60.7319	35.8887	60.6758	35.8887	60.6852	35.8887	60.6398	35.8887	60.6471	35.8887	60.6138	35.8887	60.6189	35.8887	60.5985	35.8887	60.6011	35.8887	60.5942
37.3535	62.0124	37.3535	62.006	37.3535	62.0067	37.3535	61.9877	37.3535	61.9891	37.3535	61.9581	37.3535	61.96	37.3535	61.9181	37.3535	61.9204	37.3535	61.869	37.3535	61.8714	37.3535	61.8122	37.3535	61.8145	37.3535	61.7496	37.3535	61.7516	37.3535	61.6832	37.3535	61.6847	37.3535	61.6149	37.3535	61.6159	37.3535	61.5469	37.3535	61.5474	37.3535	61.4813	37.3535	61.4814	37.3535	61.4202	37.3535	61.4199	37.3535	61.3653	37.3535	61.3647	37.3535	61.3181	37.3535	61.3174	37.3535	61.28	37.3535	61.2794	37.3535	61.252	37.3535	61.2515	37.3535	61.2349	37.3535	61.2346	37.3535	61.229
38.8184	62.6724	38.8184	62.6649	38.8184	62.6679	38.8184	62.6457	38.8184	62.6515	38.8184	62.6152	38.8184	62.6238	38.8184	62.5745	38.8184	62.5857	38.8184	62.5247	38.8184	62.5384	38.8184	62.4674	38.8184	62.4833	38.8184	62.4045	38.8184	62.4222	38.8184	62.3379	38.8184	62.3571	38.8184	62.2698	38.8184	62.2899	38.8184	62.2024	38.8184	62.2229	38.8184	62.1377	38.8184	62.1581	38.8184	62.078	38.8184	62.0973	38.8184	62.0248	38.8184	62.0423	38.8184	61.9797	38.8184	61.9948	38.8184	61.9439	38.8184	61.9559	38.8184	61.9184	38.8184	61.9267	38.8184	61.9038	38.8184	61.908	38.8184	61.9003
39.5508	62.9872	39.5508	62.9801	39.5508	62.9823	39.5508	62.9612	39.5508	62.9657	39.5508	62.9311	39.5508	62.9378	39.5508	62.8907	39.5508	62.8996	39.5508	62.8412	39.5508	62.8524	39.5508	62.7842	39.5508	62.7976	39.5508	62.7216	39.5508	62.737	39.5508	62.6552	39.5508	62.6725	39.5508	62.5874	39.5508	62.6062	39.5508	62.5203	39.5508	62.5401	39.5508	62.4561	39.5508	62.4762	39.5508	62.3967	39.5508	62.4164	39.5508	62.3439	39.5508	62.3623	39.5508	62.2993	39.5508	62.3154	39.5508	62.264	39.5508	62.277	39.5508	62.239	39.5508	62.2481	39.5508	62.2247	39.5508	62.2294	39.5508	62.2216
41.0156	63.6022	41.0156	63.5959	41.0156	63.5964	41.0156	63.5777	41.0156	63.5786	41.0156	63.5482	41.0156	63.5495	41.0156	63.5082	41.0156	63.51	41.0156	63.4591	41.0156	63.4613	41.0156	63.4024	41.0156	63.4051	41.0156	63.34	41.0156	63.3432	41.0156	63.2739	41.0156	63.2776	41.0156	63.2062	41.0156	63.2104	41.0156	63.1391	41.0156	63.1437	41.0156	63.0746	41.0156	63.0796	41.0156	63.0148	41.0156	63.0199	41.0156	62.9613	41.0156	62.9664	41.0156	62.9158	41.0156	62.9204	41.0156	62.8794	41.0156	62.8832	41.0156	62.853	41.0156	62.8557	41.0156	62.8372	41.0156	62.8386	41.0156	62.8324
42.4805	64.2007	42.4805	64.1952	42.4805	64.1938	42.4805	64.1774	42.4805	64.1748	42.4805	64.1481	42.4805	64.144	42.4805	64.1081	42.4805	64.1026	42.4805	64.0588	42.4805	64.0519	42.4805	64.0017	42.4805	63.9934	42.4805	63.9387	42.4805	63.9292	42.4805	63.8719	42.4805	63.8613	42.4805	63.8033	42.4805	63.792	42.4805	63.7352	42.4805	63.7235	42.4805	63.6696	42.4805	63.658	42.4805	63.6084	42.4805	63.5974	42.4805	63.5535	42.4805	63.5435	42.4805	63.5063	42.4805	63.4977	42.4805	63.4681	42.4805	63.4613	42.4805	63.4397	42.4805	63.435	42.4805	63.4219	42.4805	63.4195	42.4805	63.4151
43.9453	64.8046	43.9453	64.7981	43.9453	64.7983	43.9453	64.7793	43.9453	64.7794	43.9453	64.7485	43.9453	64.7486	43.9453	64.707	43.9453	64.7069	43.9453	64.656	43.9453	64.6555	43.9453	64.5973	43.9453	64.5963	43.9453	64.5327	43.9453	64.531	43.9453	64.4643	43.9453	64.462	43.9453	64.3945	43.9453	64.3915	43.9453	64.3253	43.9453	64.3218	43.9453	64.2589	43.9453	64.255	43.9453	64.1972	43.9453	64.1932	43.9453	64.142	43.9453	64.1382	43.9453	64.0947	43.9453	64.0913	43.9453	64.0567	43.9453	64.0539	43.9453	64.0287	43.9453	64.0267	43.9453	64.0114	43.9453	64.0103	43.9453	64.0052
45.4102	65.3946	45.4102	65.3882	45.4102	65.3881	45.4102	65.3691	45.4102	65.3688	45.4102	65.3379	45.4102	65.3373	45.4102	65.2956	45.4102	65.2947	45.4102	65.2437	45.4102	65.2423	45.4102	65.1838	45.4102	65.1817	45.4102	65.1179	45.4102	65.1152	45.4102	65.0481	45.4102	65.0447	45.4102	64.9767	45.4102	64.9726	45.4102	64.9059	45.4102	64.9013	45.4102	64.8378	45.4102	64.833	45.4102	64.7746	45.4102	64.7698	45.4102	64.7179	45.4102	64.7134	45.4102	64.6693	45.4102	64.6653	45.4102	64.6302	45.4102	64.6269	45.4102	64.6013	45.4102	64.5991	45.4102	64.5835	45.4102	64.5823	45.4102	64.5771
47.6074	66.0849	47.6074	66.0779	47.6074	66.0797	47.6074	66.0589	47.6074	66.0625	47.6074	66.0286	47.6074	66.0337	47.6074	65.9881	47.6074	65.9945	47.6074	65.9387	47.6074	65.9461	47.6074	65.8821	47.6074	65.8903	47.6074	65.8203	47.6074	65.8288	47.6074	65.7553	47.6074	65.7638	47.6074	65.6892	47.6074	65.6975	47.6074	65.6243	47.6074	65.632	47.6074	65.5623	47.6074	65.5692	47.6074	65.5051	47.6074	65.5111	47.6074	65.4543	47.6074	65.4593	47.6074	65.4112	47.6074	65.4151	47.6074	65.3767	47.6074	65.3795	47.6074	65.3516	47.6074	65.3535	47.6074	65.3365	47.6074	65.3375	47.6074	65.3318
49.0723	66.6474	49.0723	66.6407	49.0723	66.642	49.0723	66.6219	49.0723	66.6245	49.0723	66.5919	49.0723	66.5958	49.0723	66.5517	49.0723	66.5568	49.0723	66.5027	49.0723	66.5091	49.0723	66.4468	49.0723	66.4544	49.0723	66.3859	49.0723	66.3947	49.0723	66.3223	49.0723	66.332	49.0723	66.2581	49.0723	66.2686	49.0723	66.1954	49.0723	66.2065	49.0723	66.1364	49.0723	66.1476	49.0723	66.0826	49.0723	66.0936	49.0723	66.0354	49.0723	66.0456	49.0723	65.996	49.0723	66.0049	49.0723	65.965	49.0723	65.9723	49.0723	65.9431	49.0723	65.9482	49.0723	65.9304	49.0723	65.933	49.0723	65.927
50.5371	67.2456	50.5371	67.2413	50.5371	67.237	50.5371	67.2243	50.5371	67.2158	50.5371	67.1953	50.5371	67.1827	50.5371	67.1552	50.5371	67.1389	50.5371	67.1055	50.5371	67.086	50.5371	67.048	50.5371	67.0258	50.5371	66.9846	50.5371	66.9604	50.5371	66.9177	50.5371	66.8922	50.5371	66.8493	50.5371	66.8235	50.5371	66.7818	50.5371	66.7565	50.5371	66.7172	50.5371	66.6933	50.5371	66.6575	50.5371	66.6356	50.5371	66.6042	50.5371	66.585	50.5371	66.5586	50.5371	66.5427	50.5371	66.5217	50.5371	66.5095	50.5371	66.4943	50.5371	66.4861	50.5371	66.4769	50.5371	66.4727	50.5371	66.4696
52.7344	67.8265	52.7344	67.8224	52.7344	67.8176	52.7344	67.8054	52.7344	67.7958	52.7344	67.7763	52.7344	67.7619	52.7344	67.7364	52.7344	67.7171	52.7344	67.687	52.7344	67.663	52.7344	67.6301	52.7344	67.6016	52.7344	67.5677	52.7344	67.5351	52.7344	67.502	52.7344	67.466	52.7344	67.4353	52.7344	67.3967	52.7344	67.3696	52.7344	67.3296	52.7344	67.3068	52.7344	67.2669	52.7344	67.2486	52.7344	67.2103	52.7344	67.1965	52.7344	67.1614	52.7344	67.1515	52.7344	67.1212	52.7344	67.1146	52.7344	67.0905	52.7344	67.0865	52.7344	67.0697	52.7344	67.0676	52.7344	67.059	52.7344	67.0584
54.1992	68.2801	54.1992	68.2736	54.1992	68.2731	54.1992	68.254	54.1992	68.2529	54.1992	68.222	54.1992	68.2202	54.1992	68.1789	54.1992	68.1761	54.1992	68.1263	54.1992	68.1224	54.1992	68.0662	54.1992	68.0609	54.1992	68.0008	54.1992	67.9939	54.1992	67.9325	54.1992	67.9239	54.1992	67.8636	54.1992	67.8534	54.1992	67.7962	54.1992	67.7847	54.1992	67.7325	54.1992	67.7201	54.1992	67.674	54.1992	67.6614	54.1992	67.6224	54.1992	67.6101	54.1992	67.5785	54.1992	67.5674	54.1992	67.5432	54.1992	67.5341	54.1992	67.5172	54.1992	67.5107	54.1992	67.5006	54.1992	67.4972	54.1992	67.4939
