"SPL Horizontal"
"On-Axis"		"10°"		"-10°"		"20°"		"-20°"		"30°"		"-30°"		"40°"		"-40°"		"50°"		"-50°"		"60°"		"-60°"		"70°"		"-70°"		"80°"		"-80°"		"90°"		"-90°"		"100°"		"-100°"		"110°"		"-110°"		"120°"		"-120°"		"130°"		"-130°"		"140°"		"-140°"		"150°"		"-150°"		"160°"		"-160°"		"170°"		"-170°"		"180°"
"Frequency [Hz]"	"Sound Pessure Level [dB]  / [2.83V 1m] "	"Frequency [Hz]"	"Sound Pessure Level [dB]  / [2.83V 1m] "	"Frequency [Hz]"	"Sound Pessure Level [dB]  / [2.83V 1m] "	"Frequency [Hz]"	"Sound Pessure Level [dB]  / [2.83V 1m] "	"Frequency [Hz]"	"Sound Pessure Level [dB]  / [2.83V 1m] "	"Frequency [Hz]"	"Sound Pessure Level [dB]  / [2.83V 1m] "	"Frequency [Hz]"	"Sound Pessure Level [dB]  / [2.83V 1m] "	"Frequency [Hz]"	"Sound Pessure Level [dB]  / [2.83V 1m] "	"Frequency [Hz]"	"Sound Pessure Level [dB]  / [2.83V 1m] "	"Frequency [Hz]"	"Sound Pessure Level [dB]  / [2.83V 1m] "	"Frequency [Hz]"	"Sound Pessure Level [dB]  / [2.83V 1m] "	"Frequency [Hz]"	"Sound Pessure Level [dB]  / [2.83V 1m] "	"Frequency [Hz]"	"Sound Pessure Level [dB]  / [2.83V 1m] "	"Frequency [Hz]"	"Sound Pessure Level [dB]  / [2.83V 1m] "	"Frequency [Hz]"	"Sound Pessure Level [dB]  / [2.83V 1m] "	"Frequency [Hz]"	"Sound Pessure Level [dB]  / [2.83V 1m] "	"Frequency [Hz]"	"Sound Pessure Level [dB]  / [2.83V 1m] "	"Frequency [Hz]"	"Sound Pessure Level [dB]  / [2.83V 1m] "	"Frequency [Hz]"	"Sound Pessure Level [dB]  / [2.83V 1m] "	"Frequency [Hz]"	"Sound Pessure Level [dB]  / [2.83V 1m] "	"Frequency [Hz]"	"Sound Pessure Level [dB]  / [2.83V 1m] "	"Frequency [Hz]"	"Sound Pessure Level [dB]  / [2.83V 1m] "	"Frequency [Hz]"	"Sound Pessure Level [dB]  / [2.83V 1m] "	"Frequency [Hz]"	"Sound Pessure Level [dB]  / [2.83V 1m] "	"Frequency [Hz]"	"Sound Pessure Level [dB]  / [2.83V 1m] "	"Frequency [Hz]"	"Sound Pessure Level [dB]  / [2.83V 1m] "	"Frequency [Hz]"	"Sound Pessure Level [dB]  / [2.83V 1m] "	"Frequency [Hz]"	"Sound Pessure Level [dB]  / [2.83V 1m] "	"Frequency [Hz]"	"Sound Pessure Level [dB]  / [2.83V 1m] "	"Frequency [Hz]"	"Sound Pessure Level [dB]  / [2.83V 1m] "	"Frequency [Hz]"	"Sound Pessure Level [dB]  / [2.83V 1m] "	"Frequency [Hz]"	"Sound Pessure Level [dB]  / [2.83V 1m] "	"Frequency [Hz]"	"Sound Pessure Level [dB]  / [2.83V 1m] "	"Frequency [Hz]"	"Sound Pessure Level [dB]  / [2.83V 1m] "	"Frequency [Hz]"	"Sound Pessure Level [dB]  / [2.83V 1m] "	"Frequency [Hz]"	"Sound Pessure Level [dB]  / [2.83V 1m] "
20.5078	99.6273	20.5078	99.6399	20.5078	99.6562	20.5078	99.6943	20.5078	99.726	20.5078	99.7908	20.5078	99.8363	20.5078	99.9295	20.5078	99.9863	20.5078	100.11	20.5078	100.175	20.5078	100.333	20.5078	100.403	20.5078	100.597	20.5078	100.667	20.5078	100.9	20.5078	100.966	20.5078	101.24	20.5078	101.299	20.5078	101.612	20.5078	101.661	20.5078	102.006	20.5078	102.044	20.5078	102.413	20.5078	102.439	20.5078	102.814	20.5078	102.831	20.5078	103.188	20.5078	103.198	20.5078	103.514	20.5078	103.518	20.5078	103.766	20.5078	103.767	20.5078	103.926	20.5078	103.926	20.5078	103.981
21.9727	102.114	21.9727	102.111	21.9727	102.158	21.9727	102.151	21.9727	102.242	21.9727	102.233	21.9727	102.367	21.9727	102.358	21.9727	102.53	21.9727	102.525	21.9727	102.73	21.9727	102.734	21.9727	102.966	21.9727	102.983	21.9727	103.235	21.9727	103.271	21.9727	103.535	21.9727	103.595	21.9727	103.863	21.9727	103.949	21.9727	104.212	21.9727	104.325	21.9727	104.576	21.9727	104.714	21.9727	104.944	21.9727	105.098	21.9727	105.301	21.9727	105.46	21.9727	105.629	21.9727	105.778	21.9727	105.908	21.9727	106.03	21.9727	106.118	21.9727	106.198	21.9727	106.243	21.9727	106.271
23.4375	103.416	23.4375	103.437	23.4375	103.44	23.4375	103.502	23.4375	103.509	23.4375	103.612	23.4375	103.622	23.4375	103.766	23.4375	103.778	23.4375	103.963	23.4375	103.977	23.4375	104.2	23.4375	104.215	23.4375	104.476	23.4375	104.492	23.4375	104.787	23.4375	104.804	23.4375	105.127	23.4375	105.145	23.4375	105.491	23.4375	105.509	23.4375	105.87	23.4375	105.887	23.4375	106.251	23.4375	106.266	23.4375	106.619	23.4375	106.632	23.4375	106.958	23.4375	106.968	23.4375	107.248	23.4375	107.255	23.4375	107.471	23.4375	107.475	23.4375	107.612	23.4375	107.614	23.4375	107.66
24.9023	104.594	24.9023	104.602	24.9023	104.63	24.9023	104.654	24.9023	104.71	24.9023	104.749	24.9023	104.833	24.9023	104.888	24.9023	104.999	24.9023	105.069	24.9023	105.205	24.9023	105.289	24.9023	105.45	24.9023	105.548	24.9023	105.73	24.9023	105.841	24.9023	106.042	24.9023	106.165	24.9023	106.38	24.9023	106.513	24.9023	106.738	24.9023	106.878	24.9023	107.104	24.9023	107.25	24.9023	107.469	24.9023	107.614	24.9023	107.816	24.9023	107.954	24.9023	108.131	24.9023	108.252	24.9023	108.394	24.9023	108.489	24.9023	108.589	24.9023	108.65	24.9023	108.701	24.9023	108.722
26.3672	105.214	26.3672	105.229	26.3672	105.243	26.3672	105.287	26.3672	105.314	26.3672	105.387	26.3672	105.429	26.3672	105.53	26.3672	105.585	26.3672	105.714	26.3672	105.782	26.3672	105.937	26.3672	106.018	26.3672	106.198	26.3672	106.289	26.3672	106.493	26.3672	106.593	26.3672	106.817	26.3672	106.926	26.3672	107.166	26.3672	107.279	26.3672	107.531	26.3672	107.646	26.3672	107.901	26.3672	108.013	26.3672	108.262	26.3672	108.367	26.3672	108.598	26.3672	108.69	26.3672	108.889	26.3672	108.964	26.3672	109.117	26.3672	109.17	26.3672	109.267	26.3672	109.294	26.3672	109.328
27.832	105.704	27.832	105.715	27.832	105.735	27.832	105.769	27.832	105.808	27.832	105.865	27.832	105.924	27.832	106.003	27.832	106.081	27.832	106.182	27.832	106.278	27.832	106.402	27.832	106.515	27.832	106.66	27.832	106.788	27.832	106.954	27.832	107.095	27.832	107.279	27.832	107.431	27.832	107.63	27.832	107.789	27.832	107.999	27.832	108.16	27.832	108.375	27.832	108.533	27.832	108.745	27.832	108.892	27.832	109.091	27.832	109.22	27.832	109.394	27.832	109.499	27.832	109.634	27.832	109.708	27.832	109.795	27.832	109.833	27.832	109.863
29.2969	105.995	29.2969	106.007	29.2969	106.025	29.2969	106.063	29.2969	106.098	29.2969	106.162	29.2969	106.213	29.2969	106.303	29.2969	106.371	29.2969	106.486	29.2969	106.57	29.2969	106.71	29.2969	106.809	29.2969	106.973	29.2969	107.086	29.2969	107.272	29.2969	107.397	29.2969	107.603	29.2969	107.738	29.2969	107.959	29.2969	108.101	29.2969	108.334	29.2969	108.478	29.2969	108.715	29.2969	108.856	29.2969	109.089	29.2969	109.221	29.2969	109.439	29.2969	109.554	29.2969	109.744	29.2969	109.837	29.2969	109.985	29.2969	110.05	29.2969	110.144	29.2969	110.178	29.2969	110.211
30.7617	106.132	30.7617	106.147	30.7617	106.161	30.7617	106.207	30.7617	106.233	30.7617	106.309	30.7617	106.349	30.7617	106.455	30.7617	106.508	30.7617	106.644	30.7617	106.709	30.7617	106.875	30.7617	106.951	30.7617	107.145	30.7617	107.231	30.7617	107.451	30.7617	107.546	30.7617	107.79	30.7617	107.892	30.7617	108.154	30.7617	108.261	30.7617	108.536	30.7617	108.645	30.7617	108.924	30.7617	109.031	30.7617	109.304	30.7617	109.403	30.7617	109.657	30.7617	109.745	30.7617	109.964	30.7617	110.035	30.7617	110.206	30.7617	110.256	30.7617	110.364	30.7617	110.39	30.7617	110.427
32.2266	106.24	32.2266	106.258	32.2266	106.266	32.2266	106.318	32.2266	106.335	32.2266	106.423	32.2266	106.447	32.2266	106.57	32.2266	106.602	32.2266	106.759	32.2266	106.799	32.2266	106.99	32.2266	107.038	32.2266	107.261	32.2266	107.315	32.2266	107.569	32.2266	107.629	32.2266	107.909	32.2266	107.975	32.2266	108.275	32.2266	108.346	32.2266	108.659	32.2266	108.733	32.2266	109.048	32.2266	109.123	32.2266	109.429	32.2266	109.5	32.2266	109.783	32.2266	109.847	32.2266	110.09	32.2266	110.143	32.2266	110.33	32.2266	110.368	32.2266	110.486	32.2266	110.506	32.2266	110.547
33.6914	106.211	33.6914	106.23	33.6914	106.235	33.6914	106.293	33.6914	106.302	33.6914	106.399	33.6914	106.412	33.6914	106.548	33.6914	106.566	33.6914	106.74	33.6914	106.763	33.6914	106.974	33.6914	107.002	33.6914	107.249	33.6914	107.282	33.6914	107.561	33.6914	107.599	33.6914	107.907	33.6914	107.949	33.6914	108.279	33.6914	108.326	33.6914	108.67	33.6914	108.72	33.6914	109.066	33.6914	109.118	33.6914	109.453	33.6914	109.504	33.6914	109.812	33.6914	109.859	33.6914	110.123	33.6914	110.163	33.6914	110.366	33.6914	110.395	33.6914	110.523	33.6914	110.538	33.6914	110.582
35.1563	106.209	35.1563	106.23	35.1563	106.232	35.1563	106.293	35.1563	106.298	35.1563	106.4	35.1563	106.408	35.1563	106.55	35.1563	106.56	35.1563	106.743	35.1563	106.756	35.1563	106.978	35.1563	106.995	35.1563	107.255	35.1563	107.274	35.1563	107.57	35.1563	107.592	35.1563	107.918	35.1563	107.943	35.1563	108.294	35.1563	108.322	35.1563	108.688	35.1563	108.719	35.1563	109.088	35.1563	109.12	35.1563	109.479	35.1563	109.51	35.1563	109.84	35.1563	109.87	35.1563	110.153	35.1563	110.178	35.1563	110.396	35.1563	110.415	35.1563	110.552	35.1563	110.562	35.1563	110.609
36.6211	106.153	36.6211	106.174	36.6211	106.174	36.6211	106.238	36.6211	106.238	36.6211	106.345	36.6211	106.345	36.6211	106.495	36.6211	106.494	36.6211	106.688	36.6211	106.687	36.6211	106.923	36.6211	106.923	36.6211	107.2	36.6211	107.201	36.6211	107.516	36.6211	107.518	36.6211	107.866	36.6211	107.869	36.6211	108.244	36.6211	108.249	36.6211	108.64	36.6211	108.648	36.6211	109.043	36.6211	109.053	36.6211	109.435	36.6211	109.447	36.6211	109.799	36.6211	109.812	36.6211	110.113	36.6211	110.124	36.6211	110.356	36.6211	110.365	36.6211	110.511	36.6211	110.516	36.6211	110.566
38.0859	106.045	38.0859	106.066	38.0859	106.066	38.0859	106.128	38.0859	106.129	38.0859	106.234	38.0859	106.233	38.0859	106.382	38.0859	106.381	38.0859	106.573	38.0859	106.571	38.0859	106.807	38.0859	106.805	38.0859	107.084	38.0859	107.08	38.0859	107.4	38.0859	107.396	38.0859	107.752	38.0859	107.748	38.0859	108.133	38.0859	108.129	38.0859	108.533	38.0859	108.531	38.0859	108.94	38.0859	108.94	38.0859	109.337	38.0859	109.339	38.0859	109.704	38.0859	109.709	38.0859	110.022	38.0859	110.027	38.0859	110.267	38.0859	110.272	38.0859	110.424	38.0859	110.426	38.0859	110.478
39.5508	106.002	39.5508	106.026	39.5508	106.019	39.5508	106.09	39.5508	106.076	39.5508	106.194	39.5508	106.174	39.5508	106.34	39.5508	106.315	39.5508	106.527	39.5508	106.498	39.5508	106.757	39.5508	106.724	39.5508	107.027	39.5508	106.994	39.5508	107.337	39.5508	107.304	39.5508	107.683	39.5508	107.652	39.5508	108.058	39.5508	108.031	39.5508	108.454	39.5508	108.431	39.5508	108.857	39.5508	108.84	39.5508	109.252	39.5508	109.239	39.5508	109.618	39.5508	109.61	39.5508	109.933	39.5508	109.929	39.5508	110.178	39.5508	110.176	39.5508	110.333	39.5508	110.332	39.5508	110.386
41.0156	105.813	41.0156	105.836	41.0156	105.83	41.0156	105.898	41.0156	105.886	41.0156	106.001	41.0156	105.984	41.0156	106.145	41.0156	106.123	41.0156	106.332	41.0156	106.306	41.0156	106.562	41.0156	106.533	41.0156	106.835	41.0156	106.804	41.0156	107.149	41.0156	107.118	41.0156	107.502	41.0156	107.471	41.0156	107.886	41.0156	107.857	41.0156	108.291	41.0156	108.266	41.0156	108.705	41.0156	108.683	41.0156	109.109	41.0156	109.092	41.0156	109.484	41.0156	109.471	41.0156	109.807	41.0156	109.798	41.0156	110.057	41.0156	110.051	41.0156	110.215	41.0156	110.212	41.0156	110.268
42.4805	105.638	42.4805	105.664	42.4805	105.652	42.4805	105.73	42.4805	105.706	42.4805	105.837	42.4805	105.802	42.4805	105.985	42.4805	105.941	42.4805	106.176	42.4805	106.124	42.4805	106.41	42.4805	106.352	42.4805	106.688	42.4805	106.626	42.4805	107.007	42.4805	106.944	42.4805	107.364	42.4805	107.301	42.4805	107.752	42.4805	107.692	42.4805	108.161	42.4805	108.107	42.4805	108.579	42.4805	108.531	42.4805	108.987	42.4805	108.946	42.4805	109.364	42.4805	109.332	42.4805	109.689	42.4805	109.665	42.4805	109.939	42.4805	109.924	42.4805	110.096	42.4805	110.089	42.4805	110.148
43.9453	105.593	43.9453	105.617	43.9453	105.606	43.9453	105.679	43.9453	105.658	43.9453	105.779	43.9453	105.749	43.9453	105.92	43.9453	105.882	43.9453	106.103	43.9453	106.056	43.9453	106.329	43.9453	106.275	43.9453	106.599	43.9453	106.54	43.9453	106.911	43.9453	106.848	43.9453	107.263	43.9453	107.198	43.9453	107.648	43.9453	107.583	43.9453	108.057	43.9453	107.995	43.9453	108.476	43.9453	108.418	43.9453	108.886	43.9453	108.835	43.9453	109.267	43.9453	109.224	43.9453	109.596	43.9453	109.562	43.9453	109.849	43.9453	109.826	43.9453	110.007	43.9453	109.995	43.9453	110.057
45.4102	105.537	45.4102	105.561	45.4102	105.55	45.4102	105.62	45.4102	105.6	45.4102	105.717	45.4102	105.688	45.4102	105.853	45.4102	105.815	45.4102	106.029	45.4102	105.985	45.4102	106.248	45.4102	106.199	45.4102	106.51	45.4102	106.458	45.4102	106.815	45.4102	106.761	45.4102	107.16	45.4102	107.107	45.4102	107.54	45.4102	107.489	45.4102	107.945	45.4102	107.898	45.4102	108.362	45.4102	108.319	45.4102	108.771	45.4102	108.734	45.4102	109.152	45.4102	109.122	45.4102	109.482	45.4102	109.459	45.4102	109.736	45.4102	109.721	45.4102	109.896	45.4102	109.889	45.4102	109.949
46.875	105.441	46.875	105.461	46.875	105.457	46.875	105.516	46.875	105.508	46.875	105.607	46.875	105.597	46.875	105.738	46.875	105.724	46.875	105.909	46.875	105.892	46.875	106.124	46.875	106.103	46.875	106.383	46.875	106.359	46.875	106.687	46.875	106.66	46.875	107.033	46.875	107.003	46.875	107.415	46.875	107.383	46.875	107.823	46.875	107.79	46.875	108.244	46.875	108.211	46.875	108.658	46.875	108.627	46.875	109.043	46.875	109.016	46.875	109.376	46.875	109.354	46.875	109.633	46.875	109.618	46.875	109.795	46.875	109.787	46.875	109.848
48.3398	105.456	48.3398	105.477	48.3398	105.468	48.3398	105.529	48.3398	105.512	48.3398	105.615	48.3398	105.589	48.3398	105.737	48.3398	105.703	48.3398	105.897	48.3398	105.856	48.3398	106.098	48.3398	106.05	48.3398	106.343	48.3398	106.289	48.3398	106.632	48.3398	106.573	48.3398	106.963	48.3398	106.901	48.3398	107.332	48.3398	107.269	48.3398	107.729	48.3398	107.667	48.3398	108.14	48.3398	108.081	48.3398	108.548	48.3398	108.493	48.3398	108.928	48.3398	108.882	48.3398	109.257	48.3398	109.221	48.3398	109.512	48.3398	109.486	48.3398	109.671	48.3398	109.658	48.3398	109.721
51.2695	105.35	51.2695	105.365	51.2695	105.361	51.2695	105.405	51.2695	105.397	51.2695	105.473	51.2695	105.462	51.2695	105.573	51.2695	105.559	51.2695	105.708	51.2695	105.691	51.2695	105.884	51.2695	105.865	51.2695	106.104	51.2695	106.084	51.2695	106.371	51.2695	106.351	51.2695	106.687	51.2695	106.666	51.2695	107.047	51.2695	107.026	51.2695	107.442	51.2695	107.422	51.2695	107.858	51.2695	107.839	51.2695	108.274	51.2695	108.257	51.2695	108.667	51.2695	108.651	51.2695	109.008	51.2695	108.996	51.2695	109.274	51.2695	109.265	51.2695	109.442	51.2695	109.438	51.2695	109.498
52.7344	105.189	52.7344	105.203	52.7344	105.201	52.7344	105.242	52.7344	105.238	52.7344	105.309	52.7344	105.304	52.7344	105.408	52.7344	105.401	52.7344	105.542	52.7344	105.534	52.7344	105.717	52.7344	105.708	52.7344	105.939	52.7344	105.927	52.7344	106.209	52.7344	106.196	52.7344	106.529	52.7344	106.513	52.7344	106.894	52.7344	106.876	52.7344	107.296	52.7344	107.275	52.7344	107.719	52.7344	107.696	52.7344	108.142	52.7344	108.119	52.7344	108.54	52.7344	108.518	52.7344	108.886	52.7344	108.868	52.7344	109.155	52.7344	109.141	52.7344	109.324	52.7344	109.317	52.7344	109.38
54.1992	105.229	54.1992	105.242	54.1992	105.24	54.1992	105.28	54.1992	105.274	54.1992	105.344	54.1992	105.335	54.1992	105.438	54.1992	105.427	54.1992	105.567	54.1992	105.553	54.1992	105.736	54.1992	105.719	54.1992	105.951	54.1992	105.93	54.1992	106.215	54.1992	106.19	54.1992	106.528	54.1992	106.5	54.1992	106.888	54.1992	106.857	54.1992	107.285	54.1992	107.251	54.1992	107.704	54.1992	107.669	54.1992	108.124	54.1992	108.09	54.1992	108.52	54.1992	108.489	54.1992	108.865	54.1992	108.839	54.1992	109.132	54.1992	109.114	54.1992	109.3	54.1992	109.291	54.1992	109.355
55.6641	105.314	55.6641	105.327	55.6641	105.321	55.6641	105.362	55.6641	105.349	55.6641	105.421	55.6641	105.401	55.6641	105.506	55.6641	105.481	55.6641	105.624	55.6641	105.593	55.6641	105.781	55.6641	105.744	55.6641	105.98	55.6641	105.938	55.6641	106.229	55.6641	106.182	55.6641	106.527	55.6641	106.477	55.6641	106.873	55.6641	106.82	55.6641	107.257	55.6641	107.203	55.6641	107.666	55.6641	107.613	55.6641	108.079	55.6641	108.028	55.6641	108.469	55.6641	108.425	55.6641	108.81	55.6641	108.774	55.6641	109.074	55.6641	109.049	55.6641	109.24	55.6641	109.227	55.6641	109.293
58.5938	105.333	58.5938	105.344	58.5938	105.336	58.5938	105.37	58.5938	105.354	58.5938	105.413	58.5938	105.39	58.5938	105.478	58.5938	105.448	58.5938	105.57	58.5938	105.535	58.5938	105.696	58.5938	105.657	58.5938	105.865	58.5938	105.823	58.5938	106.084	58.5938	106.04	58.5938	106.356	58.5938	106.311	58.5938	106.68	58.5938	106.636	58.5938	107.051	58.5938	107.007	58.5938	107.453	58.5938	107.411	58.5938	107.865	58.5938	107.826	58.5938	108.259	58.5938	108.225	58.5938	108.605	58.5938	108.577	58.5938	108.876	58.5938	108.856	58.5938	109.046	58.5938	109.036	58.5938	109.101
60.0586	105.354	60.0586	105.363	60.0586	105.357	60.0586	105.384	60.0586	105.372	60.0586	105.42	60.0586	105.402	60.0586	105.475	60.0586	105.453	60.0586	105.556	60.0586	105.531	60.0586	105.671	60.0586	105.642	60.0586	105.827	60.0586	105.797	60.0586	106.034	60.0586	106.003	60.0586	106.295	60.0586	106.265	60.0586	106.613	60.0586	106.583	60.0586	106.979	60.0586	106.95	60.0586	107.38	60.0586	107.351	60.0586	107.793	60.0586	107.766	60.0586	108.19	60.0586	108.165	60.0586	108.54	60.0586	108.52	60.0586	108.814	60.0586	108.8	60.0586	108.988	60.0586	108.98	60.0586	109.045
62.9883	105.537	62.9883	105.54	62.9883	105.539	62.9883	105.549	62.9883	105.547	62.9883	105.567	62.9883	105.564	62.9883	105.598	62.9883	105.596	62.9883	105.649	62.9883	105.649	62.9883	105.729	62.9883	105.732	62.9883	105.849	62.9883	105.856	62.9883	106.019	62.9883	106.031	62.9883	106.248	62.9883	106.264	62.9883	106.537	62.9883	106.557	62.9883	106.883	62.9883	106.904	62.9883	107.271	62.9883	107.292	62.9883	107.678	62.9883	107.697	62.9883	108.075	62.9883	108.091	62.9883	108.429	62.9883	108.441	62.9883	108.709	62.9883	108.717	62.9883	108.889	62.9883	108.893	62.9883	108.952
64.4531	105.502	64.4531	105.503	64.4531	105.502	64.4531	105.505	64.4531	105.504	64.4531	105.513	64.4531	105.511	64.4531	105.529	64.4531	105.53	64.4531	105.563	64.4531	105.568	64.4531	105.624	64.4531	105.634	64.4531	105.723	64.4531	105.741	64.4531	105.873	64.4531	105.9	64.4531	106.084	64.4531	106.119	64.4531	106.36	64.4531	106.402	64.4531	106.697	64.4531	106.744	64.4531	107.083	64.4531	107.129	64.4531	107.492	64.4531	107.535	64.4531	107.894	64.4531	107.93	64.4531	108.255	64.4531	108.283	64.4531	108.542	64.4531	108.561	64.4531	108.728	64.4531	108.737	64.4531	108.795
67.3828	105.6	67.3828	105.601	67.3828	105.596	67.3828	105.598	67.3828	105.589	67.3828	105.595	67.3828	105.583	67.3828	105.597	67.3828	105.585	67.3828	105.613	67.3828	105.601	67.3828	105.653	67.3828	105.645	67.3828	105.731	67.3828	105.728	67.3828	105.861	67.3828	105.865	67.3828	106.056	67.3828	106.066	67.3828	106.323	67.3828	106.336	67.3828	106.658	67.3828	106.672	67.3828	107.047	67.3828	107.058	67.3828	107.464	67.3828	107.471	67.3828	107.875	67.3828	107.877	67.3828	108.243	67.3828	108.242	67.3828	108.534	67.3828	108.531	67.3828	108.72	67.3828	108.718	67.3828	108.784
68.8477	105.63	68.8477	105.625	68.8477	105.629	68.8477	105.616	68.8477	105.623	68.8477	105.605	68.8477	105.617	68.8477	105.597	68.8477	105.615	68.8477	105.6	68.8477	105.627	68.8477	105.627	68.8477	105.663	68.8477	105.692	68.8477	105.738	68.8477	105.809	68.8477	105.864	68.8477	105.992	68.8477	106.055	68.8477	106.25	68.8477	106.316	68.8477	106.58	68.8477	106.643	68.8477	106.967	68.8477	107.022	68.8477	107.384	68.8477	107.429	68.8477	107.797	68.8477	107.83	68.8477	108.168	68.8477	108.19	68.8477	108.462	68.8477	108.475	68.8477	108.652	68.8477	108.658	68.8477	108.719
