"SPL Vertical"
"On-Axis"		"10°"		"-10°"		"20°"		"-20°"		"30°"		"-30°"		"40°"		"-40°"		"50°"		"-50°"		"60°"		"-60°"		"70°"		"-70°"		"80°"		"-80°"		"90°"		"-90°"		"100°"		"-100°"		"110°"		"-110°"		"120°"		"-120°"		"130°"		"-130°"		"140°"		"-140°"		"150°"		"-150°"		"160°"		"-160°"		"170°"		"-170°"		"180°"
"Frequency [Hz]"	"Sound Pessure Level [dB]  / [2.83V 1m] "	"Frequency [Hz]"	"Sound Pessure Level [dB]  / [2.83V 1m] "	"Frequency [Hz]"	"Sound Pessure Level [dB]  / [2.83V 1m] "	"Frequency [Hz]"	"Sound Pessure Level [dB]  / [2.83V 1m] "	"Frequency [Hz]"	"Sound Pessure Level [dB]  / [2.83V 1m] "	"Frequency [Hz]"	"Sound Pessure Level [dB]  / [2.83V 1m] "	"Frequency [Hz]"	"Sound Pessure Level [dB]  / [2.83V 1m] "	"Frequency [Hz]"	"Sound Pessure Level [dB]  / [2.83V 1m] "	"Frequency [Hz]"	"Sound Pessure Level [dB]  / [2.83V 1m] "	"Frequency [Hz]"	"Sound Pessure Level [dB]  / [2.83V 1m] "	"Frequency [Hz]"	"Sound Pessure Level [dB]  / [2.83V 1m] "	"Frequency [Hz]"	"Sound Pessure Level [dB]  / [2.83V 1m] "	"Frequency [Hz]"	"Sound Pessure Level [dB]  / [2.83V 1m] "	"Frequency [Hz]"	"Sound Pessure Level [dB]  / [2.83V 1m] "	"Frequency [Hz]"	"Sound Pessure Level [dB]  / [2.83V 1m] "	"Frequency [Hz]"	"Sound Pessure Level [dB]  / [2.83V 1m] "	"Frequency [Hz]"	"Sound Pessure Level [dB]  / [2.83V 1m] "	"Frequency [Hz]"	"Sound Pessure Level [dB]  / [2.83V 1m] "	"Frequency [Hz]"	"Sound Pessure Level [dB]  / [2.83V 1m] "	"Frequency [Hz]"	"Sound Pessure Level [dB]  / [2.83V 1m] "	"Frequency [Hz]"	"Sound Pessure Level [dB]  / [2.83V 1m] "	"Frequency [Hz]"	"Sound Pessure Level [dB]  / [2.83V 1m] "	"Frequency [Hz]"	"Sound Pessure Level [dB]  / [2.83V 1m] "	"Frequency [Hz]"	"Sound Pessure Level [dB]  / [2.83V 1m] "	"Frequency [Hz]"	"Sound Pessure Level [dB]  / [2.83V 1m] "	"Frequency [Hz]"	"Sound Pessure Level [dB]  / [2.83V 1m] "	"Frequency [Hz]"	"Sound Pessure Level [dB]  / [2.83V 1m] "	"Frequency [Hz]"	"Sound Pessure Level [dB]  / [2.83V 1m] "	"Frequency [Hz]"	"Sound Pessure Level [dB]  / [2.83V 1m] "	"Frequency [Hz]"	"Sound Pessure Level [dB]  / [2.83V 1m] "	"Frequency [Hz]"	"Sound Pessure Level [dB]  / [2.83V 1m] "	"Frequency [Hz]"	"Sound Pessure Level [dB]  / [2.83V 1m] "	"Frequency [Hz]"	"Sound Pessure Level [dB]  / [2.83V 1m] "	"Frequency [Hz]"	"Sound Pessure Level [dB]  / [2.83V 1m] "	"Frequency [Hz]"	"Sound Pessure Level [dB]  / [2.83V 1m] "	"Frequency [Hz]"	"Sound Pessure Level [dB]  / [2.83V 1m] "
20.5078	99.6273	20.5078	99.652	20.5078	99.6449	20.5078	99.7186	20.5078	99.7051	20.5078	99.827	20.5078	99.808	20.5078	99.977	20.5078	99.9538	20.5078	100.168	20.5078	100.142	20.5078	100.4	20.5078	100.373	20.5078	100.672	20.5078	100.644	20.5078	100.981	20.5078	100.953	20.5078	101.323	20.5078	101.296	20.5078	101.694	20.5078	101.668	20.5078	102.084	20.5078	102.06	20.5078	102.482	20.5078	102.46	20.5078	102.871	20.5078	102.851	20.5078	103.231	20.5078	103.214	20.5078	103.542	20.5078	103.527	20.5078	103.781	20.5078	103.771	20.5078	103.931	20.5078	103.926	20.5078	103.981
21.9727	102.114	21.9727	102.144	21.9727	102.124	21.9727	102.216	21.9727	102.177	21.9727	102.328	21.9727	102.271	21.9727	102.481	21.9727	102.407	21.9727	102.674	21.9727	102.585	21.9727	102.906	21.9727	102.803	21.9727	103.176	21.9727	103.06	21.9727	103.481	21.9727	103.354	21.9727	103.817	21.9727	103.68	21.9727	104.177	21.9727	104.033	21.9727	104.552	21.9727	104.404	21.9727	104.93	21.9727	104.783	21.9727	105.294	21.9727	105.155	21.9727	105.627	21.9727	105.501	21.9727	105.907	21.9727	105.804	21.9727	106.117	21.9727	106.043	21.9727	106.241	21.9727	106.203	21.9727	106.271
23.4375	103.416	23.4375	103.449	23.4375	103.427	23.4375	103.525	23.4375	103.483	23.4375	103.645	23.4375	103.583	23.4375	103.807	23.4375	103.728	23.4375	104.01	23.4375	103.917	23.4375	104.254	23.4375	104.149	23.4375	104.535	23.4375	104.422	23.4375	104.852	23.4375	104.731	23.4375	105.198	23.4375	105.071	23.4375	105.566	23.4375	105.436	23.4375	105.948	23.4375	105.816	23.4375	106.329	23.4375	106.198	23.4375	106.694	23.4375	106.569	23.4375	107.025	23.4375	106.912	23.4375	107.302	23.4375	107.208	23.4375	107.509	23.4375	107.441	23.4375	107.631	23.4375	107.596	23.4375	107.66
24.9023	104.594	24.9023	104.622	24.9023	104.609	24.9023	104.694	24.9023	104.667	24.9023	104.808	24.9023	104.768	24.9023	104.964	24.9023	104.911	24.9023	105.162	24.9023	105.095	24.9023	105.401	24.9023	105.32	24.9023	105.678	24.9023	105.581	24.9023	105.989	24.9023	105.878	24.9023	106.329	24.9023	106.203	24.9023	106.692	24.9023	106.552	24.9023	107.066	24.9023	106.916	24.9023	107.44	24.9023	107.284	24.9023	107.797	24.9023	107.643	24.9023	108.119	24.9023	107.976	24.9023	108.387	24.9023	108.266	24.9023	108.585	24.9023	108.497	24.9023	108.699	24.9023	108.653	24.9023	108.722
26.3672	105.214	26.3672	105.25	26.3672	105.221	26.3672	105.328	26.3672	105.27	26.3672	105.449	26.3672	105.363	26.3672	105.61	26.3672	105.499	26.3672	105.812	26.3672	105.678	26.3672	106.052	26.3672	105.898	26.3672	106.329	26.3672	106.158	26.3672	106.639	26.3672	106.453	26.3672	106.977	26.3672	106.78	26.3672	107.336	26.3672	107.132	26.3672	107.706	26.3672	107.499	26.3672	108.075	26.3672	107.871	26.3672	108.426	26.3672	108.233	26.3672	108.742	26.3672	108.57	26.3672	109.005	26.3672	108.863	26.3672	109.198	26.3672	109.097	26.3672	109.308	26.3672	109.255	26.3672	109.328
27.832	105.704	27.832	105.737	27.832	105.713	27.832	105.811	27.832	105.765	27.832	105.928	27.832	105.86	27.832	106.086	27.832	105.996	27.832	106.284	27.832	106.175	27.832	106.522	27.832	106.394	27.832	106.797	27.832	106.653	27.832	107.106	27.832	106.949	27.832	107.446	27.832	107.276	27.832	107.808	27.832	107.63	27.832	108.183	27.832	108.001	27.832	108.56	27.832	108.377	27.832	108.92	27.832	108.746	27.832	109.247	27.832	109.089	27.832	109.521	27.832	109.39	27.832	109.723	27.832	109.629	27.832	109.84	27.832	109.79	27.832	109.863
29.2969	105.995	29.2969	106.031	29.2969	106.001	29.2969	106.109	29.2969	106.051	29.2969	106.229	29.2969	106.143	29.2969	106.391	29.2969	106.279	29.2969	106.594	29.2969	106.457	29.2969	106.836	29.2969	106.678	29.2969	107.116	29.2969	106.938	29.2969	107.43	29.2969	107.237	29.2969	107.773	29.2969	107.569	29.2969	108.14	29.2969	107.928	29.2969	108.52	29.2969	108.305	29.2969	108.9	29.2969	108.69	29.2969	109.264	29.2969	109.066	29.2969	109.594	29.2969	109.417	29.2969	109.87	29.2969	109.724	29.2969	110.073	29.2969	109.969	29.2969	110.19	29.2969	110.135	29.2969	110.211
30.7617	106.132	30.7617	106.173	30.7617	106.135	30.7617	106.256	30.7617	106.182	30.7617	106.382	30.7617	106.273	30.7617	106.549	30.7617	106.408	30.7617	106.758	30.7617	106.587	30.7617	107.006	30.7617	106.81	30.7617	107.292	30.7617	107.075	30.7617	107.613	30.7617	107.38	30.7617	107.963	30.7617	107.719	30.7617	108.335	30.7617	108.087	30.7617	108.721	30.7617	108.474	30.7617	109.106	30.7617	108.867	30.7617	109.475	30.7617	109.252	30.7617	109.809	30.7617	109.612	30.7617	110.087	30.7617	109.927	30.7617	110.292	30.7617	110.178	30.7617	110.408	30.7617	110.349	30.7617	110.427
32.2266	106.24	32.2266	106.281	32.2266	106.242	32.2266	106.365	32.2266	106.288	32.2266	106.491	32.2266	106.378	32.2266	106.658	32.2266	106.512	32.2266	106.866	32.2266	106.691	32.2266	107.113	32.2266	106.914	32.2266	107.398	32.2266	107.18	32.2266	107.717	32.2266	107.485	32.2266	108.065	32.2266	107.827	32.2266	108.437	32.2266	108.197	32.2266	108.823	32.2266	108.586	32.2266	109.208	32.2266	108.983	32.2266	109.579	32.2266	109.371	32.2266	109.915	32.2266	109.733	32.2266	110.196	32.2266	110.049	32.2266	110.404	32.2266	110.301	32.2266	110.524	32.2266	110.47	32.2266	110.547
33.6914	106.211	33.6914	106.244	33.6914	106.22	33.6914	106.321	33.6914	106.273	33.6914	106.44	33.6914	106.37	33.6914	106.601	33.6914	106.511	33.6914	106.804	33.6914	106.697	33.6914	107.048	33.6914	106.926	33.6914	107.33	33.6914	107.197	33.6914	107.65	33.6914	107.509	33.6914	108	33.6914	107.857	33.6914	108.377	33.6914	108.233	33.6914	108.769	33.6914	108.629	33.6914	109.164	33.6914	109.031	33.6914	109.545	33.6914	109.423	33.6914	109.895	33.6914	109.788	33.6914	110.19	33.6914	110.104	33.6914	110.413	33.6914	110.352	33.6914	110.547	33.6914	110.515	33.6914	110.582
35.1563	106.209	35.1563	106.235	35.1563	106.227	35.1563	106.303	35.1563	106.288	35.1563	106.415	35.1563	106.392	35.1563	106.57	35.1563	106.539	35.1563	106.767	35.1563	106.73	35.1563	107.007	35.1563	106.964	35.1563	107.287	35.1563	107.24	35.1563	107.606	35.1563	107.555	35.1563	107.958	35.1563	107.905	35.1563	108.338	35.1563	108.283	35.1563	108.736	35.1563	108.679	35.1563	109.138	35.1563	109.081	35.1563	109.529	35.1563	109.472	35.1563	109.887	35.1563	109.834	35.1563	110.193	35.1563	110.147	35.1563	110.425	35.1563	110.391	35.1563	110.567	35.1563	110.549	35.1563	110.609
36.6211	106.153	36.6211	106.176	36.6211	106.173	36.6211	106.241	36.6211	106.235	36.6211	106.349	36.6211	106.34	36.6211	106.501	36.6211	106.488	36.6211	106.695	36.6211	106.679	36.6211	106.933	36.6211	106.912	36.6211	107.212	36.6211	107.187	36.6211	107.53	36.6211	107.502	36.6211	107.883	36.6211	107.853	36.6211	108.264	36.6211	108.232	36.6211	108.664	36.6211	108.63	36.6211	109.07	36.6211	109.035	36.6211	109.464	36.6211	109.428	36.6211	109.827	36.6211	109.792	36.6211	110.137	36.6211	110.107	36.6211	110.374	36.6211	110.351	36.6211	110.521	36.6211	110.508	36.6211	110.566
38.0859	106.045	38.0859	106.066	38.0859	106.066	38.0859	106.129	38.0859	106.129	38.0859	106.234	38.0859	106.234	38.0859	106.382	38.0859	106.382	38.0859	106.574	38.0859	106.572	38.0859	106.808	38.0859	106.805	38.0859	107.085	38.0859	107.08	38.0859	107.401	38.0859	107.396	38.0859	107.753	38.0859	107.749	38.0859	108.135	38.0859	108.131	38.0859	108.537	38.0859	108.532	38.0859	108.947	38.0859	108.941	38.0859	109.346	38.0859	109.338	38.0859	109.715	38.0859	109.706	38.0859	110.032	38.0859	110.022	38.0859	110.276	38.0859	110.267	38.0859	110.428	38.0859	110.423	38.0859	110.478
39.5508	106.002	39.5508	106.024	39.5508	106.021	39.5508	106.087	39.5508	106.08	39.5508	106.191	39.5508	106.18	39.5508	106.336	39.5508	106.323	39.5508	106.522	39.5508	106.508	39.5508	106.75	39.5508	106.737	39.5508	107.018	39.5508	107.008	39.5508	107.326	39.5508	107.321	39.5508	107.67	39.5508	107.67	39.5508	108.045	39.5508	108.05	39.5508	108.441	39.5508	108.451	39.5508	108.847	39.5508	108.858	39.5508	109.244	39.5508	109.255	39.5508	109.613	39.5508	109.622	39.5508	109.932	39.5508	109.937	39.5508	110.177	39.5508	110.18	39.5508	110.333	39.5508	110.333	39.5508	110.386
41.0156	105.813	41.0156	105.833	41.0156	105.833	41.0156	105.892	41.0156	105.894	41.0156	105.993	41.0156	105.995	41.0156	106.135	41.0156	106.137	41.0156	106.32	41.0156	106.322	41.0156	106.548	41.0156	106.551	41.0156	106.82	41.0156	106.822	41.0156	107.134	41.0156	107.136	41.0156	107.487	41.0156	107.488	41.0156	107.872	41.0156	107.873	41.0156	108.281	41.0156	108.279	41.0156	108.7	41.0156	108.694	41.0156	109.109	41.0156	109.099	41.0156	109.487	41.0156	109.474	41.0156	109.812	41.0156	109.798	41.0156	110.062	41.0156	110.05	41.0156	110.217	41.0156	110.21	41.0156	110.268
42.4805	105.638	42.4805	105.657	42.4805	105.659	42.4805	105.717	42.4805	105.72	42.4805	105.818	42.4805	105.823	42.4805	105.962	42.4805	105.967	42.4805	106.15	42.4805	106.154	42.4805	106.382	42.4805	106.384	42.4805	106.658	42.4805	106.658	42.4805	106.978	42.4805	106.975	42.4805	107.337	42.4805	107.331	42.4805	107.728	42.4805	107.719	42.4805	108.143	42.4805	108.13	42.4805	108.566	42.4805	108.55	42.4805	108.98	42.4805	108.961	42.4805	109.362	42.4805	109.341	42.4805	109.69	42.4805	109.67	42.4805	109.941	42.4805	109.925	42.4805	110.097	42.4805	110.088	42.4805	110.148
43.9453	105.593	43.9453	105.606	43.9453	105.617	43.9453	105.659	43.9453	105.68	43.9453	105.751	43.9453	105.781	43.9453	105.886	43.9453	105.922	43.9453	106.064	43.9453	106.104	43.9453	106.287	43.9453	106.328	43.9453	106.555	43.9453	106.594	43.9453	106.867	43.9453	106.904	43.9453	107.219	43.9453	107.253	43.9453	107.606	43.9453	107.636	43.9453	108.018	43.9453	108.044	43.9453	108.441	43.9453	108.463	43.9453	108.857	43.9453	108.874	43.9453	109.244	43.9453	109.256	43.9453	109.578	43.9453	109.586	43.9453	109.837	43.9453	109.841	43.9453	110.001	43.9453	110.002	43.9453	110.057
45.4102	105.537	45.4102	105.549	45.4102	105.563	45.4102	105.598	45.4102	105.626	45.4102	105.686	45.4102	105.726	45.4102	105.816	45.4102	105.864	45.4102	105.987	45.4102	106.042	45.4102	106.203	45.4102	106.261	45.4102	106.464	45.4102	106.522	45.4102	106.769	45.4102	106.825	45.4102	107.116	45.4102	107.169	45.4102	107.498	45.4102	107.547	45.4102	107.906	45.4102	107.95	45.4102	108.327	45.4102	108.365	45.4102	108.742	45.4102	108.773	45.4102	109.129	45.4102	109.153	45.4102	109.464	45.4102	109.482	45.4102	109.725	45.4102	109.735	45.4102	109.89	45.4102	109.895	45.4102	109.949
46.875	105.441	46.875	105.451	46.875	105.468	46.875	105.497	46.875	105.531	46.875	105.582	46.875	105.63	46.875	105.709	46.875	105.766	46.875	105.878	46.875	105.941	46.875	106.092	46.875	106.157	46.875	106.352	46.875	106.415	46.875	106.656	46.875	106.715	46.875	107.002	46.875	107.057	46.875	107.385	46.875	107.434	46.875	107.794	46.875	107.837	46.875	108.216	46.875	108.254	46.875	108.633	46.875	108.664	46.875	109.022	46.875	109.047	46.875	109.359	46.875	109.378	46.875	109.622	46.875	109.633	46.875	109.789	46.875	109.795	46.875	109.848
48.3398	105.456	48.3398	105.462	48.3398	105.484	48.3398	105.501	48.3398	105.545	48.3398	105.577	48.3398	105.638	48.3398	105.691	48.3398	105.766	48.3398	105.846	48.3398	105.931	48.3398	106.044	48.3398	106.134	48.3398	106.287	48.3398	106.377	48.3398	106.574	48.3398	106.663	48.3398	106.905	48.3398	106.99	48.3398	107.275	48.3398	107.354	48.3398	107.673	48.3398	107.746	48.3398	108.087	48.3398	108.153	48.3398	108.499	48.3398	108.556	48.3398	108.887	48.3398	108.934	48.3398	109.224	48.3398	109.26	48.3398	109.489	48.3398	109.513	48.3398	109.659	48.3398	109.671	48.3398	109.721
51.2695	105.35	51.2695	105.348	51.2695	105.379	51.2695	105.375	51.2695	105.435	51.2695	105.434	51.2695	105.519	51.2695	105.527	51.2695	105.632	51.2695	105.659	51.2695	105.777	51.2695	105.835	51.2695	105.958	51.2695	106.056	51.2695	106.18	51.2695	106.326	51.2695	106.444	51.2695	106.644	51.2695	106.754	51.2695	107.005	51.2695	107.106	51.2695	107.402	51.2695	107.492	51.2695	107.82	51.2695	107.898	51.2695	108.239	51.2695	108.306	51.2695	108.636	51.2695	108.691	51.2695	108.984	51.2695	109.025	51.2695	109.257	51.2695	109.285	51.2695	109.433	51.2695	109.447	51.2695	109.498
52.7344	105.189	52.7344	105.184	52.7344	105.222	52.7344	105.207	52.7344	105.282	52.7344	105.263	52.7344	105.369	52.7344	105.355	52.7344	105.485	52.7344	105.486	52.7344	105.632	52.7344	105.661	52.7344	105.815	52.7344	105.884	52.7344	106.038	52.7344	106.157	52.7344	106.305	52.7344	106.479	52.7344	106.616	52.7344	106.846	52.7344	106.969	52.7344	107.249	52.7344	107.358	52.7344	107.673	52.7344	107.768	52.7344	108.099	52.7344	108.179	52.7344	108.502	52.7344	108.567	52.7344	108.855	52.7344	108.905	52.7344	109.133	52.7344	109.166	52.7344	109.312	52.7344	109.329	52.7344	109.38
54.1992	105.229	54.1992	105.221	54.1992	105.263	54.1992	105.241	54.1992	105.323	54.1992	105.292	54.1992	105.407	54.1992	105.378	54.1992	105.519	54.1992	105.503	54.1992	105.661	54.1992	105.673	54.1992	105.837	54.1992	105.889	54.1992	106.052	54.1992	106.156	54.1992	106.31	54.1992	106.472	54.1992	106.612	54.1992	106.834	54.1992	106.958	54.1992	107.232	54.1992	107.341	54.1992	107.653	54.1992	107.746	54.1992	108.076	54.1992	108.155	54.1992	108.477	54.1992	108.542	54.1992	108.83	54.1992	108.879	54.1992	109.108	54.1992	109.141	54.1992	109.287	54.1992	109.304	54.1992	109.355
55.6641	105.314	55.6641	105.305	55.6641	105.346	55.6641	105.321	55.6641	105.4	55.6641	105.366	55.6641	105.477	55.6641	105.443	55.6641	105.579	55.6641	105.558	55.6641	105.708	55.6641	105.714	55.6641	105.87	55.6641	105.917	55.6641	106.069	55.6641	106.168	55.6641	106.31	55.6641	106.47	55.6641	106.596	55.6641	106.818	55.6641	106.928	55.6641	107.204	55.6641	107.298	55.6641	107.615	55.6641	107.694	55.6641	108.03	55.6641	108.097	55.6641	108.426	55.6641	108.48	55.6641	108.775	55.6641	108.816	55.6641	109.049	55.6641	109.077	55.6641	109.227	55.6641	109.241	55.6641	109.293
58.5938	105.333	58.5938	105.318	58.5938	105.365	58.5938	105.324	58.5938	105.413	58.5938	105.353	58.5938	105.479	58.5938	105.41	58.5938	105.564	58.5938	105.501	58.5938	105.673	58.5938	105.631	58.5938	105.809	58.5938	105.806	58.5938	105.981	58.5938	106.031	58.5938	106.195	58.5938	106.308	58.5938	106.456	58.5938	106.636	58.5938	106.767	58.5938	107.007	58.5938	107.122	58.5938	107.409	58.5938	107.51	58.5938	107.821	58.5938	107.908	58.5938	108.217	58.5938	108.291	58.5938	108.569	58.5938	108.627	58.5938	108.849	58.5938	108.889	58.5938	109.032	58.5938	109.052	58.5938	109.101
60.0586	105.354	60.0586	105.336	60.0586	105.387	60.0586	105.336	60.0586	105.435	60.0586	105.357	60.0586	105.498	60.0586	105.405	60.0586	105.579	60.0586	105.483	60.0586	105.68	60.0586	105.6	60.0586	105.809	60.0586	105.762	60.0586	105.972	60.0586	105.974	60.0586	106.177	60.0586	106.24	60.0586	106.431	60.0586	106.559	60.0586	106.734	60.0586	106.926	60.0586	107.084	60.0586	107.326	60.0586	107.467	60.0586	107.739	60.0586	107.863	60.0586	108.139	60.0586	108.244	60.0586	108.496	60.0586	108.579	60.0586	108.782	60.0586	108.839	60.0586	108.97	60.0586	109	60.0586	109.045
62.9883	105.537	62.9883	105.509	62.9883	105.576	62.9883	105.493	62.9883	105.623	62.9883	105.492	62.9883	105.679	62.9883	105.513	62.9883	105.746	62.9883	105.562	62.9883	105.828	62.9883	105.646	62.9883	105.931	62.9883	105.774	62.9883	106.064	62.9883	105.954	62.9883	106.235	62.9883	106.192	62.9883	106.454	62.9883	106.489	62.9883	106.724	62.9883	106.839	62.9883	107.045	62.9883	107.229	62.9883	107.406	62.9883	107.639	62.9883	107.786	62.9883	108.039	62.9883	108.157	62.9883	108.399	62.9883	108.488	62.9883	108.687	62.9883	108.746	62.9883	108.877	62.9883	108.907	62.9883	108.952
64.4531	105.502	64.4531	105.466	64.4531	105.543	64.4531	105.439	64.4531	105.589	64.4531	105.424	64.4531	105.64	64.4531	105.428	64.4531	105.697	64.4531	105.457	64.4531	105.766	64.4531	105.522	64.4531	105.853	64.4531	105.631	64.4531	105.966	64.4531	105.796	64.4531	106.117	64.4531	106.022	64.4531	106.315	64.4531	106.313	64.4531	106.568	64.4531	106.662	64.4531	106.876	64.4531	107.055	64.4531	107.229	64.4531	107.468	64.4531	107.607	64.4531	107.874	64.4531	107.981	64.4531	108.238	64.4531	108.316	64.4531	108.529	64.4531	108.581	64.4531	108.721	64.4531	108.746	64.4531	108.795
67.3828	105.6	67.3828	105.575	67.3828	105.628	67.3828	105.555	67.3828	105.657	67.3828	105.543	67.3828	105.688	67.3828	105.547	67.3828	105.724	67.3828	105.573	67.3828	105.769	67.3828	105.631	67.3828	105.831	67.3828	105.731	67.3828	105.921	67.3828	105.884	67.3828	106.052	67.3828	106.096	67.3828	106.235	67.3828	106.371	67.3828	106.48	67.3828	106.705	67.3828	106.787	67.3828	107.085	67.3828	107.147	67.3828	107.487	67.3828	107.537	67.3828	107.884	67.3828	107.925	67.3828	108.242	67.3828	108.275	67.3828	108.528	67.3828	108.552	67.3828	108.715	67.3828	108.727	67.3828	108.784
68.8477	105.63	68.8477	105.603	68.8477	105.659	68.8477	105.579	68.8477	105.688	68.8477	105.563	68.8477	105.718	68.8477	105.559	68.8477	105.753	68.8477	105.577	68.8477	105.795	68.8477	105.623	68.8477	105.853	68.8477	105.711	68.8477	105.938	68.8477	105.849	68.8477	106.062	68.8477	106.046	68.8477	106.237	68.8477	106.308	68.8477	106.473	68.8477	106.632	68.8477	106.772	68.8477	107.004	68.8477	107.123	68.8477	107.404	68.8477	107.505	68.8477	107.801	68.8477	107.885	68.8477	108.161	68.8477	108.228	68.8477	108.452	68.8477	108.499	68.8477	108.645	68.8477	108.669	68.8477	108.719
