"SPL Vertical"
"On-Axis"		"10°"		"-10°"		"20°"		"-20°"		"30°"		"-30°"		"40°"		"-40°"		"50°"		"-50°"		"60°"		"-60°"		"70°"		"-70°"		"80°"		"-80°"		"90°"		"-90°"		"100°"		"-100°"		"110°"		"-110°"		"120°"		"-120°"		"130°"		"-130°"		"140°"		"-140°"		"150°"		"-150°"		"160°"		"-160°"		"170°"		"-170°"		"180°"
"Frequency / Hz"	"Sound Pressure Level / dB (re 20 µPa/V)  [2.83V at 1m]"	"Frequency / Hz"	"Sound Pressure Level / dB (re 20 µPa/V)  [2.83V at 1m]"	"Frequency / Hz"	"Sound Pressure Level / dB (re 20 µPa/V)  [2.83V at 1m]"	"Frequency / Hz"	"Sound Pressure Level / dB (re 20 µPa/V)  [2.83V at 1m]"	"Frequency / Hz"	"Sound Pressure Level / dB (re 20 µPa/V)  [2.83V at 1m]"	"Frequency / Hz"	"Sound Pressure Level / dB (re 20 µPa/V)  [2.83V at 1m]"	"Frequency / Hz"	"Sound Pressure Level / dB (re 20 µPa/V)  [2.83V at 1m]"	"Frequency / Hz"	"Sound Pressure Level / dB (re 20 µPa/V)  [2.83V at 1m]"	"Frequency / Hz"	"Sound Pressure Level / dB (re 20 µPa/V)  [2.83V at 1m]"	"Frequency / Hz"	"Sound Pressure Level / dB (re 20 µPa/V)  [2.83V at 1m]"	"Frequency / Hz"	"Sound Pressure Level / dB (re 20 µPa/V)  [2.83V at 1m]"	"Frequency / Hz"	"Sound Pressure Level / dB (re 20 µPa/V)  [2.83V at 1m]"	"Frequency / Hz"	"Sound Pressure Level / dB (re 20 µPa/V)  [2.83V at 1m]"	"Frequency / Hz"	"Sound Pressure Level / dB (re 20 µPa/V)  [2.83V at 1m]"	"Frequency / Hz"	"Sound Pressure Level / dB (re 20 µPa/V)  [2.83V at 1m]"	"Frequency / Hz"	"Sound Pressure Level / dB (re 20 µPa/V)  [2.83V at 1m]"	"Frequency / Hz"	"Sound Pressure Level / dB (re 20 µPa/V)  [2.83V at 1m]"	"Frequency / Hz"	"Sound Pressure Level / dB (re 20 µPa/V)  [2.83V at 1m]"	"Frequency / Hz"	"Sound Pressure Level / dB (re 20 µPa/V)  [2.83V at 1m]"	"Frequency / Hz"	"Sound Pressure Level / dB (re 20 µPa/V)  [2.83V at 1m]"	"Frequency / Hz"	"Sound Pressure Level / dB (re 20 µPa/V)  [2.83V at 1m]"	"Frequency / Hz"	"Sound Pressure Level / dB (re 20 µPa/V)  [2.83V at 1m]"	"Frequency / Hz"	"Sound Pressure Level / dB (re 20 µPa/V)  [2.83V at 1m]"	"Frequency / Hz"	"Sound Pressure Level / dB (re 20 µPa/V)  [2.83V at 1m]"	"Frequency / Hz"	"Sound Pressure Level / dB (re 20 µPa/V)  [2.83V at 1m]"	"Frequency / Hz"	"Sound Pressure Level / dB (re 20 µPa/V)  [2.83V at 1m]"	"Frequency / Hz"	"Sound Pressure Level / dB (re 20 µPa/V)  [2.83V at 1m]"	"Frequency / Hz"	"Sound Pressure Level / dB (re 20 µPa/V)  [2.83V at 1m]"	"Frequency / Hz"	"Sound Pressure Level / dB (re 20 µPa/V)  [2.83V at 1m]"	"Frequency / Hz"	"Sound Pressure Level / dB (re 20 µPa/V)  [2.83V at 1m]"	"Frequency / Hz"	"Sound Pressure Level / dB (re 20 µPa/V)  [2.83V at 1m]"	"Frequency / Hz"	"Sound Pressure Level / dB (re 20 µPa/V)  [2.83V at 1m]"	"Frequency / Hz"	"Sound Pressure Level / dB (re 20 µPa/V)  [2.83V at 1m]"	"Frequency / Hz"	"Sound Pressure Level / dB (re 20 µPa/V)  [2.83V at 1m]"	"Frequency / Hz"	"Sound Pressure Level / dB (re 20 µPa/V)  [2.83V at 1m]"	"Frequency / Hz"	"Sound Pressure Level / dB (re 20 µPa/V)  [2.83V at 1m]"
20.5078	57.7401	20.5078	57.684	20.5078	57.7943	20.5078	57.6275	20.5078	57.8465	20.5078	57.5729	20.5078	57.8973	20.5078	57.5241	20.5078	57.9489	20.5078	57.4862	20.5078	58.0049	20.5078	57.4663	20.5078	58.0707	20.5078	57.4728	20.5078	58.1537	20.5078	57.5156	20.5078	58.2635	20.5078	57.6048	20.5078	58.4117	20.5078	57.7495	20.5078	58.6105	20.5078	57.956	20.5078	58.8692	20.5078	58.2243	20.5078	59.1877	20.5078	58.5451	20.5078	59.5463	20.5078	58.8949	20.5078	59.8954	20.5078	59.2387	20.5078	60.1576	20.5078	59.5446	20.5078	60.2576	20.5078	59.8002	20.5078	60.1855	20.5078	60.0135
21.2402	59.1911	21.2402	59.125	21.2402	59.2262	21.2402	59.0276	21.2402	59.2303	21.2402	58.8988	21.2402	59.2035	21.2402	58.7379	21.2402	59.1459	21.2402	58.5447	21.2402	59.0581	21.2402	58.3197	21.2402	58.9418	21.2402	58.0638	21.2402	58.8006	21.2402	57.7796	21.2402	58.6403	21.2402	57.4718	21.2402	58.4693	21.2402	57.1475	21.2402	58.2989	21.2402	56.8179	21.2402	58.1412	21.2402	56.4994	21.2402	58.0058	21.2402	56.217	21.2402	57.8928	21.2402	56.0084	21.2402	57.7827	21.2402	55.9234	21.2402	57.6305	21.2402	56.0035	21.2402	57.3826	21.2402	56.249	21.2402	57.0246	21.2402	56.6151
21.9727	60.9336	21.9727	60.8996	21.9727	60.9467	21.9727	60.845	21.9727	60.9391	21.9727	60.7698	21.9727	60.9106	21.9727	60.6743	21.9727	60.8618	21.9727	60.559	21.9727	60.7935	21.9727	60.4252	21.9727	60.7079	21.9727	60.2747	21.9727	60.6083	21.9727	60.1105	21.9727	60.5002	21.9727	59.9367	21.9727	60.3912	21.9727	59.7589	21.9727	60.2908	21.9727	59.5839	21.9727	60.2094	21.9727	59.4205	21.9727	60.1562	21.9727	59.2803	21.9727	60.134	21.9727	59.1812	21.9727	60.1321	21.9727	59.1505	21.9727	60.1188	21.9727	59.2172	21.9727	60.0467	21.9727	59.3897	21.9727	59.8799	21.9727	59.6358
22.7051	61.3719	22.7051	61.329	22.7051	61.3908	22.7051	61.2623	22.7051	61.3852	22.7051	61.1722	22.7051	61.355	22.7051	61.059	22.7051	61.2999	22.7051	60.9233	22.7051	61.2203	22.7051	60.7662	22.7051	61.1177	22.7051	60.5895	22.7051	60.9948	22.7051	60.3961	22.7051	60.8561	22.7051	60.1898	22.7051	60.7088	22.7051	59.9756	22.7051	60.5619	22.7051	59.7602	22.7051	60.4257	22.7051	59.552	22.7051	60.3092	22.7051	59.3633	22.7051	60.2147	22.7051	59.2135	22.7051	60.1299	22.7051	59.1305	22.7051	60.0248	22.7051	59.1391	22.7051	59.8661	22.7051	59.2425	22.7051	59.6507	22.7051	59.4239
23.4375	62.5388	23.4375	62.5044	23.4375	62.5527	23.4375	62.4499	23.4375	62.5456	23.4375	62.3765	23.4375	62.5178	23.4375	62.2855	23.4375	62.4699	23.4375	62.179	23.4375	62.4037	23.4375	62.0601	23.4375	62.3223	23.4375	61.9326	23.4375	62.2309	23.4375	61.8021	23.4375	62.1366	23.4375	61.6751	23.4375	62.0486	23.4375	61.5588	23.4375	61.9771	23.4375	61.4605	23.4375	61.9313	23.4375	61.3865	23.4375	61.9161	23.4375	61.3412	23.4375	61.9267	23.4375	61.3275	23.4375	61.9434	23.4375	61.347	23.4375	61.9335	23.4375	61.4007	23.4375	61.8679	23.4375	61.4879	23.4375	61.7474	23.4375	61.6078
24.1699	63.8812	24.1699	63.8404	24.1699	63.8882	24.1699	63.7663	24.1699	63.8605	24.1699	63.659	24.1699	63.7969	24.1699	63.5186	24.1699	63.696	24.1699	63.3448	24.1699	63.5567	24.1699	63.1377	24.1699	63.3783	24.1699	62.8976	24.1699	63.1614	24.1699	62.6253	24.1699	62.9078	24.1699	62.3225	24.1699	62.6216	24.1699	61.9915	24.1699	62.3089	24.1699	61.6354	24.1699	61.9774	24.1699	61.2593	24.1699	61.6364	24.1699	60.8731	24.1699	61.2959	24.1699	60.4975	24.1699	60.9668	24.1699	60.1715	24.1699	60.6592	24.1699	59.9505	24.1699	60.3806	24.1699	59.8801	24.1699	60.1394	24.1699	59.958
25.6348	65.733	25.6348	65.6835	25.6348	65.7568	25.6348	65.6086	25.6348	65.7543	25.6348	65.5083	25.6348	65.7244	25.6348	65.3823	25.6348	65.6659	25.6348	65.2302	25.6348	65.5777	25.6348	65.0514	25.6348	65.4588	25.6348	64.8456	25.6348	65.3088	25.6348	64.6127	25.6348	65.1284	25.6348	64.3528	25.6348	64.9192	25.6348	64.0662	25.6348	64.6846	25.6348	63.7535	25.6348	64.4292	25.6348	63.4165	25.6348	64.1587	25.6348	63.0619	25.6348	63.8797	25.6348	62.7101	25.6348	63.5968	25.6348	62.4058	25.6348	63.3057	25.6348	62.2176	25.6348	62.9931	25.6348	62.2051	25.6348	62.6635	25.6348	62.3728
26.3672	66.7381	26.3672	66.6942	26.3672	66.7643	26.3672	66.6329	26.3672	66.7723	26.3672	66.5549	26.3672	66.7617	26.3672	66.4607	26.3672	66.7326	26.3672	66.3515	26.3672	66.6852	26.3672	66.2287	26.3672	66.6204	26.3672	66.0946	26.3672	66.5403	26.3672	65.952	26.3672	66.4479	26.3672	65.805	26.3672	66.3478	26.3672	65.6578	26.3672	66.2457	26.3672	65.5153	26.3672	66.1477	26.3672	65.3829	26.3672	66.0603	26.3672	65.2674	26.3672	65.9876	26.3672	65.1801	26.3672	65.9279	26.3672	65.1397	26.3672	65.8657	26.3672	65.1695	26.3672	65.7721	26.3672	65.2795	26.3672	65.6269	26.3672	65.4474
27.0996	67.4694	27.0996	67.4313	27.0996	67.4917	27.0996	67.3782	27.0996	67.4975	27.0996	67.3113	27.0996	67.4867	27.0996	67.2321	27.0996	67.4595	27.0996	67.1431	27.0996	67.4171	27.0996	67.047	27.0996	67.3613	27.0996	66.948	27.0996	67.2955	27.0996	66.851	27.0996	67.2249	27.0996	66.7619	27.0996	67.1559	27.0996	66.6871	27.0996	67.0967	27.0996	66.6333	27.0996	67.056	27.0996	66.6062	27.0996	67.0418	27.0996	66.611	27.0996	67.0595	27.0996	66.6516	27.0996	67.107	27.0996	66.7309	27.0996	67.1692	27.0996	66.8479	27.0996	67.2134	27.0996	66.9888	27.0996	67.2019	27.0996	67.1201
27.832	68.308	27.832	68.2695	27.832	68.3228	27.832	68.2079	27.832	68.3132	27.832	68.124	27.832	68.2788	27.832	68.019	27.832	68.2198	27.832	67.8946	27.832	68.1365	27.832	67.7532	27.832	68.0306	27.832	67.5982	27.832	67.905	27.832	67.4343	27.832	67.764	27.832	67.2675	27.832	67.6141	27.832	67.1049	27.832	67.4631	27.832	66.9544	27.832	67.32	27.832	66.824	27.832	67.1938	27.832	66.7212	27.832	67.0921	27.832	66.6531	27.832	67.0185	27.832	66.6253	27.832	66.9667	27.832	66.6397	27.832	66.9168	27.832	66.6907	27.832	66.8488	27.832	66.7662
29.2969	70.1781	29.2969	70.147	29.2969	70.1868	29.2969	70.0941	29.2969	70.1725	29.2969	70.0203	29.2969	70.1351	29.2969	69.9267	29.2969	70.0744	29.2969	69.8149	29.2969	69.9912	29.2969	69.6871	29.2969	69.8869	29.2969	69.5465	29.2969	69.7642	29.2969	69.3972	29.2969	69.6273	29.2969	69.2442	29.2969	69.4817	29.2969	69.0932	29.2969	69.3342	29.2969	68.9502	29.2969	69.1921	29.2969	68.8206	29.2969	69.0621	29.2969	68.7096	29.2969	68.9491	29.2969	68.6215	29.2969	68.8551	29.2969	68.5616	29.2969	68.7775	29.2969	68.5349	29.2969	68.7085	29.2969	68.5434	29.2969	68.642	29.2969	68.5827
30.0293	70.9183	30.0293	70.886	30.0293	70.9287	30.0293	70.8326	30.0293	70.9167	30.0293	70.7592	30.0293	70.8825	30.0293	70.6676	30.0293	70.8264	30.0293	70.5602	30.0293	70.7498	30.0293	70.4404	30.0293	70.6552	30.0293	70.3128	30.0293	70.5465	30.0293	70.1833	30.0293	70.4293	30.0293	70.0591	30.0293	70.3111	30.0293	69.948	30.0293	70.2004	30.0293	69.8579	30.0293	70.106	30.0293	69.7957	30.0293	70.0353	30.0293	69.7658	30.0293	69.9926	30.0293	69.7684	30.0293	69.9764	30.0293	69.7985	30.0293	69.9774	30.0293	69.8453	30.0293	69.9791	30.0293	69.8954	30.0293	69.9672	30.0293	69.9381
31.4941	73.3422	31.4941	73.3118	31.4941	73.3445	31.4941	73.2535	31.4941	73.318	31.4941	73.1682	31.4941	73.2628	31.4941	73.0567	31.4941	73.1788	31.4941	72.9205	31.4941	73.0667	31.4941	72.7618	31.4941	72.928	31.4941	72.5835	31.4941	72.7652	31.4941	72.39	31.4941	72.5822	31.4941	72.1863	31.4941	72.384	31.4941	71.9787	31.4941	72.177	31.4941	71.7734	31.4941	71.9679	31.4941	71.5763	31.4941	71.7627	31.4941	71.3923	31.4941	71.5667	31.4941	71.2256	31.4941	71.3842	31.4941	71.082	31.4941	71.2198	31.4941	70.9719	31.4941	71.0798	31.4941	70.9115	31.4941	70.9734	31.4941	70.9129
32.2266	74.335	32.2266	74.306	32.2266	74.3362	32.2266	74.2497	32.2266	74.3088	32.2266	74.1673	32.2266	74.2529	32.2266	74.0602	32.2266	74.1687	32.2266	73.9303	32.2266	74.057	32.2266	73.7806	32.2266	73.9197	32.2266	73.6147	32.2266	73.7598	32.2266	73.4377	32.2266	73.582	32.2266	73.2553	32.2266	73.3919	32.2266	73.074	32.2266	73.1964	32.2266	72.9005	32.2266	73.0026	32.2266	72.7406	32.2266	72.8169	32.2266	72.5988	32.2266	72.6447	32.2266	72.4783	32.2266	72.4914	32.2266	72.3803	32.2266	72.3644	32.2266	72.3041	32.2266	72.2737	32.2266	72.2499	32.2266	72.2266	32.2266	72.2214
33.6914	75.7509	33.6914	75.7109	33.6914	75.76	33.6914	75.6406	33.6914	75.7376	33.6914	75.5408	33.6914	75.6837	33.6914	75.413	33.6914	75.5985	33.6914	75.2591	33.6914	75.4828	33.6914	75.0819	33.6914	75.3383	33.6914	74.8854	33.6914	75.168	33.6914	74.6749	33.6914	74.9764	33.6914	74.4567	33.6914	74.7695	33.6914	74.2385	33.6914	74.5543	33.6914	74.0279	33.6914	74.3385	33.6914	73.8328	33.6914	74.1293	33.6914	73.6611	33.6914	73.9326	33.6914	73.5214	33.6914	73.7538	33.6914	73.4219	33.6914	73.5994	33.6914	73.3656	33.6914	73.4786	33.6914	73.3468	33.6914	73.3985	33.6914	73.3573
34.4238	76.604	34.4238	76.5688	34.4238	76.6085	34.4238	76.5035	34.4238	76.5818	34.4238	76.4089	34.4238	76.5239	34.4238	76.2862	34.4238	76.4349	34.4238	76.137	34.4238	76.3155	34.4238	75.9639	34.4238	76.1673	34.4238	75.7703	34.4238	75.9932	34.4238	75.561	34.4238	75.7974	34.4238	75.3419	34.4238	75.5855	34.4238	75.1201	34.4238	75.3647	34.4238	74.9028	34.4238	75.1423	34.4238	74.6978	34.4238	74.9259	34.4238	74.5128	34.4238	74.7219	34.4238	74.3561	34.4238	74.5368	34.4238	74.2367	34.4238	74.3779	34.4238	74.1605	34.4238	74.2539	34.4238	74.1266	34.4238	74.1715	34.4238	74.1304
35.8887	78.5535	35.8887	78.5247	35.8887	78.5525	35.8887	78.4666	35.8887	78.5215	35.8887	78.38	35.8887	78.4602	35.8887	78.2657	35.8887	78.3689	35.8887	78.1254	35.8887	78.2483	35.8887	77.9612	35.8887	78.0999	35.8887	77.7762	35.8887	77.9263	35.8887	77.5748	35.8887	77.7314	35.8887	77.3624	35.8887	77.5204	35.8887	77.1455	35.8887	77.2994	35.8887	76.9311	35.8887	77.0755	35.8887	76.7265	35.8887	76.8558	35.8887	76.5383	35.8887	76.6478	35.8887	76.3731	35.8887	76.4601	35.8887	76.2371	35.8887	76.3021	35.8887	76.1371	35.8887	76.1822	35.8887	76.0801	35.8887	76.1042	35.8887	76.0694
37.3535	79.8519	37.3535	79.822	37.3535	79.8538	37.3535	79.7649	37.3535	79.8275	37.3535	79.6816	37.3535	79.7731	37.3535	79.5734	37.3535	79.6911	37.3535	79.4424	37.3535	79.5831	37.3535	79.2912	37.3535	79.4514	37.3535	79.1234	37.3535	79.2997	37.3535	78.9435	37.3535	79.1331	37.3535	78.757	37.3535	78.9579	37.3535	78.5701	37.3535	78.7811	37.3535	78.3894	37.3535	78.6096	37.3535	78.222	37.3535	78.4495	37.3535	78.0754	37.3535	78.3051	37.3535	77.9573	37.3535	78.179	37.3535	77.8749	37.3535	78.0724	37.3535	77.8326	37.3535	77.9845	37.3535	77.8295	37.3535	77.9131	37.3535	77.8592
38.8184	81.566	38.8184	81.5288	38.8184	81.5723	38.8184	81.4617	38.8184	81.5471	38.8184	81.3663	38.8184	81.4901	38.8184	81.2448	38.8184	81.402	38.8184	81.1003	38.8184	81.2842	38.8184	80.937	38.8184	81.139	38.8184	80.7601	38.8184	80.9707	38.8184	80.5765	38.8184	80.7849	38.8184	80.3937	38.8184	80.5888	38.8184	80.2199	38.8184	80.3913	38.8184	80.0627	38.8184	80.2014	38.8184	79.9281	38.8184	80.0282	38.8184	79.8196	38.8184	79.88	38.8184	79.7381	38.8184	79.7641	38.8184	79.6816	38.8184	79.6855	38.8184	79.6465	38.8184	79.6424	38.8184	79.6281	38.8184	79.6249	38.8184	79.6215
39.5508	82.5118	39.5508	82.4744	39.5508	82.5172	39.5508	82.406	39.5508	82.49	39.5508	82.3079	39.5508	82.4302	39.5508	82.1822	39.5508	82.3385	39.5508	82.032	39.5508	82.2163	39.5508	81.8611	39.5508	82.0662	39.5508	81.6751	39.5508	81.8922	39.5508	81.4805	39.5508	81.7002	39.5508	81.2852	39.5508	81.4976	39.5508	81.0977	39.5508	81.2931	39.5508	80.9261	39.5508	81.0962	39.5508	80.7769	39.5508	80.9157	39.5508	80.6544	39.5508	80.7597	39.5508	80.56	39.5508	80.6347	39.5508	80.4928	39.5508	80.5445	39.5508	80.451	39.5508	80.4865	39.5508	80.4327	39.5508	80.4522	39.5508	80.4343
41.0156	84.1888	41.0156	84.1501	41.0156	84.1932	41.0156	84.0779	41.0156	84.163	41.0156	83.9736	41.0156	84.0982	41.0156	83.839	41.0156	83.9995	41.0156	83.677	41.0156	83.8684	41.0156	83.4914	41.0156	83.7076	41.0156	83.2874	41.0156	83.5213	41.0156	83.0716	41.0156	83.3155	41.0156	82.8522	41.0156	83.0979	41.0156	82.6379	41.0156	82.8777	41.0156	82.4375	41.0156	82.6645	41.0156	82.2586	41.0156	82.4674	41.0156	82.1068	41.0156	82.2942	41.0156	81.9855	41.0156	82.1505	41.0156	81.8969	41.0156	82.0383	41.0156	81.8438	41.0156	81.9546	41.0156	81.8287	41.0156	81.8921	41.0156	81.8479
42.4805	85.8533	42.4805	85.8104	42.4805	85.8597	42.4805	85.7319	42.4805	85.8292	42.4805	85.6192	42.4805	85.7618	42.4805	85.4744	42.4805	85.6583	42.4805	85.3006	42.4805	85.5203	42.4805	85.1021	42.4805	85.3507	42.4805	84.8846	42.4805	85.1541	42.4805	84.6555	42.4805	84.9371	42.4805	84.4238	42.4805	84.7082	42.4805	84.1992	42.4805	84.4775	42.4805	83.9914	42.4805	84.2559	42.4805	83.8087	42.4805	84.0536	42.4805	83.657	42.4805	83.8789	42.4805	83.5395	42.4805	83.7367	42.4805	83.4574	42.4805	83.6275	42.4805	83.4125	42.4805	83.5454	42.4805	83.4056	42.4805	83.4811	42.4805	83.4319
43.9453	87.5745	43.9453	87.5237	43.9453	87.5845	43.9453	87.4328	43.9453	87.5532	43.9453	87.3027	43.9453	87.4806	43.9453	87.135	43.9453	87.3669	43.9453	86.9322	43.9453	87.2134	43.9453	86.6978	43.9453	87.0221	43.9453	86.4371	43.9453	86.7967	43.9453	86.1573	43.9453	86.5431	43.9453	85.8676	43.9453	86.2691	43.9453	85.5789	43.9453	85.9852	43.9453	85.3031	43.9453	85.7032	43.9453	85.0517	43.9453	85.4357	43.9453	84.8346	43.9453	85.1944	43.9453	84.6594	43.9453	84.988	43.9453	84.5324	43.9453	84.8198	43.9453	84.4607	43.9453	84.6853	43.9453	84.4496	43.9453	84.5764	43.9453	84.4935
45.4102	88.873	45.4102	88.8441	45.4102	88.8651	45.4102	88.7787	45.4102	88.8205	45.4102	88.6772	45.4102	88.7392	45.4102	88.5406	45.4102	88.6218	45.4102	88.3704	45.4102	88.4693	45.4102	88.1689	45.4102	88.2833	45.4102	87.9395	45.4102	88.0665	45.4102	87.6868	45.4102	87.8226	45.4102	87.4168	45.4102	87.5571	45.4102	87.1369	45.4102	87.2768	45.4102	86.8551	45.4102	86.9902	45.4102	86.5803	45.4102	86.7068	45.4102	86.3216	45.4102	86.4368	45.4102	86.0894	45.4102	86.1905	45.4102	85.8952	45.4102	85.9783	45.4102	85.7521	45.4102	85.8118	45.4102	85.6704	45.4102	85.7017	45.4102	85.6539
47.6074	90.1035	47.6074	90.06	47.6074	90.1164	47.6074	89.9861	47.6074	90.099	47.6074	89.8825	47.6074	90.0524	47.6074	89.7508	47.6074	89.9779	47.6074	89.5935	47.6074	89.8775	47.6074	89.4143	47.6074	89.754	47.6074	89.218	47.6074	89.6108	47.6074	89.0112	47.6074	89.4518	47.6074	88.8012	47.6074	89.2817	47.6074	88.5965	47.6074	89.1054	47.6074	88.4055	47.6074	88.9276	47.6074	88.2365	47.6074	88.7528	47.6074	88.0967	47.6074	88.5844	47.6074	87.9923	47.6074	88.4252	47.6074	87.9278	47.6074	88.2782	47.6074	87.9047	47.6074	88.1489	47.6074	87.9198	47.6074	88.0442	47.6074	87.9674
49.0723	91.1936	49.0723	91.1632	49.0723	91.1929	49.0723	91.1015	49.0723	91.1623	49.0723	91.0087	49.0723	91.1032	49.0723	90.8859	49.0723	91.0179	49.0723	90.7354	49.0723	90.9092	49.0723	90.5605	49.0723	90.7807	49.0723	90.366	49.0723	90.6365	49.0723	90.1583	49.0723	90.4809	49.0723	89.9453	49.0723	90.3187	49.0723	89.7358	49.0723	90.1542	49.0723	89.5392	49.0723	89.9911	49.0723	89.3645	49.0723	89.8321	49.0723	89.2196	49.0723	89.6795	49.0723	89.1114	49.0723	89.5346	49.0723	89.0458	49.0723	89.4001	49.0723	89.0258	49.0723	89.2806	49.0723	89.0481	49.0723	89.181	49.0723	89.1027
50.5371	92.091	50.5371	92.0844	50.5371	92.0658	50.5371	92.0457	50.5371	92.0101	50.5371	91.975	50.5371	91.9257	50.5371	91.8733	50.5371	91.8153	50.5371	91.7424	50.5371	91.6826	50.5371	91.585	50.5371	91.532	50.5371	91.4047	50.5371	91.3689	50.5371	91.2065	50.5371	91.1991	50.5371	90.996	50.5371	91.0282	50.5371	90.78	50.5371	90.8609	50.5371	90.5655	50.5371	90.7006	50.5371	90.3598	50.5371	90.5483	50.5371	90.1708	50.5371	90.4032	50.5371	90.0074	50.5371	90.2636	50.5371	89.8819	50.5371	90.13	50.5371	89.8077	50.5371	90.0078	50.5371	89.7924	50.5371	89.9051	50.5371	89.8297
52.7344	93.3371	52.7344	93.3335	52.7344	93.3093	52.7344	93.2989	52.7344	93.2507	52.7344	93.2346	52.7344	93.1629	52.7344	93.1428	52.7344	93.0489	52.7344	93.0266	52.7344	92.913	52.7344	92.8901	52.7344	92.7608	52.7344	92.7384	52.7344	92.5996	52.7344	92.5771	52.7344	92.4373	52.7344	92.4122	52.7344	92.2823	52.7344	92.2496	52.7344	92.1417	52.7344	92.0943	52.7344	92.0202	52.7344	91.9508	52.7344	91.9191	52.7344	91.8231	52.7344	91.8355	52.7344	91.7157	52.7344	91.7643	52.7344	91.6354	52.7344	91.7017	52.7344	91.5887	52.7344	91.6493	52.7344	91.5755	52.7344	91.6108	52.7344	91.5859
54.1992	93.9078	54.1992	93.9051	54.1992	93.8768	54.1992	93.8692	54.1992	93.8125	54.1992	93.8017	54.1992	93.7168	54.1992	93.7049	54.1992	93.5925	54.1992	93.5824	54.1992	93.4443	54.1992	93.4387	54.1992	93.2784	54.1992	93.2793	54.1992	93.1028	54.1992	93.1103	54.1992	92.9267	54.1992	92.9382	54.1992	92.7597	54.1992	92.7693	54.1992	92.6103	54.1992	92.6088	54.1992	92.4844	54.1992	92.461	54.1992	92.3838	54.1992	92.3299	54.1992	92.3054	54.1992	92.22	54.1992	92.2426	54.1992	92.1386	54.1992	92.1894	54.1992	92.0928	54.1992	92.1457	54.1992	92.0815	54.1992	92.114	54.1992	92.0923
