"SPL Horizontal"
"On-Axis"		"10°"		"-10°"		"20°"		"-20°"		"30°"		"-30°"		"40°"		"-40°"		"50°"		"-50°"		"60°"		"-60°"		"70°"		"-70°"		"80°"		"-80°"		"90°"		"-90°"		"100°"		"-100°"		"110°"		"-110°"		"120°"		"-120°"		"130°"		"-130°"		"140°"		"-140°"		"150°"		"-150°"		"160°"		"-160°"		"170°"		"-170°"		"180°"
"Frequency / Hz"	"Sound Pressure Level / dB (re 20 µPa/V)  [2.83V at 1m]"	"Frequency / Hz"	"Sound Pressure Level / dB (re 20 µPa/V)  [2.83V at 1m]"	"Frequency / Hz"	"Sound Pressure Level / dB (re 20 µPa/V)  [2.83V at 1m]"	"Frequency / Hz"	"Sound Pressure Level / dB (re 20 µPa/V)  [2.83V at 1m]"	"Frequency / Hz"	"Sound Pressure Level / dB (re 20 µPa/V)  [2.83V at 1m]"	"Frequency / Hz"	"Sound Pressure Level / dB (re 20 µPa/V)  [2.83V at 1m]"	"Frequency / Hz"	"Sound Pressure Level / dB (re 20 µPa/V)  [2.83V at 1m]"	"Frequency / Hz"	"Sound Pressure Level / dB (re 20 µPa/V)  [2.83V at 1m]"	"Frequency / Hz"	"Sound Pressure Level / dB (re 20 µPa/V)  [2.83V at 1m]"	"Frequency / Hz"	"Sound Pressure Level / dB (re 20 µPa/V)  [2.83V at 1m]"	"Frequency / Hz"	"Sound Pressure Level / dB (re 20 µPa/V)  [2.83V at 1m]"	"Frequency / Hz"	"Sound Pressure Level / dB (re 20 µPa/V)  [2.83V at 1m]"	"Frequency / Hz"	"Sound Pressure Level / dB (re 20 µPa/V)  [2.83V at 1m]"	"Frequency / Hz"	"Sound Pressure Level / dB (re 20 µPa/V)  [2.83V at 1m]"	"Frequency / Hz"	"Sound Pressure Level / dB (re 20 µPa/V)  [2.83V at 1m]"	"Frequency / Hz"	"Sound Pressure Level / dB (re 20 µPa/V)  [2.83V at 1m]"	"Frequency / Hz"	"Sound Pressure Level / dB (re 20 µPa/V)  [2.83V at 1m]"	"Frequency / Hz"	"Sound Pressure Level / dB (re 20 µPa/V)  [2.83V at 1m]"	"Frequency / Hz"	"Sound Pressure Level / dB (re 20 µPa/V)  [2.83V at 1m]"	"Frequency / Hz"	"Sound Pressure Level / dB (re 20 µPa/V)  [2.83V at 1m]"	"Frequency / Hz"	"Sound Pressure Level / dB (re 20 µPa/V)  [2.83V at 1m]"	"Frequency / Hz"	"Sound Pressure Level / dB (re 20 µPa/V)  [2.83V at 1m]"	"Frequency / Hz"	"Sound Pressure Level / dB (re 20 µPa/V)  [2.83V at 1m]"	"Frequency / Hz"	"Sound Pressure Level / dB (re 20 µPa/V)  [2.83V at 1m]"	"Frequency / Hz"	"Sound Pressure Level / dB (re 20 µPa/V)  [2.83V at 1m]"	"Frequency / Hz"	"Sound Pressure Level / dB (re 20 µPa/V)  [2.83V at 1m]"	"Frequency / Hz"	"Sound Pressure Level / dB (re 20 µPa/V)  [2.83V at 1m]"	"Frequency / Hz"	"Sound Pressure Level / dB (re 20 µPa/V)  [2.83V at 1m]"	"Frequency / Hz"	"Sound Pressure Level / dB (re 20 µPa/V)  [2.83V at 1m]"	"Frequency / Hz"	"Sound Pressure Level / dB (re 20 µPa/V)  [2.83V at 1m]"	"Frequency / Hz"	"Sound Pressure Level / dB (re 20 µPa/V)  [2.83V at 1m]"	"Frequency / Hz"	"Sound Pressure Level / dB (re 20 µPa/V)  [2.83V at 1m]"	"Frequency / Hz"	"Sound Pressure Level / dB (re 20 µPa/V)  [2.83V at 1m]"	"Frequency / Hz"	"Sound Pressure Level / dB (re 20 µPa/V)  [2.83V at 1m]"	"Frequency / Hz"	"Sound Pressure Level / dB (re 20 µPa/V)  [2.83V at 1m]"	"Frequency / Hz"	"Sound Pressure Level / dB (re 20 µPa/V)  [2.83V at 1m]"
20.5078	66.2799	20.5078	66.2733	20.5078	66.2739	20.5078	66.254	20.5078	66.2555	20.5078	66.2222	20.5078	66.2249	20.5078	66.1782	20.5078	66.1824	20.5078	66.1224	20.5078	66.1286	20.5078	66.0554	20.5078	66.0643	20.5078	65.9784	20.5078	65.9904	20.5078	65.8929	20.5078	65.9082	20.5078	65.8007	20.5078	65.8195	20.5078	65.7045	20.5078	65.7265	20.5078	65.6072	20.5078	65.6317	20.5078	65.5124	20.5078	65.5381	20.5078	65.4237	20.5078	65.4492	20.5078	65.3451	20.5078	65.3686	20.5078	65.2803	20.5078	65.3	20.5078	65.2327	20.5078	65.2469	20.5078	65.2047	20.5078	65.2121	20.5078	65.1977
21.9727	67.2936	21.9727	67.2861	21.9727	67.2893	21.9727	67.2667	21.9727	67.2733	21.9727	67.2359	21.9727	67.2456	21.9727	67.1941	21.9727	67.2067	21.9727	67.1418	21.9727	67.1572	21.9727	67.08	21.9727	67.0979	21.9727	67.01	21.9727	67.0298	21.9727	66.9331	21.9727	66.9545	21.9727	66.8512	21.9727	66.8735	21.9727	66.7665	21.9727	66.789	21.9727	66.6816	21.9727	66.7035	21.9727	66.5992	21.9727	66.6198	21.9727	66.5224	21.9727	66.5409	21.9727	66.4544	21.9727	66.4701	21.9727	66.3982	21.9727	66.4104	21.9727	66.3564	21.9727	66.3648	21.9727	66.3313	21.9727	66.3356	21.9727	66.3242
23.4375	68.3233	23.4375	68.3171	23.4375	68.3178	23.4375	68.2991	23.4375	68.3006	23.4375	68.2696	23.4375	68.272	23.4375	68.229	23.4375	68.2326	23.4375	68.1779	23.4375	68.1829	23.4375	68.1174	23.4375	68.124	23.4375	68.0486	23.4375	68.057	23.4375	67.9731	23.4375	67.9833	23.4375	67.8929	23.4375	67.9046	23.4375	67.8101	23.4375	67.8231	23.4375	67.7272	23.4375	67.7411	23.4375	67.6472	23.4375	67.6612	23.4375	67.573	23.4375	67.5863	23.4375	67.5075	23.4375	67.5193	23.4375	67.4535	23.4375	67.4631	23.4375	67.4135	23.4375	67.4203	23.4375	67.3894	23.4375	67.393	23.4375	67.3825
24.9023	69.0288	24.9023	69.0225	24.9023	69.0243	24.9023	69.0053	24.9023	69.009	24.9023	68.9777	24.9023	68.983	24.9023	68.9402	24.9023	68.9469	24.9023	68.8934	24.9023	68.9012	24.9023	68.8382	24.9023	68.8469	24.9023	68.7758	24.9023	68.7851	24.9023	68.7076	24.9023	68.7173	24.9023	68.6354	24.9023	68.645	24.9023	68.5612	24.9023	68.5704	24.9023	68.4871	24.9023	68.4957	24.9023	68.4156	24.9023	68.4233	24.9023	68.3493	24.9023	68.356	24.9023	68.2908	24.9023	68.2962	24.9023	68.2424	24.9023	68.2465	24.9023	68.2063	24.9023	68.2091	24.9023	68.1843	24.9023	68.1856	24.9023	68.1772
26.3672	69.76	26.3672	69.7517	26.3672	69.757	26.3672	69.7322	26.3672	69.7426	26.3672	69.7017	26.3672	69.7172	26.3672	69.6609	26.3672	69.6813	26.3672	69.6105	26.3672	69.6356	26.3672	69.5518	26.3672	69.5811	26.3672	69.486	26.3672	69.5191	26.3672	69.4148	26.3672	69.4509	26.3672	69.3401	26.3672	69.3784	26.3672	69.2642	26.3672	69.3036	26.3672	69.1895	26.3672	69.2287	26.3672	69.1185	26.3672	69.1561	26.3672	69.0538	26.3672	69.0883	26.3672	68.9978	26.3672	69.0277	26.3672	68.9528	26.3672	68.9766	26.3672	68.9206	26.3672	68.9372	26.3672	68.9025	26.3672	68.911	26.3672	68.8993
27.832	70.4179	27.832	70.4114	27.832	70.413	27.832	70.3934	27.832	70.3967	27.832	70.3644	27.832	70.3694	27.832	70.3249	27.832	70.3316	27.832	70.2757	27.832	70.2842	27.832	70.2178	27.832	70.2281	27.832	70.1527	27.832	70.1646	27.832	70.0819	27.832	70.0954	27.832	70.0075	27.832	70.0222	27.832	69.9315	27.832	69.9472	27.832	69.8564	27.832	69.8726	27.832	69.7847	27.832	69.8008	27.832	69.719	27.832	69.7342	27.832	69.6618	27.832	69.6753	27.832	69.6153	27.832	69.6263	27.832	69.5814	27.832	69.5891	27.832	69.5613	27.832	69.5653	27.832	69.5559
29.2969	70.9143	29.2969	70.9089	29.2969	70.9074	29.2969	70.8913	29.2969	70.8883	29.2969	70.862	29.2969	70.8576	29.2969	70.8214	29.2969	70.8159	29.2969	70.7706	29.2969	70.7642	29.2969	70.7108	29.2969	70.7037	29.2969	70.6434	29.2969	70.6361	29.2969	70.5704	29.2969	70.563	29.2969	70.4937	29.2969	70.4867	29.2969	70.4157	29.2969	70.4094	29.2969	70.3389	29.2969	70.3334	29.2969	70.2657	29.2969	70.2613	29.2969	70.1988	29.2969	70.1954	29.2969	70.1404	29.2969	70.1379	29.2969	70.0927	29.2969	70.091	29.2969	70.0572	29.2969	70.0562	29.2969	70.0354	29.2969	70.0349	29.2969	70.0279
30.7617	71.4589	30.7617	71.4534	30.7617	71.452	30.7617	71.4355	30.7617	71.4328	30.7617	71.4056	30.7617	71.4017	30.7617	71.3645	30.7617	71.3595	30.7617	71.3132	30.7617	71.3073	30.7617	71.2529	30.7617	71.2464	30.7617	71.1852	30.7617	71.1783	30.7617	71.112	30.7617	71.1051	30.7617	71.0355	30.7617	71.0288	30.7617	70.9581	30.7617	70.9518	30.7617	70.8821	30.7617	70.8765	30.7617	70.8101	30.7617	70.8053	30.7617	70.7445	30.7617	70.7405	30.7617	70.6875	30.7617	70.6844	30.7617	70.641	30.7617	70.6388	30.7617	70.6066	30.7617	70.6052	30.7617	70.5854	30.7617	70.5847	30.7617	70.578
32.2266	71.9884	32.2266	71.981	32.2266	71.9829	32.2266	71.9609	32.2266	71.9647	32.2266	71.9286	32.2266	71.9343	32.2266	71.8848	32.2266	71.8923	32.2266	71.8306	32.2266	71.8399	32.2266	71.7674	32.2266	71.7784	32.2266	71.6969	32.2266	71.7095	32.2266	71.6212	32.2266	71.6351	32.2266	71.5425	32.2266	71.5575	32.2266	71.4633	32.2266	71.4789	32.2266	71.3861	32.2266	71.4019	32.2266	71.3135	32.2266	71.3289	32.2266	71.248	32.2266	71.2623	32.2266	71.1917	32.2266	71.2043	32.2266	71.1464	32.2266	71.1566	32.2266	71.1137	32.2266	71.1208	32.2266	71.0944	32.2266	71.0981	32.2266	71.0892
33.6914	72.5707	33.6914	72.565	33.6914	72.5633	33.6914	72.5462	33.6914	72.543	33.6914	72.5148	33.6914	72.5103	33.6914	72.4714	33.6914	72.466	33.6914	72.4171	33.6914	72.4112	33.6914	72.3533	33.6914	72.3474	33.6914	72.2816	33.6914	72.2762	33.6914	72.2041	33.6914	72.1997	33.6914	72.123	33.6914	72.1201	33.6914	72.0409	33.6914	72.0397	33.6914	71.9605	33.6914	71.9611	33.6914	71.8845	33.6914	71.8866	33.6914	71.8154	33.6914	71.8188	33.6914	71.7558	33.6914	71.7597	33.6914	71.7075	33.6914	71.7113	33.6914	71.6722	33.6914	71.6753	33.6914	71.651	33.6914	71.6527	33.6914	71.6445
35.1562	73.0477	35.1562	73.0433	35.1562	73.0395	35.1562	73.0263	35.1562	73.0189	35.1562	72.9972	35.1562	72.9863	35.1562	72.9567	35.1562	72.9426	35.1562	72.9059	35.1562	72.889	35.1562	72.8462	35.1562	72.8268	35.1562	72.7793	35.1562	72.758	35.1562	72.7071	35.1562	72.6845	35.1562	72.6317	35.1562	72.6086	35.1562	72.5556	35.1562	72.5326	35.1562	72.4812	35.1562	72.4591	35.1562	72.4108	35.1562	72.3904	35.1562	72.3468	35.1562	72.3286	35.1562	72.2911	35.1562	72.2758	35.1562	72.2455	35.1562	72.2336	35.1562	72.2113	35.1562	72.2032	35.1562	72.1895	35.1562	72.1854	35.1562	72.1808
36.6211	73.5182	36.6211	73.5135	36.6211	73.5103	36.6211	73.4964	36.6211	73.4899	36.6211	73.4671	36.6211	73.4577	36.6211	73.4267	36.6211	73.4144	36.6211	73.376	36.6211	73.3612	36.6211	73.3166	36.6211	73.2997	36.6211	73.2502	36.6211	73.2316	36.6211	73.1788	36.6211	73.1589	36.6211	73.1044	36.6211	73.084	36.6211	73.0296	36.6211	73.0093	36.6211	72.9566	36.6211	72.9371	36.6211	72.8879	36.6211	72.8698	36.6211	72.8255	36.6211	72.8094	36.6211	72.7715	36.6211	72.758	36.6211	72.7273	36.6211	72.7169	36.6211	72.6944	36.6211	72.6872	36.6211	72.6736	36.6211	72.6699	36.6211	72.6653
38.0859	73.928	38.0859	73.9216	38.0859	73.9215	38.0859	73.9026	38.0859	73.9023	38.0859	73.8714	38.0859	73.8711	38.0859	73.8289	38.0859	73.8286	38.0859	73.7763	38.0859	73.776	38.0859	73.7152	38.0859	73.7151	38.0859	73.6476	38.0859	73.6476	38.0859	73.5754	38.0859	73.5757	38.0859	73.5011	38.0859	73.5017	38.0859	73.4271	38.0859	73.4281	38.0859	73.3559	38.0859	73.357	38.0859	73.2896	38.0859	73.291	38.0859	73.2305	38.0859	73.2319	38.0859	73.1801	38.0859	73.1814	38.0859	73.1397	38.0859	73.1409	38.0859	73.1104	38.0859	73.1113	38.0859	73.0927	38.0859	73.0932	38.0859	73.087
39.5508	74.3568	39.5508	74.3518	39.5508	74.3485	39.5508	74.3336	39.5508	74.3271	39.5508	74.3028	39.5508	74.2933	39.5508	74.26	39.5508	74.248	39.5508	74.2067	39.5508	74.1926	39.5508	74.1442	39.5508	74.1286	39.5508	74.0746	39.5508	74.0581	39.5508	74	39.5508	73.9833	39.5508	73.9228	39.5508	73.9066	39.5508	73.8456	39.5508	73.8304	39.5508	73.7709	39.5508	73.7573	39.5508	73.7012	39.5508	73.6895	39.5508	73.6386	39.5508	73.6291	39.5508	73.585	39.5508	73.5777	39.5508	73.5419	39.5508	73.5366	39.5508	73.5103	39.5508	73.5069	39.5508	73.4908	39.5508	73.4892	39.5508	73.4837
41.0156	74.8092	41.0156	74.8058	41.0156	74.7993	41.0156	74.7891	41.0156	74.7762	41.0156	74.7597	41.0156	74.7408	41.0156	74.7185	41.0156	74.6939	41.0156	74.6667	41.0156	74.637	41.0156	74.6059	41.0156	74.5718	41.0156	74.5381	41.0156	74.5005	41.0156	74.4654	41.0156	74.4254	41.0156	74.3903	41.0156	74.3491	41.0156	74.3153	41.0156	74.2741	41.0156	74.2427	41.0156	74.2029	41.0156	74.1749	41.0156	74.1379	41.0156	74.1139	41.0156	74.081	41.0156	74.0613	41.0156	74.0336	41.0156	74.0185	41.0156	73.9969	41.0156	73.9863	41.0156	73.9715	41.0156	73.9652	41.0156	73.9577	41.0156	73.9556
42.4805	75.1968	42.4805	75.1943	42.4805	75.1853	42.4805	75.178	42.4805	75.1601	42.4805	75.1485	42.4805	75.1219	42.4805	75.1066	42.4805	75.0718	42.4805	75.0537	42.4805	75.0113	42.4805	74.9915	42.4805	74.9422	42.4805	74.9219	42.4805	74.8668	42.4805	74.8473	42.4805	74.7877	42.4805	74.77	42.4805	74.7076	42.4805	74.6926	42.4805	74.6292	42.4805	74.6176	42.4805	74.5552	42.4805	74.5472	42.4805	74.4882	42.4805	74.4836	42.4805	74.4301	42.4805	74.4283	42.4805	74.3824	42.4805	74.3826	42.4805	74.3464	42.4805	74.3475	42.4805	74.3224	42.4805	74.3234	42.4805	74.3106	42.4805	74.3111
43.9453	75.6198	43.9453	75.6131	43.9453	75.6122	43.9453	75.592	43.9453	75.5902	43.9453	75.5574	43.9453	75.5547	43.9453	75.5101	43.9453	75.5064	43.9453	75.4516	43.9453	75.4469	43.9453	75.3837	43.9453	75.378	43.9453	75.3085	43.9453	75.3017	43.9453	75.2284	43.9453	75.2206	43.9453	75.1459	43.9453	75.1372	43.9453	75.0638	43.9453	75.0545	43.9453	74.9848	43.9453	74.9751	43.9453	74.9113	43.9453	74.9016	43.9453	74.8455	43.9453	74.8364	43.9453	74.7893	43.9453	74.7811	43.9453	74.744	43.9453	74.7373	43.9453	74.7107	43.9453	74.7059	43.9453	74.6899	43.9453	74.6874	43.9453	74.6821
45.4102	75.9949	45.4102	75.9914	45.4102	75.9842	45.4102	75.9738	45.4102	75.9595	45.4102	75.9427	45.4102	75.9215	45.4102	75.8989	45.4102	75.8712	45.4102	75.8438	45.4102	75.8101	45.4102	75.779	45.4102	75.74	45.4102	75.7065	45.4102	75.6631	45.4102	75.6286	45.4102	75.5819	45.4102	75.5477	45.4102	75.499	45.4102	75.4664	45.4102	75.4171	45.4102	75.3872	45.4102	75.3391	45.4102	75.3126	45.4102	75.2674	45.4102	75.245	45.4102	75.2043	45.4102	75.1861	45.4102	75.1515	45.4102	75.1376	45.4102	75.1104	45.4102	75.1007	45.4102	75.082	45.4102	75.0763	45.4102	75.0667	45.4102	75.0648
46.875	76.2611	46.875	76.2606	46.875	76.2474	46.875	76.246	46.875	76.2198	46.875	76.2178	46.875	76.1789	46.875	76.1772	46.875	76.1258	46.875	76.1252	46.875	76.0621	46.875	76.0636	46.875	75.9897	46.875	75.9944	46.875	75.911	46.875	75.9197	46.875	75.8286	46.875	75.8418	46.875	75.7454	46.875	75.7632	46.875	75.6643	46.875	75.6863	46.875	75.5881	46.875	75.6133	46.875	75.5195	46.875	75.5463	46.875	75.4606	46.875	75.487	46.875	75.4131	46.875	75.4369	46.875	75.3781	46.875	75.397	46.875	75.3562	46.875	75.3683	46.875	75.3474	46.875	75.3516
48.3398	76.5512	48.3398	76.5415	48.3398	76.5473	48.3398	76.5185	48.3398	76.5301	48.3398	76.4829	48.3398	76.5001	48.3398	76.4357	48.3398	76.4583	48.3398	76.3785	48.3398	76.406	48.3398	76.3131	48.3398	76.345	48.3398	76.2417	48.3398	76.2773	48.3398	76.1667	48.3398	76.2051	48.3398	76.0906	48.3398	76.1309	48.3398	76.0162	48.3398	76.057	48.3398	75.9458	48.3398	75.9859	48.3398	75.8817	48.3398	75.9196	48.3398	75.8258	48.3398	75.8602	48.3398	75.7796	48.3398	75.809	48.3398	75.744	48.3398	75.7672	48.3398	75.7195	48.3398	75.7356	48.3398	75.7066	48.3398	75.7148	48.3398	75.705
51.2695	77.2405	51.2695	77.2338	51.2695	77.233	51.2695	77.2132	51.2695	77.2114	51.2695	77.1793	51.2695	77.1765	51.2695	77.1335	51.2695	77.1296	51.2695	77.0775	51.2695	77.0725	51.2695	77.0135	51.2695	77.0074	51.2695	76.944	51.2695	76.9367	51.2695	76.8716	51.2695	76.8633	51.2695	76.799	51.2695	76.7901	51.2695	76.7291	51.2695	76.7197	51.2695	76.664	51.2695	76.6547	51.2695	76.6058	51.2695	76.5969	51.2695	76.5557	51.2695	76.5478	51.2695	76.5147	51.2695	76.508	51.2695	76.483	51.2695	76.4777	51.2695	76.4604	51.2695	76.4568	51.2695	76.4467	51.2695	76.4449	51.2695	76.4415
52.7344	77.4627	52.7344	77.4591	52.7344	77.45	52.7344	77.4395	52.7344	77.4214	52.7344	77.4048	52.7344	77.3778	52.7344	77.3562	52.7344	77.3207	52.7344	77.2958	52.7344	77.2522	52.7344	77.2259	52.7344	77.1748	52.7344	77.1493	52.7344	77.0917	52.7344	77.069	52.7344	77.0061	52.7344	76.9881	52.7344	76.9216	52.7344	76.9097	52.7344	76.8414	52.7344	76.8364	52.7344	76.7685	52.7344	76.7703	52.7344	76.7053	52.7344	76.7128	52.7344	76.6533	52.7344	76.6647	52.7344	76.6133	52.7344	76.626	52.7344	76.5851	52.7344	76.5966	52.7344	76.5682	52.7344	76.5762	52.7344	76.5616	52.7344	76.5644
54.1992	77.8047	54.1992	77.7985	54.1992	77.7936	54.1992	77.7752	54.1992	77.7653	54.1992	77.7356	54.1992	77.7209	54.1992	77.6811	54.1992	77.6617	54.1992	77.6137	54.1992	77.5896	54.1992	77.5356	54.1992	77.5073	54.1992	77.4497	54.1992	77.4175	54.1992	77.3592	54.1992	77.3237	54.1992	77.2674	54.1992	77.2293	54.1992	77.1774	54.1992	77.1378	54.1992	77.0923	54.1992	77.0524	54.1992	77.0147	54.1992	76.976	54.1992	76.9465	54.1992	76.9105	54.1992	76.8891	54.1992	76.8576	54.1992	76.8431	54.1992	76.8177	54.1992	76.8089	54.1992	76.7911	54.1992	76.7864	54.1992	76.7772	54.1992	76.7758
55.6641	78.0503	55.6641	78.0431	55.6641	78.0406	55.6641	78.0193	55.6641	78.0143	55.6641	77.9799	55.6641	77.9723	55.6641	77.9262	55.6641	77.916	55.6641	77.8602	55.6641	77.8473	55.6641	77.7844	55.6641	77.7687	55.6641	77.7017	55.6641	77.6832	55.6641	77.6151	55.6641	77.5939	55.6641	77.5278	55.6641	77.5044	55.6641	77.4431	55.6641	77.4178	55.6641	77.3637	55.6641	77.3373	55.6641	77.2919	55.6641	77.2656	55.6641	77.2294	55.6641	77.2044	55.6641	77.1773	55.6641	77.1549	55.6641	77.136	55.6641	77.1177	55.6641	77.1057	55.6641	77.0927	55.6641	77.0861	55.6641	77.0794	55.6641	77.0773
58.5938	78.6028	58.5938	78.5945	58.5938	78.5937	58.5938	78.569	58.5938	78.5674	58.5938	78.5275	58.5938	78.5248	58.5938	78.4714	58.5938	78.4676	58.5938	78.403	58.5938	78.3978	58.5938	78.3249	58.5938	78.3181	58.5938	78.2403	58.5938	78.2317	58.5938	78.1526	58.5938	78.142	58.5938	78.0653	58.5938	78.0528	58.5938	77.9816	58.5938	77.9674	58.5938	77.9043	58.5938	77.8889	58.5938	77.8359	58.5938	77.8198	58.5938	77.7776	58.5938	77.7619	58.5938	77.7302	58.5938	77.7158	58.5938	77.6936	58.5938	77.6817	58.5938	77.6674	58.5938	77.6589	58.5938	77.6511	58.5938	77.6466	58.5938	77.6441
60.0586	78.8697	60.0586	78.8601	60.0586	78.8611	60.0586	78.8329	60.0586	78.8349	60.0586	78.7891	60.0586	78.7917	60.0586	78.7303	60.0586	78.7334	60.0586	78.6588	60.0586	78.662	60.0586	78.5776	60.0586	78.5804	60.0586	78.4898	60.0586	78.4918	60.0586	78.399	60.0586	78.3999	60.0586	78.3089	60.0586	78.3083	60.0586	78.2229	60.0586	78.2207	60.0586	78.144	60.0586	78.1402	60.0586	78.0746	60.0586	78.0695	60.0586	78.016	60.0586	78.01	60.0586	77.9688	60.0586	77.9627	60.0586	77.9329	60.0586	77.9275	60.0586	77.9077	60.0586	77.9036	60.0586	77.8925	60.0586	77.8903	60.0586	77.8867
62.9883	79.4671	62.9883	79.4573	62.9883	79.4579	62.9883	79.4288	62.9883	79.43	62.9883	79.3827	62.9883	79.3844	62.9883	79.3207	62.9883	79.3228	62.9883	79.2451	62.9883	79.2474	62.9883	79.159	62.9883	79.1613	62.9883	79.0658	62.9883	79.0679	62.9883	78.9693	62.9883	78.971	62.9883	78.8734	62.9883	78.8745	62.9883	78.7819	62.9883	78.7822	62.9883	78.6981	62.9883	78.6975	62.9883	78.6244	62.9883	78.623	62.9883	78.5626	62.9883	78.5606	62.9883	78.5132	62.9883	78.5109	62.9883	78.4761	62.9883	78.4738	62.9883	78.4504	62.9883	78.4486	62.9883	78.4352	62.9883	78.4342	62.9883	78.4299
64.4531	79.6939	64.4531	79.6842	64.4531	79.6843	64.4531	79.6555	64.4531	79.6556	64.4531	79.6089	64.4531	79.6088	64.4531	79.5461	64.4531	79.5457	64.4531	79.4695	64.4531	79.4686	64.4531	79.3822	64.4531	79.3805	64.4531	79.2876	64.4531	79.2848	64.4531	79.1895	64.4531	79.1854	64.4531	79.0919	64.4531	79.0864	64.4531	78.9986	64.4531	78.9917	64.4531	78.9128	64.4531	78.9047	64.4531	78.8373	64.4531	78.8283	64.4531	78.7735	64.4531	78.7643	64.4531	78.7222	64.4531	78.7134	64.4531	78.6832	64.4531	78.6757	64.4531	78.6558	64.4531	78.6503	64.4531	78.6392	64.4531	78.6363	64.4531	78.6327
67.3828	80.1738	67.3828	80.1637	67.3828	80.1649	67.3828	80.135	67.3828	80.1375	67.3828	80.0888	67.3828	80.0926	67.3828	80.0269	67.3828	80.0317	67.3828	79.9517	67.3828	79.9575	67.3828	79.8661	67.3828	79.8727	67.3828	79.7738	67.3828	79.7809	67.3828	79.6784	67.3828	79.6859	67.3828	79.5838	67.3828	79.5914	67.3828	79.4939	67.3828	79.5012	67.3828	79.4117	67.3828	79.4185	67.3828	79.3398	67.3828	79.3458	67.3828	79.2796	67.3828	79.2847	67.3828	79.2318	67.3828	79.2358	67.3828	79.1961	67.3828	79.199	67.3828	79.1717	67.3828	79.1736	67.3828	79.1578	67.3828	79.1587	67.3828	79.1535
