"SPL Vertical"
"On-Axis"		"10°"		"-10°"		"20°"		"-20°"		"30°"		"-30°"		"40°"		"-40°"		"50°"		"-50°"		"60°"		"-60°"		"70°"		"-70°"		"80°"		"-80°"		"90°"		"-90°"		"100°"		"-100°"		"110°"		"-110°"		"120°"		"-120°"		"130°"		"-130°"		"140°"		"-140°"		"150°"		"-150°"		"160°"		"-160°"		"170°"		"-170°"		"180°"
"Frequency / Hz"	"Sound Pressure Level / dB (re 20 µPa/V)  [2.83  V @ 1. m]"	"Frequency / Hz"	"Sound Pressure Level / dB (re 20 µPa/V)  [2.83  V @ 1. m]"	"Frequency / Hz"	"Sound Pressure Level / dB (re 20 µPa/V)  [2.83  V @ 1. m]"	"Frequency / Hz"	"Sound Pressure Level / dB (re 20 µPa/V)  [2.83  V @ 1. m]"	"Frequency / Hz"	"Sound Pressure Level / dB (re 20 µPa/V)  [2.83  V @ 1. m]"	"Frequency / Hz"	"Sound Pressure Level / dB (re 20 µPa/V)  [2.83  V @ 1. m]"	"Frequency / Hz"	"Sound Pressure Level / dB (re 20 µPa/V)  [2.83  V @ 1. m]"	"Frequency / Hz"	"Sound Pressure Level / dB (re 20 µPa/V)  [2.83  V @ 1. m]"	"Frequency / Hz"	"Sound Pressure Level / dB (re 20 µPa/V)  [2.83  V @ 1. m]"	"Frequency / Hz"	"Sound Pressure Level / dB (re 20 µPa/V)  [2.83  V @ 1. m]"	"Frequency / Hz"	"Sound Pressure Level / dB (re 20 µPa/V)  [2.83  V @ 1. m]"	"Frequency / Hz"	"Sound Pressure Level / dB (re 20 µPa/V)  [2.83  V @ 1. m]"	"Frequency / Hz"	"Sound Pressure Level / dB (re 20 µPa/V)  [2.83  V @ 1. m]"	"Frequency / Hz"	"Sound Pressure Level / dB (re 20 µPa/V)  [2.83  V @ 1. m]"	"Frequency / Hz"	"Sound Pressure Level / dB (re 20 µPa/V)  [2.83  V @ 1. m]"	"Frequency / Hz"	"Sound Pressure Level / dB (re 20 µPa/V)  [2.83  V @ 1. m]"	"Frequency / Hz"	"Sound Pressure Level / dB (re 20 µPa/V)  [2.83  V @ 1. m]"	"Frequency / Hz"	"Sound Pressure Level / dB (re 20 µPa/V)  [2.83  V @ 1. m]"	"Frequency / Hz"	"Sound Pressure Level / dB (re 20 µPa/V)  [2.83  V @ 1. m]"	"Frequency / Hz"	"Sound Pressure Level / dB (re 20 µPa/V)  [2.83  V @ 1. m]"	"Frequency / Hz"	"Sound Pressure Level / dB (re 20 µPa/V)  [2.83  V @ 1. m]"	"Frequency / Hz"	"Sound Pressure Level / dB (re 20 µPa/V)  [2.83  V @ 1. m]"	"Frequency / Hz"	"Sound Pressure Level / dB (re 20 µPa/V)  [2.83  V @ 1. m]"	"Frequency / Hz"	"Sound Pressure Level / dB (re 20 µPa/V)  [2.83  V @ 1. m]"	"Frequency / Hz"	"Sound Pressure Level / dB (re 20 µPa/V)  [2.83  V @ 1. m]"	"Frequency / Hz"	"Sound Pressure Level / dB (re 20 µPa/V)  [2.83  V @ 1. m]"	"Frequency / Hz"	"Sound Pressure Level / dB (re 20 µPa/V)  [2.83  V @ 1. m]"	"Frequency / Hz"	"Sound Pressure Level / dB (re 20 µPa/V)  [2.83  V @ 1. m]"	"Frequency / Hz"	"Sound Pressure Level / dB (re 20 µPa/V)  [2.83  V @ 1. m]"	"Frequency / Hz"	"Sound Pressure Level / dB (re 20 µPa/V)  [2.83  V @ 1. m]"	"Frequency / Hz"	"Sound Pressure Level / dB (re 20 µPa/V)  [2.83  V @ 1. m]"	"Frequency / Hz"	"Sound Pressure Level / dB (re 20 µPa/V)  [2.83  V @ 1. m]"	"Frequency / Hz"	"Sound Pressure Level / dB (re 20 µPa/V)  [2.83  V @ 1. m]"	"Frequency / Hz"	"Sound Pressure Level / dB (re 20 µPa/V)  [2.83  V @ 1. m]"	"Frequency / Hz"	"Sound Pressure Level / dB (re 20 µPa/V)  [2.83  V @ 1. m]"	"Frequency / Hz"	"Sound Pressure Level / dB (re 20 µPa/V)  [2.83  V @ 1. m]"
20.5078	52.0036	20.5078	51.6222	20.5078	52.468	20.5078	51.3341	20.5078	52.9937	20.5078	51.1379	20.5078	53.5502	20.5078	51.0224	20.5078	54.1015	20.5078	50.9714	20.5078	54.6104	20.5078	50.9674	20.5078	55.0417	20.5078	50.995	20.5078	55.3661	20.5078	51.043	20.5078	55.5635	20.5078	51.105	20.5078	55.6248	20.5078	51.179	20.5078	55.5531	20.5078	51.2671	20.5078	55.3629	20.5078	51.3746	20.5078	55.0778	20.5078	51.5087	20.5078	54.7255	20.5078	51.6769	20.5078	54.3338	20.5078	51.8853	20.5078	53.9262	20.5078	52.137	20.5078	53.5208	20.5078	52.4314	20.5078	53.1304	20.5078	52.7646
21.9727	54.6513	21.9727	54.2881	21.9727	55.0748	21.9727	53.9926	21.9727	55.543	21.9727	53.7648	21.9727	56.0331	21.9727	53.5988	21.9727	56.5171	21.9727	53.4852	21.9727	56.9636	21.9727	53.4133	21.9727	57.3419	21.9727	53.3738	21.9727	57.6247	21.9727	53.3596	21.9727	57.7922	21.9727	53.3669	21.9727	57.8344	21.9727	53.3952	21.9727	57.7523	21.9727	53.4471	21.9727	57.5575	21.9727	53.5275	21.9727	57.2703	21.9727	53.643	21.9727	56.9153	21.9727	53.8003	21.9727	56.518	21.9727	54.0045	21.9727	56.1015	21.9727	54.2578	21.9727	55.6841	21.9727	54.5586	21.9727	55.2804	21.9727	54.9021
23.4375	56.5294	23.4375	56.1374	23.4375	56.9661	23.4375	55.7989	23.4375	57.4332	23.4375	55.5173	23.4375	57.911	23.4375	55.2915	23.4375	58.3757	23.4375	55.1174	23.4375	58.8006	23.4375	54.989	23.4375	59.1587	23.4375	54.9008	23.4375	59.4258	23.4375	54.8484	23.4375	59.5836	23.4375	54.8301	23.4375	59.6224	23.4375	54.8463	23.4375	59.5425	23.4375	54.9004	23.4375	59.3536	23.4375	54.9969	23.4375	59.0733	23.4375	55.1413	23.4375	58.7232	23.4375	55.3379	23.4375	58.326	23.4375	55.5883	23.4375	57.9021	23.4375	55.8906	23.4375	57.4683	23.4375	56.2391	23.4375	57.0387	23.4375	56.6253
24.9023	58.5876	24.9023	58.1963	24.9023	59.0178	24.9023	57.8533	24.9023	59.4725	24.9023	57.5635	24.9023	59.9328	24.9023	57.3274	24.9023	60.376	24.9023	57.1427	24.9023	60.7774	24.9023	57.0056	24.9023	61.1124	24.9023	56.9119	24.9023	61.359	24.9023	56.8584	24.9023	61.5011	24.9023	56.8433	24.9023	61.5303	24.9023	56.8667	24.9023	61.4473	24.9023	56.9303	24.9023	61.2616	24.9023	57.0369	24.9023	60.9899	24.9023	57.1896	24.9023	60.6525	24.9023	57.3904	24.9023	60.2708	24.9023	57.6397	24.9023	59.8642	24.9023	57.9351	24.9023	59.4488	24.9023	58.2717	24.9023	59.0378	24.9023	58.6421
26.3672	61.1573	26.3672	60.8212	26.3672	61.5216	26.3672	60.5208	26.3672	61.9031	26.3672	60.2605	26.3672	62.2871	26.3672	60.0416	26.3672	62.6557	26.3672	59.8636	26.3672	62.9888	26.3672	59.725	26.3672	63.2656	26.3672	59.6237	26.3672	63.4673	26.3672	59.5581	26.3672	63.5795	26.3672	59.5277	26.3672	63.5946	26.3672	59.5328	26.3672	63.5128	26.3672	59.5748	26.3672	63.3422	26.3672	59.6561	26.3672	63.0971	26.3672	59.7788	26.3672	62.7953	26.3672	59.9449	26.3672	62.4554	26.3672	60.1546	26.3672	62.0945	26.3672	60.4064	26.3672	61.7269	26.3672	60.6963	26.3672	61.3648	26.3672	61.0183
27.832	62.4059	27.832	62.0824	27.832	62.7571	27.832	61.7937	27.832	63.1253	27.832	61.5436	27.832	63.4965	27.832	61.3335	27.832	63.8534	27.832	61.1626	27.832	64.1765	27.832	61.0293	27.832	64.4457	27.832	60.9319	27.832	64.6426	27.832	60.8688	27.832	64.7532	27.832	60.8396	27.832	64.7699	27.832	60.8448	27.832	64.6929	27.832	60.886	27.832	64.53	27.832	60.9653	27.832	64.295	27.832	61.0849	27.832	64.0051	27.832	61.2467	27.832	63.6781	27.832	61.4508	27.832	63.3302	27.832	61.6956	27.832	62.9755	27.832	61.9772	27.832	62.6253	27.832	62.2897
29.2969	64.1512	29.2969	63.8409	29.2969	64.4846	29.2969	63.5607	29.2969	64.8312	29.2969	63.3147	29.2969	65.1781	29.2969	63.105	29.2969	65.5096	29.2969	62.9321	29.2969	65.808	29.2969	62.7952	29.2969	66.055	29.2969	62.6936	29.2969	66.2338	29.2969	62.6265	29.2969	66.3316	29.2969	62.5938	29.2969	66.3414	29.2969	62.5959	29.2969	66.2635	29.2969	62.634	29.2969	66.1054	29.2969	62.7097	29.2969	65.8799	29.2969	62.8245	29.2969	65.6032	29.2969	62.9794	29.2969	65.2918	29.2969	63.1744	29.2969	64.961	29.2969	63.4077	29.2969	64.6238	29.2969	63.6754	29.2969	64.2911	29.2969	63.9723
30.7617	65.8657	30.7617	65.5767	30.7617	66.1764	30.7617	65.3151	30.7617	66.5001	30.7617	65.0845	30.7617	66.8257	30.7617	64.8868	30.7617	67.1389	30.7617	64.7223	30.7617	67.4232	30.7617	64.5909	30.7617	67.6612	30.7617	64.492	30.7617	67.8365	30.7617	64.4253	30.7617	67.9364	30.7617	64.391	30.7617	67.9538	30.7617	64.3899	30.7617	67.8883	30.7617	64.4237	30.7617	67.7464	30.7617	64.494	30.7617	67.5395	30.7617	64.603	30.7617	67.282	30.7617	64.7519	30.7617	66.9891	30.7617	64.9408	30.7617	66.6746	30.7617	65.168	30.7617	66.3511	30.7617	65.4294	30.7617	66.0293	30.7617	65.7191
32.2266	67.2189	32.2266	66.9315	32.2266	67.5269	32.2266	66.6714	32.2266	67.8459	32.2266	66.443	32.2266	68.1637	32.2266	66.2484	32.2266	68.4657	32.2266	66.0881	32.2266	68.7356	32.2266	65.9618	32.2266	68.9571	32.2266	65.8688	32.2266	69.1154	32.2266	65.8084	32.2266	69.1995	32.2266	65.7801	32.2266	69.204	32.2266	65.7843	32.2266	69.1298	32.2266	65.8217	32.2266	68.9838	32.2266	65.8931	32.2266	68.7779	32.2266	65.9999	32.2266	68.5265	32.2266	66.1426	32.2266	68.2442	32.2266	66.321	32.2266	67.9443	32.2266	66.5336	32.2266	67.6385	32.2266	66.7772	32.2266	67.3365	32.2266	67.047
33.6914	68.8179	33.6914	68.5491	33.6914	69.0996	33.6914	68.2992	33.6914	69.3857	33.6914	68.073	33.6914	69.6662	33.6914	67.8732	33.6914	69.9286	33.6914	67.7017	33.6914	70.1595	33.6914	67.5595	33.6914	70.3447	33.6914	67.4471	33.6914	70.4713	33.6914	67.365	33.6914	70.5296	33.6914	67.3138	33.6914	70.5148	33.6914	67.2947	33.6914	70.4279	33.6914	67.3088	33.6914	70.2758	33.6914	67.3578	33.6914	70.0696	33.6914	67.443	33.6914	69.8225	33.6914	67.5653	33.6914	69.5481	33.6914	67.7248	33.6914	69.2587	33.6914	67.9197	33.6914	68.9651	33.6914	68.1469	33.6914	68.6765	33.6914	68.4013
35.1562	70.2027	35.1562	69.924	35.1562	70.4969	35.1562	69.6673	35.1562	70.7972	35.1562	69.4372	35.1562	71.0919	35.1562	69.2361	35.1562	71.3674	35.1562	69.0651	35.1562	71.609	35.1562	68.9244	35.1562	71.8022	35.1562	68.8139	35.1562	71.934	35.1562	68.7336	35.1562	71.9952	35.1562	68.6836	35.1562	71.9809	35.1562	68.6645	35.1562	71.8921	35.1562	68.6773	35.1562	71.7352	35.1562	68.7234	35.1562	71.5205	35.1562	68.8046	35.1562	71.2611	35.1562	68.9223	35.1562	70.9711	35.1562	69.0778	35.1562	70.6639	35.1562	69.2709	35.1562	70.3523	35.1562	69.4999	35.1562	70.0479	35.1562	69.761
36.6211	71.3861	36.6211	71.1127	36.6211	71.6738	36.6211	70.8603	36.6211	71.9664	36.6211	70.6336	36.6211	72.2525	36.6211	70.4354	36.6211	72.5186	36.6211	70.2672	36.6211	72.7507	36.6211	70.1292	36.6211	72.9347	36.6211	70.0218	36.6211	73.0584	36.6211	69.9448	36.6211	73.1129	36.6211	69.8983	36.6211	73.0942	36.6211	69.8825	36.6211	73.0036	36.6211	69.8981	36.6211	72.8477	36.6211	69.946	36.6211	72.6372	36.6211	70.0273	36.6211	72.385	36.6211	70.143	36.6211	72.1048	36.6211	70.2939	36.6211	71.8096	36.6211	70.4796	36.6211	71.5114	36.6211	70.6987	36.6211	71.2211	36.6211	70.9477
38.0859	72.8252	38.0859	72.5632	38.0859	73.0985	38.0859	72.3191	38.0859	73.3741	38.0859	72.0977	38.0859	73.6412	38.0859	71.9021	38.0859	73.8874	38.0859	71.7339	38.0859	74.0995	38.0859	71.5941	38.0859	74.2644	38.0859	71.483	38.0859	74.3708	38.0859	71.4006	38.0859	74.4107	38.0859	71.3473	38.0859	74.3805	38.0859	71.3232	38.0859	74.2817	38.0859	71.3289	38.0859	74.1211	38.0859	71.3653	38.0859	73.909	38.0859	71.4333	38.0859	73.6584	38.0859	71.5343	38.0859	73.3828	38.0859	71.669	38.0859	73.0952	38.0859	71.8377	38.0859	72.8074	38.0859	72.0395	38.0859	72.5301	38.0859	72.2718
39.5508	74.1338	39.5508	73.8826	39.5508	74.3953	39.5508	73.6482	39.5508	74.6585	39.5508	73.4352	39.5508	74.9131	39.5508	73.2466	39.5508	75.1472	39.5508	73.0842	39.5508	75.3481	39.5508	72.9491	39.5508	75.5035	39.5508	72.8416	39.5508	75.6027	39.5508	72.7619	39.5508	75.6382	39.5508	72.7103	39.5508	75.6068	39.5508	72.687	39.5508	75.5103	39.5508	72.6925	39.5508	75.3552	39.5508	72.7275	39.5508	75.1518	39.5508	72.7927	39.5508	74.9121	39.5508	72.8893	39.5508	74.6492	39.5508	73.0179	39.5508	74.3752	39.5508	73.1788	39.5508	74.1014	39.5508	73.3709	39.5508	73.8376	39.5508	73.592
41.0156	75.4063	41.0156	75.161	41.0156	75.6595	41.0156	74.93	41.0156	75.9123	41.0156	74.7183	41.0156	76.1547	41.0156	74.5289	41.0156	76.3755	41.0156	74.3641	41.0156	76.5627	41.0156	74.2252	41.0156	76.7047	41.0156	74.1128	41.0156	76.7914	41.0156	74.0275	41.0156	76.816	41.0156	73.9695	41.0156	76.7756	41.0156	73.9392	41.0156	76.6722	41.0156	73.9371	41.0156	76.5124	41.0156	73.9637	41.0156	76.3062	41.0156	74.02	41.0156	76.0659	41.0156	74.107	41.0156	75.8041	41.0156	74.2256	41.0156	75.5332	41.0156	74.3761	41.0156	75.2644	41.0156	74.5582	41.0156	75.0072	41.0156	74.7699
42.4805	76.6918	42.4805	76.4526	42.4805	76.9371	42.4805	76.226	42.4805	77.1807	42.4805	76.0168	42.4805	77.4128	42.4805	75.8284	42.4805	77.6229	42.4805	75.6633	42.4805	77.7997	42.4805	75.5231	42.4805	77.9321	42.4805	75.4087	42.4805	78.0109	42.4805	75.3208	42.4805	78.0297	42.4805	75.2599	42.4805	77.9859	42.4805	75.2265	42.4805	77.8815	42.4805	75.221	42.4805	77.7231	42.4805	75.244	42.4805	77.5202	42.4805	75.2964	42.4805	77.2845	42.4805	75.379	42.4805	77.0284	42.4805	75.4927	42.4805	76.7636	42.4805	75.6379	42.4805	76.5012	42.4805	75.8142	42.4805	76.2506	42.4805	76.0196
43.9453	77.8557	43.9453	77.6199	43.9453	78.0959	43.9453	77.3949	43.9453	78.3326	43.9453	77.1854	43.9453	78.5566	43.9453	76.9954	43.9453	78.7578	43.9453	76.8274	43.9453	78.9257	43.9453	76.6836	43.9453	79.0499	43.9453	76.5651	43.9453	79.1219	43.9453	76.4732	43.9453	79.1357	43.9453	76.4084	43.9453	79.0892	43.9453	76.3714	43.9453	78.9845	43.9453	76.3629	43.9453	78.8278	43.9453	76.3835	43.9453	78.6282	43.9453	76.4339	43.9453	78.3969	43.9453	76.515	43.9453	78.1454	43.9453	76.6275	43.9453	77.885	43.9453	76.7716	43.9453	77.6265	43.9453	76.9466	43.9453	77.379	43.9453	77.1504
45.4102	78.9392	45.4102	78.7097	45.4102	79.1714	45.4102	78.4893	45.4102	79.3989	45.4102	78.283	45.4102	79.6126	45.4102	78.0947	45.4102	79.803	45.4102	77.9272	45.4102	79.9599	45.4102	77.7829	45.4102	80.0737	45.4102	77.6633	45.4102	80.1363	45.4102	77.5696	45.4102	80.1424	45.4102	77.5026	45.4102	80.0901	45.4102	77.4629	45.4102	79.9819	45.4102	77.4511	45.4102	79.8239	45.4102	77.4677	45.4102	79.6252	45.4102	77.5132	45.4102	79.3969	45.4102	77.5884	45.4102	79.1503	45.4102	77.6937	45.4102	78.8966	45.4102	77.8294	45.4102	78.6462	45.4102	77.9951	45.4102	78.4079	45.4102	78.1891
46.875	79.9249	46.875	79.7048	46.875	80.1471	46.875	79.4929	46.875	80.3641	46.875	79.2941	46.875	80.5676	46.875	79.1121	46.875	80.7482	46.875	78.9499	46.875	80.8965	46.875	78.8098	46.875	81.0034	46.875	78.6935	46.875	81.0615	46.875	78.6021	46.875	81.0656	46.875	78.5367	46.875	81.0144	46.875	78.4978	46.875	80.9102	46.875	78.4859	46.875	80.7589	46.875	78.5016	46.875	80.5691	46.875	78.5454	46.875	80.3511	46.875	78.6177	46.875	80.1156	46.875	78.7191	46.875	79.8732	46.875	78.8497	46.875	79.6335	46.875	79.009	46.875	79.4052	46.875	79.1953
48.3398	80.745	48.3398	80.5297	48.3398	80.9618	48.3398	80.322	48.3398	81.1728	48.3398	80.1269	48.3398	81.3698	48.3398	79.9484	48.3398	81.5439	48.3398	79.7895	48.3398	81.6859	48.3398	79.6527	48.3398	81.7873	48.3398	79.5398	48.3398	81.8412	48.3398	79.4519	48.3398	81.8431	48.3398	79.39	48.3398	81.792	48.3398	79.3545	48.3398	81.6905	48.3398	79.3458	48.3398	81.5444	48.3398	79.3641	48.3398	81.3621	48.3398	79.4096	48.3398	81.1535	48.3398	79.4826	48.3398	80.9285	48.3398	79.5833	48.3398	80.6969	48.3398	79.7115	48.3398	80.4677	48.3398	79.8666	48.3398	80.2488	48.3398	80.0468
51.2695	82.1259	51.2695	81.9183	51.2695	82.3328	51.2695	81.7163	51.2695	82.532	51.2695	81.5249	51.2695	82.7156	51.2695	81.3486	51.2695	82.8754	51.2695	81.1907	51.2695	83.003	51.2695	81.0541	51.2695	83.0908	51.2695	80.9407	51.2695	83.1327	51.2695	80.852	51.2695	83.1251	51.2695	80.7889	51.2695	83.0676	51.2695	80.7517	51.2695	82.9631	51.2695	80.7407	51.2695	82.8177	51.2695	80.7558	51.2695	82.6395	51.2695	80.797	51.2695	82.4378	51.2695	80.8643	51.2695	82.2223	51.2695	80.9576	51.2695	82.0019	51.2695	81.0769	51.2695	81.7851	51.2695	81.2214	51.2695	81.5791	51.2695	81.3897
52.7344	82.6404	52.7344	82.4364	52.7344	82.8419	52.7344	82.2362	52.7344	83.0342	52.7344	82.0451	52.7344	83.2096	52.7344	81.8676	52.7344	83.3601	52.7344	81.7073	52.7344	83.478	52.7344	81.5675	52.7344	83.556	52.7344	81.4502	52.7344	83.5886	52.7344	81.3572	52.7344	83.5726	52.7344	81.2896	52.7344	83.5079	52.7344	81.2478	52.7344	83.3978	52.7344	81.2321	52.7344	83.2486	52.7344	81.2425	52.7344	83.0686	52.7344	81.2788	52.7344	82.8671	52.7344	81.3409	52.7344	82.6536	52.7344	81.4288	52.7344	82.437	52.7344	81.5421	52.7344	82.2252	52.7344	81.6803	52.7344	82.0251	52.7344	81.8422
54.1992	83.0363	54.1992	82.8374	54.1992	83.2317	54.1992	82.6408	54.1992	83.4167	54.1992	82.452	54.1992	83.5842	54.1992	82.2754	54.1992	83.7265	54.1992	82.115	54.1992	83.836	54.1992	81.9739	54.1992	83.9059	54.1992	81.8547	54.1992	83.9312	54.1992	81.7593	54.1992	83.9091	54.1992	81.6889	54.1992	83.8398	54.1992	81.6441	54.1992	83.7269	54.1992	81.6252	54.1992	83.5769	54.1992	81.6321	54.1992	83.398	54.1992	81.6647	54.1992	83.1995	54.1992	81.7227	54.1992	82.9903	54.1992	81.8061	54.1992	82.7791	54.1992	81.9144	54.1992	82.5734	54.1992	82.0471	54.1992	82.3796	54.1992	82.2029
55.6641	83.1999	55.6641	83.0006	55.6641	83.3959	55.6641	82.8041	55.6641	83.582	55.6641	82.6158	55.6641	83.7506	55.6641	82.4403	55.6641	83.8941	55.6641	82.2813	55.6641	84.0049	55.6641	82.1422	55.6641	84.0762	55.6641	82.0253	55.6641	84.1032	55.6641	81.9326	55.6641	84.0832	55.6641	81.8653	55.6641	84.0166	55.6641	81.824	55.6641	83.9071	55.6641	81.8088	55.6641	83.761	55.6641	81.8198	55.6641	83.5864	55.6641	81.8566	55.6641	83.3923	55.6641	81.9187	55.6641	83.1874	55.6641	82.0058	55.6641	82.9799	55.6641	82.1171	55.6641	82.7771	55.6641	82.252	55.6641	82.5851	55.6641	82.4088
58.5938	83.4916	58.5938	83.288	58.5938	83.6884	58.5938	83.0838	58.5938	83.8714	58.5938	82.8848	58.5938	84.0336	58.5938	82.6962	58.5938	84.1674	58.5938	82.5226	58.5938	84.2656	58.5938	82.3682	58.5938	84.3218	58.5938	82.2362	58.5938	84.3314	58.5938	82.1292	58.5938	84.2923	58.5938	82.049	58.5938	84.2056	58.5938	81.9966	58.5938	84.0756	58.5938	81.9723	58.5938	83.9099	58.5938	81.9757	58.5938	83.7176	58.5938	82.0062	58.5938	83.5091	58.5938	82.0625	58.5938	83.2944	58.5938	82.1435	58.5938	83.0823	58.5938	82.248	58.5938	82.88	58.5938	82.375	58.5938	82.6926	58.5938	82.5237
60.0586	83.6026	60.0586	83.4044	60.0586	83.793	60.0586	83.2048	60.0586	83.9693	60.0586	83.0092	60.0586	84.1244	60.0586	82.823	60.0586	84.2512	60.0586	82.6505	60.0586	84.3427	60.0586	82.4959	60.0586	84.393	60.0586	82.3623	60.0586	84.3975	60.0586	82.2522	60.0586	84.3542	60.0586	82.1674	60.0586	84.2642	60.0586	82.1088	60.0586	84.1315	60.0586	82.0769	60.0586	83.9631	60.0586	82.0715	60.0586	83.768	60.0586	82.0921	60.0586	83.5564	60.0586	82.1382	60.0586	83.3384	60.0586	82.2091	60.0586	83.1236	60.0586	82.3043	60.0586	82.9198	60.0586	82.4237	60.0586	82.7329	60.0586	82.5669
62.9883	83.5882	62.9883	83.3935	62.9883	83.775	62.9883	83.1974	62.9883	83.9474	62.9883	83.0057	62.9883	84.0984	62.9883	82.8238	62.9883	84.2209	62.9883	82.6565	62.9883	84.3084	62.9883	82.5078	62.9883	84.3555	62.9883	82.3811	62.9883	84.3585	62.9883	82.2787	62.9883	84.316	62.9883	82.2021	62.9883	84.2296	62.9883	82.152	62.9883	84.1037	62.9883	82.1284	62.9883	83.9451	62.9883	82.1308	62.9883	83.7623	62.9883	82.158	62.9883	83.5645	62.9883	82.209	62.9883	83.361	62.9883	82.2829	62.9883	83.1602	62.9883	82.3787	62.9883	82.9689	62.9883	82.496	62.9883	82.7925	62.9883	82.6342
64.4531	83.5343	64.4531	83.3406	64.4531	83.7198	64.4531	83.1451	64.4531	83.8903	64.4531	82.9539	64.4531	84.0387	64.4531	82.7727	64.4531	84.1582	64.4531	82.6064	64.4531	84.2426	64.4531	82.4591	64.4531	84.2868	64.4531	82.3342	64.4531	84.2877	64.4531	82.2341	64.4531	84.2445	64.4531	82.1603	64.4531	84.1591	64.4531	82.1133	64.4531	84.0359	64.4531	82.0929	64.4531	83.8816	64.4531	82.0982	64.4531	83.7043	64.4531	82.1282	64.4531	83.5126	64.4531	82.1814	64.4531	83.3153	64.4531	82.2566	64.4531	83.1202	64.4531	82.3528	64.4531	82.9339	64.4531	82.4695	64.4531	82.7614	64.4531	82.606
67.3828	83.3561	67.3828	83.1618	67.3828	83.5416	67.3828	82.9654	67.3828	83.7113	67.3828	82.7734	67.3828	83.8582	67.3828	82.5918	67.3828	83.9759	67.3828	82.4256	67.3828	84.0585	67.3828	82.2794	67.3828	84.1014	67.3828	82.1566	67.3828	84.1019	67.3828	82.0596	67.3828	84.0595	67.3828	81.9897	67.3828	83.9761	67.3828	81.9472	67.3828	83.8563	67.3828	81.9316	67.3828	83.7063	67.3828	81.9417	67.3828	83.534	67.3828	81.976	67.3828	83.3476	67.3828	82.0328	67.3828	83.1554	67.3828	82.1106	67.3828	82.965	67.3828	82.2083	67.3828	82.7828	67.3828	82.3251	67.3828	82.6136	67.3828	82.4605
