"SPL Vertical"
"On-Axis"		"10°"		"-10°"		"20°"		"-20°"		"30°"		"-30°"		"40°"		"-40°"		"50°"		"-50°"		"60°"		"-60°"		"70°"		"-70°"		"80°"		"-80°"		"90°"		"-90°"		"100°"		"-100°"		"110°"		"-110°"		"120°"		"-120°"		"130°"		"-130°"		"140°"		"-140°"		"150°"		"-150°"		"160°"		"-160°"		"170°"		"-170°"		"180°"
"Frequency / Hz"	"Sound Pressure Level / dB (re 20 µPa/V)  [2.83  V @ 1. m]"	"Frequency / Hz"	"Sound Pressure Level / dB (re 20 µPa/V)  [2.83  V @ 1. m]"	"Frequency / Hz"	"Sound Pressure Level / dB (re 20 µPa/V)  [2.83  V @ 1. m]"	"Frequency / Hz"	"Sound Pressure Level / dB (re 20 µPa/V)  [2.83  V @ 1. m]"	"Frequency / Hz"	"Sound Pressure Level / dB (re 20 µPa/V)  [2.83  V @ 1. m]"	"Frequency / Hz"	"Sound Pressure Level / dB (re 20 µPa/V)  [2.83  V @ 1. m]"	"Frequency / Hz"	"Sound Pressure Level / dB (re 20 µPa/V)  [2.83  V @ 1. m]"	"Frequency / Hz"	"Sound Pressure Level / dB (re 20 µPa/V)  [2.83  V @ 1. m]"	"Frequency / Hz"	"Sound Pressure Level / dB (re 20 µPa/V)  [2.83  V @ 1. m]"	"Frequency / Hz"	"Sound Pressure Level / dB (re 20 µPa/V)  [2.83  V @ 1. m]"	"Frequency / Hz"	"Sound Pressure Level / dB (re 20 µPa/V)  [2.83  V @ 1. m]"	"Frequency / Hz"	"Sound Pressure Level / dB (re 20 µPa/V)  [2.83  V @ 1. m]"	"Frequency / Hz"	"Sound Pressure Level / dB (re 20 µPa/V)  [2.83  V @ 1. m]"	"Frequency / Hz"	"Sound Pressure Level / dB (re 20 µPa/V)  [2.83  V @ 1. m]"	"Frequency / Hz"	"Sound Pressure Level / dB (re 20 µPa/V)  [2.83  V @ 1. m]"	"Frequency / Hz"	"Sound Pressure Level / dB (re 20 µPa/V)  [2.83  V @ 1. m]"	"Frequency / Hz"	"Sound Pressure Level / dB (re 20 µPa/V)  [2.83  V @ 1. m]"	"Frequency / Hz"	"Sound Pressure Level / dB (re 20 µPa/V)  [2.83  V @ 1. m]"	"Frequency / Hz"	"Sound Pressure Level / dB (re 20 µPa/V)  [2.83  V @ 1. m]"	"Frequency / Hz"	"Sound Pressure Level / dB (re 20 µPa/V)  [2.83  V @ 1. m]"	"Frequency / Hz"	"Sound Pressure Level / dB (re 20 µPa/V)  [2.83  V @ 1. m]"	"Frequency / Hz"	"Sound Pressure Level / dB (re 20 µPa/V)  [2.83  V @ 1. m]"	"Frequency / Hz"	"Sound Pressure Level / dB (re 20 µPa/V)  [2.83  V @ 1. m]"	"Frequency / Hz"	"Sound Pressure Level / dB (re 20 µPa/V)  [2.83  V @ 1. m]"	"Frequency / Hz"	"Sound Pressure Level / dB (re 20 µPa/V)  [2.83  V @ 1. m]"	"Frequency / Hz"	"Sound Pressure Level / dB (re 20 µPa/V)  [2.83  V @ 1. m]"	"Frequency / Hz"	"Sound Pressure Level / dB (re 20 µPa/V)  [2.83  V @ 1. m]"	"Frequency / Hz"	"Sound Pressure Level / dB (re 20 µPa/V)  [2.83  V @ 1. m]"	"Frequency / Hz"	"Sound Pressure Level / dB (re 20 µPa/V)  [2.83  V @ 1. m]"	"Frequency / Hz"	"Sound Pressure Level / dB (re 20 µPa/V)  [2.83  V @ 1. m]"	"Frequency / Hz"	"Sound Pressure Level / dB (re 20 µPa/V)  [2.83  V @ 1. m]"	"Frequency / Hz"	"Sound Pressure Level / dB (re 20 µPa/V)  [2.83  V @ 1. m]"	"Frequency / Hz"	"Sound Pressure Level / dB (re 20 µPa/V)  [2.83  V @ 1. m]"	"Frequency / Hz"	"Sound Pressure Level / dB (re 20 µPa/V)  [2.83  V @ 1. m]"	"Frequency / Hz"	"Sound Pressure Level / dB (re 20 µPa/V)  [2.83  V @ 1. m]"	"Frequency / Hz"	"Sound Pressure Level / dB (re 20 µPa/V)  [2.83  V @ 1. m]"
20.5078	48.228	20.5078	48.1303	20.5078	48.2511	20.5078	47.9652	20.5078	48.1942	20.5078	47.7411	20.5078	48.0545	20.5078	47.4673	20.5078	47.8318	20.5078	47.1529	20.5078	47.5286	20.5078	46.8065	20.5078	47.1506	20.5078	46.4365	20.5078	46.7067	20.5078	46.0509	20.5078	46.2099	20.5078	45.6577	20.5078	45.6782	20.5078	45.2655	20.5078	45.135	20.5078	44.8837	20.5078	44.6089	20.5078	44.5219	20.5078	44.1309	20.5078	44.1895	20.5078	43.7299	20.5078	43.8943	20.5078	43.4262	20.5078	43.6417	20.5078	43.2272	20.5078	43.4347	20.5078	43.1271	20.5078	43.2749	20.5078	43.1116	20.5078	43.1649
21.9727	43.4692	21.9727	43.3646	21.9727	43.5374	21.9727	43.2385	21.9727	43.5559	21.9727	43.1051	21.9727	43.5149	21.9727	42.9771	21.9727	43.4095	21.9727	42.8647	21.9727	43.2418	21.9727	42.7755	21.9727	43.0213	21.9727	42.7143	21.9727	42.7654	21.9727	42.6832	21.9727	42.4992	21.9727	42.6823	21.9727	42.2536	21.9727	42.7091	21.9727	42.0621	21.9727	42.7591	21.9727	41.954	21.9727	42.8256	21.9727	41.946	21.9727	42.8994	21.9727	42.0359	21.9727	42.9689	21.9727	42.2018	21.9727	43.0208	21.9727	42.4087	21.9727	43.0408	21.9727	42.6191	21.9727	43.0159	21.9727	42.8019	21.9727	42.9369
23.4375	43.9933	23.4375	44.0176	23.4375	43.9318	23.4375	44.0186	23.4375	43.8227	23.4375	44.0119	23.4375	43.6605	23.4375	44.0136	23.4375	43.4459	23.4375	44.0377	23.4375	43.188	23.4375	44.0951	23.4375	42.9065	23.4375	44.1918	23.4375	42.6337	23.4375	44.3288	23.4375	42.4146	23.4375	44.5019	23.4375	42.3016	23.4375	44.7024	23.4375	42.3399	23.4375	44.9178	23.4375	42.5491	23.4375	45.1329	23.4375	42.9119	23.4375	45.3302	23.4375	43.3796	23.4375	45.4916	23.4375	43.8905	23.4375	45.5986	23.4375	44.3873	23.4375	45.6338	23.4375	44.8262	23.4375	45.582	23.4375	45.1792	23.4375	45.4322
24.9023	20.4924	24.9023	25.3348	24.9023	14.9765	24.9023	29.2283	24.9023	11.5593	24.9023	32.3789	24.9023	14.008	24.9023	34.9801	24.9023	19.7298	24.9023	37.1701	24.9023	25.1158	24.9023	39.0444	24.9023	29.5221	24.9023	40.6699	24.9023	33.1167	24.9023	42.0931	24.9023	36.0969	24.9023	43.3462	24.9023	38.6027	24.9023	44.4506	24.9023	40.7272	24.9023	45.4194	24.9023	42.5315	24.9023	46.2592	24.9023	44.0559	24.9023	46.971	24.9023	45.3273	24.9023	47.5518	24.9023	46.364	24.9023	47.9948	24.9023	47.1792	24.9023	48.2908	24.9023	47.7833	24.9023	48.429	24.9023	48.1863	24.9023	48.3979
26.3672	41.2753	26.3672	40.3049	26.3672	41.9084	26.3672	38.9181	26.3672	42.2388	26.3672	36.951	26.3672	42.2724	26.3672	34.0341	26.3672	41.9899	26.3672	29.1148	26.3672	41.3425	26.3672	18.0117	26.3672	40.2363	26.3672	26.8791	26.3672	38.4939	26.3672	33.5163	26.3672	35.7602	26.3672	37.348	26.3672	31.3597	26.3672	40.0113	26.3672	27.6475	26.3672	42.013	26.3672	32.9635	26.3672	43.5679	26.3672	37.6638	26.3672	44.7813	26.3672	40.807	26.3672	45.7074	26.3672	43.013	26.3672	46.3724	26.3672	44.5913	26.3672	46.785	26.3672	45.7002	26.3672	46.9421	26.3672	46.4285	26.3672	46.8308
27.832	44.9613	27.832	44.3148	27.832	45.3536	27.832	43.3967	27.832	45.4972	27.832	42.1845	27.832	45.3839	27.832	40.6807	27.832	44.9898	27.832	39.0285	27.832	44.2738	27.832	37.8157	27.832	43.1767	27.832	38.0579	27.832	41.6417	27.832	39.7637	27.832	39.7442	27.832	41.9191	27.832	38.2301	27.832	43.931	27.832	38.7805	27.832	45.6541	27.832	41.156	27.832	47.086	27.832	43.7005	27.832	48.2505	27.832	45.8217	27.832	49.168	27.832	47.4774	27.832	49.8503	27.832	48.7231	27.832	50.3004	27.832	49.6134	27.832	50.5147	27.832	50.19	27.832	50.4831
29.2969	47.9584	29.2969	47.3229	29.2969	48.3634	29.2969	46.4578	29.2969	48.5368	29.2969	45.3794	29.2969	48.4712	29.2969	44.1638	29.2969	48.1516	29.2969	43.0478	29.2969	47.5552	29.2969	42.5196	29.2969	46.6594	29.2969	43.0244	29.2969	45.4722	29.2969	44.3869	29.2969	44.1405	29.2969	46.0659	29.2969	43.1955	29.2969	47.7025	29.2969	43.4927	29.2969	49.1599	29.2969	45.0625	29.2969	50.4033	29.2969	47.0485	29.2969	51.43	29.2969	48.8832	29.2969	52.2438	29.2969	50.3989	29.2969	52.8462	29.2969	51.5796	29.2969	53.2346	29.2969	52.4461	29.2969	53.4017	29.2969	53.0242	29.2969	53.3365
30.7617	50.7726	30.7617	50.2467	30.7617	51.124	30.7617	49.5683	30.7617	51.2889	30.7617	48.7858	30.7617	51.2583	30.7617	48.0036	30.7617	51.0248	30.7617	47.4149	30.7617	50.5861	30.7617	47.276	30.7617	49.9585	30.7617	47.7443	30.7617	49.2101	30.7617	48.7257	30.7617	48.5225	30.7617	49.9716	30.7617	48.2315	30.7617	51.2659	30.7617	48.6564	30.7617	52.4841	30.7617	49.7534	30.7617	53.5676	30.7617	51.1643	30.7617	54.4902	30.7617	52.5675	30.7617	55.239	30.7617	53.7981	30.7617	55.8049	30.7617	54.7949	30.7617	56.179	30.7617	55.5427	30.7617	56.3511	30.7617	56.0447	30.7617	56.3103
32.2266	53.4234	32.2266	53.0439	32.2266	53.6669	32.2266	52.5524	32.2266	53.7592	32.2266	51.9919	32.2266	53.6895	32.2266	51.4385	32.2266	53.4501	32.2266	51.0133	32.2266	53.0399	32.2266	50.8677	32.2266	52.4766	32.2266	51.1163	32.2266	51.8228	32.2266	51.7565	32.2266	51.2297	32.2266	52.6704	32.2266	50.9595	32.2266	53.7059	32.2266	51.2682	32.2266	54.7418	32.2266	52.1623	32.2266	55.7014	32.2266	53.3845	32.2266	56.5402	32.2266	54.6541	32.2266	57.2319	32.2266	55.8	32.2266	57.7587	32.2266	56.7456	32.2266	58.1065	32.2266	57.4642	32.2266	58.2627	32.2266	57.9522	32.2266	58.2151
33.6914	55.6295	33.6914	55.2756	33.6914	55.8743	33.6914	54.8433	33.6914	55.992	33.6914	54.3831	33.6914	55.9719	33.6914	53.9746	33.6914	55.8105	33.6914	53.7264	33.6914	55.5159	33.6914	53.7503	33.6914	55.118	33.6914	54.1077	33.6914	54.6881	33.6914	54.7693	33.6914	54.3596	33.6914	55.6351	33.6914	54.3164	33.6914	56.5894	33.6914	54.7005	33.6914	57.5394	33.6914	55.4936	33.6914	58.4224	33.6914	56.5279	33.6914	59.1988	33.6914	57.6118	33.6914	59.843	33.6914	58.61	33.6914	60.3365	33.6914	59.4491	33.6914	60.6647	33.6914	60.0955	33.6914	60.8148	33.6914	60.5377	33.6914	60.7755
35.1562	57.5789	35.1562	57.2678	35.1562	57.7964	35.1562	56.8962	35.1562	57.9	35.1562	56.5157	35.1562	57.8784	35.1562	56.2021	35.1562	57.7286	35.1562	56.0496	35.1562	57.4607	35.1562	56.1461	35.1562	57.1078	35.1562	56.5314	35.1562	56.7431	35.1562	57.1739	35.1562	56.4941	35.1562	57.9893	35.1562	56.5235	35.1562	58.8815	35.1562	56.9448	35.1562	59.7708	35.1562	57.7291	35.1562	60.6007	35.1562	58.7252	35.1562	61.3334	35.1562	59.7632	35.1562	61.9431	35.1562	60.7207	35.1562	62.4107	35.1562	61.5284	35.1562	62.7207	35.1562	62.1534	35.1562	62.8599	35.1562	62.5833	35.1562	62.817
36.6211	59.7537	36.6211	59.485	36.6211	59.945	36.6211	59.1729	36.6211	60.037	36.6211	58.8681	36.6211	60.0179	36.6211	58.639	36.6211	59.8855	36.6211	58.5644	36.6211	59.6515	36.6211	58.7108	36.6211	59.3507	36.6211	59.1032	36.6211	59.0543	36.6211	59.712	36.6211	58.8777	36.6211	60.4684	36.6211	58.9584	36.6211	61.2936	36.6211	59.3851	36.6211	62.1194	36.6211	60.1295	36.6211	62.8948	36.6211	61.064	36.6211	63.5833	36.6211	62.0412	36.6211	64.1587	36.6211	62.95	36.6211	64.6008	36.6211	63.7231	36.6211	64.8931	36.6211	64.3261	36.6211	65.0216	36.6211	64.7443	36.6211	64.9748
38.0859	61.4915	38.0859	61.2926	38.0859	61.6445	38.0859	61.0823	38.0859	61.729	38.0859	60.9079	38.0859	61.733	38.0859	60.8263	38.0859	61.6565	38.0859	60.8938	38.0859	61.5145	38.0859	61.1486	38.0859	61.3441	38.0859	61.5953	38.0859	61.2113	38.0859	62.2027	38.0859	61.2086	38.0859	62.9167	38.0859	61.4292	38.0859	63.6783	38.0859	61.9184	38.0859	64.435	38.0859	62.6407	38.0859	65.1456	38.0859	63.499	38.0859	65.7785	38.0859	64.3835	38.0859	66.3092	38.0859	65.2067	38.0859	66.718	38.0859	65.9113	38.0859	66.9887	38.0859	66.4644	38.0859	67.1076	38.0859	66.8502	38.0859	67.0638
39.5508	63.8487	39.5508	63.718	39.5508	63.9561	39.5508	63.5917	39.5508	64.021	39.5508	63.5049	39.5508	64.0334	39.5508	63.497	39.5508	63.9937	39.5508	63.6043	39.5508	63.916	39.5508	63.8508	39.5508	63.8319	39.5508	64.24	39.5508	63.793	39.5508	64.7535	39.5508	63.8661	39.5508	65.3564	39.5508	64.1133	39.5508	66.007	39.5508	64.5631	39.5508	66.6642	39.5508	65.1908	39.5508	67.2921	39.5508	65.9284	39.5508	67.8603	39.5508	66.6936	39.5508	68.3437	39.5508	67.4139	39.5508	68.7214	39.5508	68.0368	39.5508	68.9757	39.5508	68.5291	39.5508	69.0922	39.5508	68.8725	39.5508	69.06
41.0156	65.7875	41.0156	65.6718	41.0156	65.882	41.0156	65.5598	41.0156	65.9378	41.0156	65.4827	41.0156	65.9457	41.0156	65.4751	41.0156	65.9065	41.0156	65.5694	41.0156	65.833	41.0156	65.7879	41.0156	65.7541	41.0156	66.1361	41.0156	65.7167	41.0156	66.6005	41.0156	65.7805	41.0156	67.1524	41.0156	66.002	41.0156	67.7547	41.0156	66.4091	41.0156	68.3694	41.0156	66.9834	41.0156	68.9615	41.0156	67.6664	41.0156	69.501	41.0156	68.383	41.0156	69.9621	41.0156	69.0643	41.0156	70.3232	41.0156	69.6582	41.0156	70.5664	41.0156	70.1306	41.0156	70.677	41.0156	70.4621	41.0156	70.6443
42.4805	67.7858	42.4805	67.6829	42.4805	67.87	42.4805	67.5817	42.4805	67.9216	42.4805	67.5083	42.4805	67.9337	42.4805	67.4922	42.4805	67.9079	42.4805	67.562	42.4805	67.8561	42.4805	67.7397	42.4805	67.8031	42.4805	68.0342	42.4805	67.7876	42.4805	68.4382	42.4805	67.8582	42.4805	68.9298	42.4805	68.0608	42.4805	69.4776	42.4805	68.4201	42.4805	70.0466	42.4805	68.925	42.4805	70.6028	42.4805	69.5302	42.4805	71.1158	42.4805	70.1731	42.4805	71.559	42.4805	70.7917	42.4805	71.9099	42.4805	71.3361	42.4805	72.1497	42.4805	71.7714	42.4805	72.2636	42.4805	72.0764	42.4805	72.2409
43.9453	69.1918	43.9453	69.0922	43.9453	69.278	43.9453	68.9989	43.9453	69.3376	43.9453	68.9366	43.9453	69.3643	43.9453	68.933	43.9453	69.3599	43.9453	69.0144	43.9453	69.3359	43.9453	69.2003	43.9453	69.3154	43.9453	69.4977	43.9453	69.3331	43.9453	69.8988	43.9453	69.4315	43.9453	70.3825	43.9453	69.6493	43.9453	70.9187	43.9453	70.0064	43.9453	71.4745	43.9453	70.4924	43.9453	72.0177	43.9453	71.0674	43.9453	72.519	43.9453	71.6758	43.9453	72.9528	43.9453	72.2613	43.9453	73.2974	43.9453	72.7774	43.9453	73.5345	43.9453	73.1903	43.9453	73.6496	43.9453	73.4789	43.9453	73.6326
45.4102	70.4143	45.4102	70.3311	45.4102	70.4977	45.4102	70.2663	45.4102	70.5683	45.4102	70.242	45.4102	70.6194	45.4102	70.2812	45.4102	70.6519	45.4102	70.4045	45.4102	70.6753	45.4102	70.6253	45.4102	70.7093	45.4102	70.946	45.4102	70.7829	45.4102	71.3568	45.4102	70.9303	45.4102	71.8377	45.4102	71.1815	45.4102	72.3619	45.4102	71.5505	45.4102	72.9001	45.4102	72.0267	45.4102	73.4238	45.4102	72.576	45.4102	73.9063	45.4102	73.1508	45.4102	74.3242	45.4102	73.7019	45.4102	74.6569	45.4102	74.1872	45.4102	74.8871	45.4102	74.5754	45.4102	75.0009	45.4102	74.846	45.4102	74.9886
46.875	72.1113	46.875	72.0454	46.875	72.1811	46.875	71.9979	46.875	72.2444	46.875	71.9858	46.875	72.2952	46.875	72.0271	46.875	72.3336	46.875	72.1383	46.875	72.3667	46.875	72.3307	46.875	72.4095	46.875	72.6079	46.875	72.4848	46.875	72.964	46.875	72.6201	46.875	73.3844	46.875	72.8407	46.875	73.8478	46.875	73.1604	46.875	74.3293	46.875	73.5739	46.875	74.8028	46.875	74.0557	46.875	75.2435	46.875	74.5666	46.875	75.6281	46.875	75.0629	46.875	75.9362	46.875	75.5049	46.875	76.1502	46.875	75.8618	46.875	76.2562	46.875	76.1122	46.875	76.2448
48.3398	73.5372	48.3398	73.4673	48.3398	73.6056	48.3398	73.4098	48.3398	73.6621	48.3398	73.382	48.3398	73.7018	48.3398	73.4024	48.3398	73.7253	48.3398	73.4881	48.3398	73.7403	48.3398	73.6518	48.3398	73.7622	48.3398	73.8985	48.3398	73.8139	48.3398	74.2241	48.3398	73.9228	48.3398	74.6154	48.3398	74.1143	48.3398	75.0521	48.3398	74.4031	48.3398	75.5099	48.3398	74.7856	48.3398	75.9631	48.3398	75.2385	48.3398	76.3868	48.3398	75.7242	48.3398	76.7576	48.3398	76.2002	48.3398	77.0549	48.3398	76.6271	48.3398	77.2611	48.3398	76.9737	48.3398	77.3622	48.3398	77.2184	48.3398	77.3491
51.2695	76.2276	51.2695	76.1812	51.2695	76.282	51.2695	76.1529	51.2695	76.3369	51.2695	76.1547	51.2695	76.3884	51.2695	76.199	51.2695	76.4368	51.2695	76.2969	51.2695	76.4874	51.2695	76.4564	51.2695	76.5508	51.2695	76.6805	51.2695	76.6422	51.2695	76.9664	51.2695	76.7791	51.2695	77.3048	51.2695	76.9773	51.2695	77.6814	51.2695	77.2455	51.2695	78.0778	51.2695	77.5806	51.2695	78.4734	51.2695	77.9661	51.2695	78.8469	51.2695	78.3749	51.2695	79.1778	51.2695	78.7748	51.2695	79.4467	51.2695	79.1338	51.2695	79.637	51.2695	79.4252	51.2695	79.7356	51.2695	79.6291	51.2695	79.7339
52.7344	77.5114	52.7344	77.4688	52.7344	77.5619	52.7344	77.4423	52.7344	77.6141	52.7344	77.4419	52.7344	77.665	52.7344	77.4781	52.7344	77.7149	52.7344	77.5611	52.7344	77.7682	52.7344	77.6986	52.7344	77.8337	52.7344	77.8948	52.7344	77.9241	52.7344	78.1487	52.7344	78.0546	52.7344	78.4536	52.7344	78.2386	52.7344	78.7976	52.7344	78.4843	52.7344	79.1643	52.7344	78.7896	52.7344	79.5347	52.7344	79.1409	52.7344	79.8883	52.7344	79.5145	52.7344	80.2046	52.7344	79.8812	52.7344	80.4644	52.7344	80.2112	52.7344	80.6512	52.7344	80.4788	52.7344	80.7515	52.7344	80.6646	52.7344	80.7569
54.1992	78.6096	54.1992	78.5667	54.1992	78.6618	54.1992	78.5408	54.1992	78.7177	54.1992	78.541	54.1992	78.7743	54.1992	78.577	54.1992	78.8321	54.1992	78.6581	54.1992	78.8946	54.1992	78.7914	54.1992	78.9696	54.1992	78.9806	54.1992	79.0678	54.1992	79.2244	54.1992	79.202	54.1992	79.5167	54.1992	79.3838	54.1992	79.8462	54.1992	79.6199	54.1992	80.1977	54.1992	79.9084	54.1992	80.5531	54.1992	80.2375	54.1992	80.893	54.1992	80.5862	54.1992	81.198	54.1992	80.9281	54.1992	81.4495	54.1992	81.2358	54.1992	81.6316	54.1992	81.485	54.1992	81.7313	54.1992	81.6571	54.1992	81.7407
55.6641	79.7842	55.6641	79.7384	55.6641	79.8376	55.6641	79.7074	55.6641	79.8935	55.6641	79.6997	55.6641	79.9489	55.6641	79.7246	55.6641	80.0041	55.6641	79.7907	55.6641	80.0625	55.6641	79.9052	55.6641	80.131	55.6641	80.0722	55.6641	80.2196	55.6641	80.2915	55.6641	80.3401	55.6641	80.5581	55.6641	80.5036	55.6641	80.8621	55.6641	80.7167	55.6641	81.1896	55.6641	80.9786	55.6641	81.5236	55.6641	81.2791	55.6641	81.8455	55.6641	81.5994	55.6641	82.1363	55.6641	81.915	55.6641	82.3779	55.6641	82.2001	55.6641	82.5542	55.6641	82.4312	55.6641	82.6528	55.6641	82.5902	55.6641	82.6655
58.5938	81.9421	58.5938	81.9099	58.5938	81.9861	58.5938	81.8945	58.5938	82.0382	58.5938	81.9018	58.5938	82.0967	58.5938	81.9382	58.5938	82.1617	58.5938	82.0095	58.5938	82.2353	58.5938	82.1206	58.5938	82.322	58.5938	82.274	58.5938	82.4278	58.5938	82.4694	58.5938	82.5598	58.5938	82.7033	58.5938	82.7242	58.5938	82.9682	58.5938	82.9245	58.5938	83.2537	58.5938	83.159	58.5938	83.5461	58.5938	83.4201	58.5938	83.8299	58.5938	83.6935	58.5938	84.0888	58.5938	83.9606	58.5938	84.3066	58.5938	84.2005	58.5938	84.4685	58.5938	84.3938	58.5938	84.5629	58.5938	84.5245	58.5938	84.5822
60.0586	82.9735	60.0586	82.9436	60.0586	83.0165	60.0586	82.931	60.0586	83.0697	60.0586	82.9405	60.0586	83.1312	60.0586	82.9772	60.0586	83.201	60.0586	83.046	60.0586	83.2805	60.0586	83.1509	60.0586	83.3729	60.0586	83.294	60.0586	83.4827	60.0586	83.4752	60.0586	83.6151	60.0586	83.6914	60.0586	83.7748	60.0586	83.9367	60.0586	83.9643	60.0586	84.2016	60.0586	84.1821	60.0586	84.4741	60.0586	84.4216	60.0586	84.7402	60.0586	84.6705	60.0586	84.9844	60.0586	84.9126	60.0586	85.1916	60.0586	85.1292	60.0586	85.3477	60.0586	85.3025	60.0586	85.4413	60.0586	85.4178	60.0586	85.4654
62.9883	84.8734	62.9883	84.848	62.9883	84.9134	62.9883	84.84	62.9883	84.966	62.9883	84.8523	62.9883	85.03	62.9883	84.8882	62.9883	85.1047	62.9883	84.9509	62.9883	85.1906	62.9883	85.0428	62.9883	85.2891	62.9883	85.1655	62.9883	85.402	62.9883	85.3191	62.9883	85.5319	62.9883	85.5017	62.9883	85.6809	62.9883	85.709	62.9883	85.8498	62.9883	85.9341	62.9883	86.037	62.9883	86.1679	62.9883	86.2374	62.9883	86.3987	62.9883	86.442	62.9883	86.6135	62.9883	86.6385	62.9883	86.799	62.9883	86.8123	62.9883	86.9425	62.9883	86.949	62.9883	87.0335	62.9883	87.0361	62.9883	87.0654
64.4531	85.748	64.4531	85.7248	64.4531	85.7859	64.4531	85.7184	64.4531	85.8372	64.4531	85.7311	64.4531	85.9005	64.4531	85.7654	64.4531	85.9755	64.4531	85.8238	64.4531	86.0621	64.4531	85.9083	64.4531	86.161	64.4531	86.0203	64.4531	86.2731	64.4531	86.16	64.4531	86.3998	64.4531	86.326	64.4531	86.5423	64.4531	86.5149	64.4531	86.7006	64.4531	86.7209	64.4531	86.8731	64.4531	86.9359	64.4531	87.0554	64.4531	87.1496	64.4531	87.2397	64.4531	87.35	64.4531	87.4154	64.4531	87.5246	64.4531	87.5697	64.4531	87.6614	64.4531	87.6897	64.4531	87.7505	64.4531	87.7641	64.4531	87.7854
67.3828	87.2242	67.3828	87.2037	67.3828	87.2611	67.3828	87.2004	67.3828	87.3134	67.3828	87.2153	67.3828	87.3805	67.3828	87.2495	67.3828	87.4616	67.3828	87.3041	67.3828	87.5558	67.3828	87.3802	67.3828	87.6622	67.3828	87.4786	67.3828	87.7799	67.3828	87.5992	67.3828	87.9082	67.3828	87.7414	67.3828	88.0461	67.3828	87.9027	67.3828	88.1921	67.3828	88.0792	67.3828	88.3442	67.3828	88.2647	67.3828	88.4984	67.3828	88.4512	67.3828	88.6492	67.3828	88.6288	67.3828	88.7886	67.3828	88.7869	67.3828	88.9073	67.3828	88.915	67.3828	88.9954	67.3828	89.0039	67.3828	89.0442	67.3828	89.0478
