"SPL Vertical"
"On-Axis"		"10°"		"-10°"		"20°"		"-20°"		"30°"		"-30°"		"40°"		"-40°"		"50°"		"-50°"		"60°"		"-60°"		"70°"		"-70°"		"80°"		"-80°"		"90°"		"-90°"		"100°"		"-100°"		"110°"		"-110°"		"120°"		"-120°"		"130°"		"-130°"		"140°"		"-140°"		"150°"		"-150°"		"160°"		"-160°"		"170°"		"-170°"		"180°"
"Frequency [Hz]"	"Sound Pessure Level [dB]  / [2.83V 1m] "	"Frequency [Hz]"	"Sound Pessure Level [dB]  / [2.83V 1m] "	"Frequency [Hz]"	"Sound Pessure Level [dB]  / [2.83V 1m] "	"Frequency [Hz]"	"Sound Pessure Level [dB]  / [2.83V 1m] "	"Frequency [Hz]"	"Sound Pessure Level [dB]  / [2.83V 1m] "	"Frequency [Hz]"	"Sound Pessure Level [dB]  / [2.83V 1m] "	"Frequency [Hz]"	"Sound Pessure Level [dB]  / [2.83V 1m] "	"Frequency [Hz]"	"Sound Pessure Level [dB]  / [2.83V 1m] "	"Frequency [Hz]"	"Sound Pessure Level [dB]  / [2.83V 1m] "	"Frequency [Hz]"	"Sound Pessure Level [dB]  / [2.83V 1m] "	"Frequency [Hz]"	"Sound Pessure Level [dB]  / [2.83V 1m] "	"Frequency [Hz]"	"Sound Pessure Level [dB]  / [2.83V 1m] "	"Frequency [Hz]"	"Sound Pessure Level [dB]  / [2.83V 1m] "	"Frequency [Hz]"	"Sound Pessure Level [dB]  / [2.83V 1m] "	"Frequency [Hz]"	"Sound Pessure Level [dB]  / [2.83V 1m] "	"Frequency [Hz]"	"Sound Pessure Level [dB]  / [2.83V 1m] "	"Frequency [Hz]"	"Sound Pessure Level [dB]  / [2.83V 1m] "	"Frequency [Hz]"	"Sound Pessure Level [dB]  / [2.83V 1m] "	"Frequency [Hz]"	"Sound Pessure Level [dB]  / [2.83V 1m] "	"Frequency [Hz]"	"Sound Pessure Level [dB]  / [2.83V 1m] "	"Frequency [Hz]"	"Sound Pessure Level [dB]  / [2.83V 1m] "	"Frequency [Hz]"	"Sound Pessure Level [dB]  / [2.83V 1m] "	"Frequency [Hz]"	"Sound Pessure Level [dB]  / [2.83V 1m] "	"Frequency [Hz]"	"Sound Pessure Level [dB]  / [2.83V 1m] "	"Frequency [Hz]"	"Sound Pessure Level [dB]  / [2.83V 1m] "	"Frequency [Hz]"	"Sound Pessure Level [dB]  / [2.83V 1m] "	"Frequency [Hz]"	"Sound Pessure Level [dB]  / [2.83V 1m] "	"Frequency [Hz]"	"Sound Pessure Level [dB]  / [2.83V 1m] "	"Frequency [Hz]"	"Sound Pessure Level [dB]  / [2.83V 1m] "	"Frequency [Hz]"	"Sound Pessure Level [dB]  / [2.83V 1m] "	"Frequency [Hz]"	"Sound Pessure Level [dB]  / [2.83V 1m] "	"Frequency [Hz]"	"Sound Pessure Level [dB]  / [2.83V 1m] "	"Frequency [Hz]"	"Sound Pessure Level [dB]  / [2.83V 1m] "	"Frequency [Hz]"	"Sound Pessure Level [dB]  / [2.83V 1m] "	"Frequency [Hz]"	"Sound Pessure Level [dB]  / [2.83V 1m] "	"Frequency [Hz]"	"Sound Pessure Level [dB]  / [2.83V 1m] "
20.5078	65.4808	20.5078	65.3201	20.5078	65.6272	20.5078	65.1505	20.5078	65.7533	20.5078	64.9769	20.5078	65.8528	20.5078	64.8036	20.5078	65.9198	20.5078	64.634	20.5078	65.9489	20.5078	64.4714	20.5078	65.936	20.5078	64.3182	20.5078	65.8787	20.5078	64.1768	20.5078	65.7771	20.5078	64.0495	20.5078	65.6334	20.5078	63.9381	20.5078	65.4532	20.5078	63.8448	20.5078	65.2443	20.5078	63.7714	20.5078	65.0171	20.5078	63.7202	20.5078	64.7833	20.5078	63.6931	20.5078	64.5548	20.5078	63.6925	20.5078	64.3422	20.5078	63.7206	20.5078	64.1541	20.5078	63.7795	20.5078	63.9961	20.5078	63.871
21.9727	66.4015	21.9727	66.2228	21.9727	66.5714	21.9727	66.0409	21.9727	66.7263	21.9727	65.861	21.9727	66.8602	21.9727	65.6877	21.9727	66.967	21.9727	65.525	21.9727	67.0413	21.9727	65.3759	21.9727	67.0787	21.9727	65.2433	21.9727	67.0759	21.9727	65.1291	21.9727	67.0317	21.9727	65.0351	21.9727	66.9467	21.9727	64.9628	21.9727	66.8242	21.9727	64.9135	21.9727	66.6689	21.9727	64.8885	21.9727	66.4877	21.9727	64.8892	21.9727	66.2885	21.9727	64.9168	21.9727	66.0797	21.9727	64.9726	21.9727	65.8699	21.9727	65.0573	21.9727	65.6675	21.9727	65.1712	21.9727	65.4798	21.9727	65.3129
23.4375	67.4263	23.4375	67.2533	23.4375	67.591	23.4375	67.0776	23.4375	67.7417	23.4375	66.9043	23.4375	67.8721	23.4375	66.7376	23.4375	67.9762	23.4375	66.5814	23.4375	68.0483	23.4375	66.4391	23.4375	68.084	23.4375	66.3135	23.4375	68.0803	23.4375	66.207	23.4375	68.0362	23.4375	66.1217	23.4375	67.9532	23.4375	66.0593	23.4375	67.8351	23.4375	66.0211	23.4375	67.6877	23.4375	66.0081	23.4375	67.5184	23.4375	66.0209	23.4375	67.3353	23.4375	66.0595	23.4375	67.1463	23.4375	66.1236	23.4375	66.9586	23.4375	66.2123	23.4375	66.7782	23.4375	66.3243	23.4375	66.6099	23.4375	66.4576
24.9023	68.317	24.9023	68.1467	24.9023	68.4778	24.9023	67.9723	24.9023	68.6233	24.9023	67.7984	24.9023	68.7476	24.9023	67.6294	24.9023	68.8445	24.9023	67.4691	24.9023	68.9085	24.9023	67.3207	24.9023	68.935	24.9023	67.1871	24.9023	68.9209	24.9023	67.0709	24.9023	68.8649	24.9023	66.9741	24.9023	68.7686	24.9023	66.8987	24.9023	68.6358	24.9023	66.846	24.9023	68.4728	24.9023	66.8174	24.9023	68.2876	24.9023	66.8137	24.9023	68.0893	24.9023	66.8358	24.9023	67.887	24.9023	66.884	24.9023	67.6891	24.9023	66.9584	24.9023	67.5025	24.9023	67.0587	24.9023	67.3329	24.9023	67.184
26.3672	69.3181	26.3672	69.1489	26.3672	69.4781	26.3672	68.9757	26.3672	69.6229	26.3672	68.8035	26.3672	69.7467	26.3672	68.6366	26.3672	69.8433	26.3672	68.4788	26.3672	69.9073	26.3672	68.3334	26.3672	69.9342	26.3672	68.2033	26.3672	69.9208	26.3672	68.091	26.3672	69.8663	26.3672	67.9985	26.3672	69.772	26.3672	67.9274	26.3672	69.6422	26.3672	67.8792	26.3672	69.483	26.3672	67.8549	26.3672	69.3026	26.3672	67.8552	26.3672	69.1098	26.3672	67.8805	26.3672	68.9136	26.3672	67.9311	26.3672	68.7217	26.3672	68.0066	26.3672	68.5407	26.3672	68.1066	26.3672	68.3757	26.3672	68.2302
27.832	70.2084	27.832	70.0399	27.832	70.3672	27.832	69.8668	27.832	70.5106	27.832	69.694	27.832	70.6329	27.832	69.5258	27.832	70.7283	27.832	69.3659	27.832	70.7915	27.832	69.2179	27.832	70.818	27.832	69.0847	27.832	70.8046	27.832	68.9688	27.832	70.7502	27.832	68.8724	27.832	70.656	27.832	68.7975	27.832	70.5257	27.832	68.7454	27.832	70.3653	27.832	68.7175	27.832	70.1827	27.832	68.7146	27.832	69.9867	27.832	68.7374	27.832	69.7864	27.832	68.7862	27.832	69.59	27.832	68.861	27.832	69.4045	27.832	68.9616	27.832	69.2355	27.832	69.087
29.2969	70.966	29.2969	70.7997	29.2969	71.1222	29.2969	70.6285	29.2969	71.2627	29.2969	70.4573	29.2969	71.3818	29.2969	70.2904	29.2969	71.4739	29.2969	70.1317	29.2969	71.5336	29.2969	69.9845	29.2969	71.5567	29.2969	69.8519	29.2969	71.54	29.2969	69.7364	29.2969	71.4828	29.2969	69.6403	29.2969	71.3864	29.2969	69.5652	29.2969	71.2547	29.2969	69.5128	29.2969	71.0941	29.2969	69.4842	29.2969	70.9124	29.2969	69.4801	29.2969	70.7185	29.2969	69.5012	29.2969	70.5213	29.2969	69.5478	29.2969	70.3288	29.2969	69.62	29.2969	70.1477	29.2969	69.7173	29.2969	69.9831	29.2969	69.8388
30.7617	71.7798	30.7617	71.6118	30.7617	71.9395	30.7617	71.4406	30.7617	72.0851	30.7617	71.2712	30.7617	72.2107	30.7617	71.108	30.7617	72.3106	30.7617	70.9547	30.7617	72.3796	30.7617	70.8147	30.7617	72.4132	30.7617	70.6907	30.7617	72.4084	30.7617	70.5852	30.7617	72.3642	30.7617	70.5002	30.7617	72.2817	30.7617	70.4371	30.7617	72.1646	30.7617	70.3972	30.7617	72.0184	30.7617	70.3815	30.7617	71.8505	30.7617	70.3905	30.7617	71.6688	30.7617	70.4245	30.7617	71.4812	30.7617	70.4835	30.7617	71.2952	30.7617	70.5669	30.7617	71.1169	30.7617	70.6738	30.7617	70.9515	30.7617	70.8028
32.2266	72.534	32.2266	72.3683	32.2266	72.6905	32.2266	72.1986	32.2266	72.8324	32.2266	72.0297	32.2266	72.954	32.2266	71.866	32.2266	73.0499	32.2266	71.7114	32.2266	73.115	32.2266	71.5694	32.2266	73.1453	32.2266	71.443	32.2266	73.138	32.2266	71.3349	32.2266	73.0922	32.2266	71.2471	32.2266	73.0092	32.2266	71.1814	32.2266	72.8923	32.2266	71.139	32.2266	72.7469	32.2266	71.121	32.2266	72.5797	32.2266	71.1277	32.2266	72.3984	32.2266	71.1596	32.2266	72.2108	32.2266	71.2165	32.2266	72.0244	32.2266	71.2981	32.2266	71.8456	32.2266	71.4035	32.2266	71.6799	32.2266	71.5315
33.6914	73.169	33.6914	73.002	33.6914	73.3269	33.6914	72.8312	33.6914	73.4701	33.6914	72.6615	33.6914	73.5927	33.6914	72.4976	33.6914	73.6892	33.6914	72.3433	33.6914	73.7547	33.6914	72.2023	33.6914	73.7851	33.6914	72.0774	33.6914	73.7778	33.6914	71.9714	33.6914	73.7323	33.6914	71.8862	33.6914	73.65	33.6914	71.8236	33.6914	73.5348	33.6914	71.7848	33.6914	73.3921	33.6914	71.7705	33.6914	73.2288	33.6914	71.7813	33.6914	73.0524	33.6914	71.8173	33.6914	72.8699	33.6914	71.8782	33.6914	72.6881	33.6914	71.9633	33.6914	72.5129	33.6914	72.0715	33.6914	72.3491	33.6914	72.2009
35.1562	73.913	35.1562	73.7484	35.1562	74.0677	35.1562	73.5792	35.1562	74.207	35.1562	73.4105	35.1562	74.3251	35.1562	73.2467	35.1562	74.4168	35.1562	73.092	35.1562	74.477	35.1562	72.9499	35.1562	74.5019	35.1562	72.8238	35.1562	74.4892	35.1562	72.7162	35.1562	74.4386	35.1562	72.6295	35.1562	74.3518	35.1562	72.5654	35.1562	74.2329	35.1562	72.5253	35.1562	74.088	35.1562	72.51	35.1562	73.9242	35.1562	72.5199	35.1562	73.7493	35.1562	72.5548	35.1562	73.5705	35.1562	72.614	35.1562	73.394	35.1562	72.6967	35.1562	73.225	35.1562	72.8011	35.1562	73.0678	35.1562	72.9256
36.6211	74.2636	36.6211	74.0901	36.6211	74.4267	36.6211	73.9117	36.6211	74.5738	36.6211	73.7337	36.6211	74.6991	36.6211	73.5608	36.6211	74.7971	36.6211	73.3975	36.6211	74.8627	36.6211	73.2477	36.6211	74.892	36.6211	73.1148	36.6211	74.8823	36.6211	73.0018	36.6211	74.8333	36.6211	72.9109	36.6211	74.7467	36.6211	72.8441	36.6211	74.6263	36.6211	72.8026	36.6211	74.4777	36.6211	72.7872	36.6211	74.3079	36.6211	72.7982	36.6211	74.1241	36.6211	72.8357	36.6211	73.9337	36.6211	72.899	36.6211	73.7438	36.6211	72.9875	36.6211	73.5606	36.6211	73.1001	36.6211	73.3895	36.6211	73.2348
38.0859	74.844	38.0859	74.6726	38.0859	75.0039	38.0859	74.4952	38.0859	75.1465	38.0859	74.3169	38.0859	75.2658	38.0859	74.1423	38.0859	75.3561	38.0859	73.9759	38.0859	75.4121	38.0859	73.8211	38.0859	75.4297	38.0859	73.6815	38.0859	75.4063	38.0859	73.5597	38.0859	75.3416	38.0859	73.4581	38.0859	75.2376	38.0859	73.3786	38.0859	75.0991	38.0859	73.3226	38.0859	74.9325	38.0859	73.2913	38.0859	74.746	38.0859	73.2855	38.0859	74.548	38.0859	73.3057	38.0859	74.3471	38.0859	73.3524	38.0859	74.1508	38.0859	73.4256	38.0859	73.9658	38.0859	73.5249	38.0859	73.7973	38.0859	73.6494
39.5508	75.562	39.5508	75.3916	39.5508	75.7205	39.5508	75.2149	39.5508	75.8612	39.5508	75.0368	39.5508	75.978	39.5508	74.8624	39.5508	76.0651	39.5508	74.6956	39.5508	76.1173	39.5508	74.5403	39.5508	76.1301	39.5508	74.3996	39.5508	76.101	39.5508	74.2762	39.5508	76.0295	39.5508	74.1721	39.5508	75.9177	39.5508	74.089	39.5508	75.7703	39.5508	74.0283	39.5508	75.5944	39.5508	73.9909	39.5508	75.3986	39.5508	73.9775	39.5508	75.1924	39.5508	73.9889	39.5508	74.9851	39.5508	74.0257	39.5508	74.7854	39.5508	74.0886	39.5508	74.6003	39.5508	74.1779	39.5508	74.4352	39.5508	74.2937
41.0156	76.1898	41.0156	76.0101	41.0156	76.3597	41.0156	75.8258	41.0156	76.5144	41.0156	75.6417	41.0156	76.6474	41.0156	75.4621	41.0156	76.7523	41.0156	75.2912	41.0156	76.8221	41.0156	75.133	41.0156	76.8511	41.0156	74.991	41.0156	76.8349	41.0156	74.8682	41.0156	76.7717	41.0156	74.7672	41.0156	76.6625	41.0156	74.6895	41.0156	76.5119	41.0156	74.6363	41.0156	76.3275	41.0156	74.6081	41.0156	76.1194	41.0156	74.6046	41.0156	75.899	41.0156	74.6257	41.0156	75.6777	41.0156	74.6711	41.0156	75.4661	41.0156	74.7406	41.0156	75.272	41.0156	74.835	41.0156	75.1007	41.0156	74.9548
42.4805	76.9225	42.4805	76.7517	42.4805	77.0844	42.4805	76.5774	42.4805	77.2315	42.4805	76.4048	42.4805	77.3581	42.4805	76.2387	42.4805	77.4584	42.4805	76.0835	42.4805	77.5273	42.4805	75.943	42.4805	77.5607	42.4805	75.8206	42.4805	77.5558	42.4805	75.7191	42.4805	77.5121	42.4805	75.6407	42.4805	77.4313	42.4805	75.5869	42.4805	77.3176	42.4805	75.5586	42.4805	77.177	42.4805	75.5559	42.4805	77.0169	42.4805	75.5783	42.4805	76.8451	42.4805	75.625	42.4805	76.6688	42.4805	75.6947	42.4805	76.4942	42.4805	75.7856	42.4805	76.3262	42.4805	75.8962	42.4805	76.1686	42.4805	76.0245
43.9453	77.4492	43.9453	77.2798	43.9453	77.6106	43.9453	77.1078	43.9453	77.7582	43.9453	76.9384	43.9453	77.8863	43.9453	76.7761	43.9453	77.9892	43.9453	76.6255	43.9453	78.0618	43.9453	76.4901	43.9453	78.1001	43.9453	76.3734	43.9453	78.1015	43.9453	76.2779	43.9453	78.0654	43.9453	76.2058	43.9453	77.9935	43.9453	76.1584	43.9453	77.8894	43.9453	76.1364	43.9453	77.7588	43.9453	76.1399	43.9453	77.6083	43.9453	76.1683	43.9453	77.4449	43.9453	76.2206	43.9453	77.2753	43.9453	76.2954	43.9453	77.1052	43.9453	76.3909	43.9453	76.9396	43.9453	76.5054	43.9453	76.7823	43.9453	76.6366
45.4102	77.9819	45.4102	77.8111	45.4102	78.1427	45.4102	77.6355	45.4102	78.2878	45.4102	77.4602	45.4102	78.4116	45.4102	77.2899	45.4102	78.5086	45.4102	77.1289	45.4102	78.5738	45.4102	76.9811	45.4102	78.6035	45.4102	76.85	45.4102	78.5951	45.4102	76.7387	45.4102	78.5483	45.4102	76.6496	45.4102	78.4648	45.4102	76.5849	45.4102	78.3483	45.4102	76.5458	45.4102	78.2045	45.4102	76.5331	45.4102	78.0399	45.4102	76.5472	45.4102	77.8618	45.4102	76.5877	45.4102	77.6773	45.4102	76.654	45.4102	77.4929	45.4102	76.7448	45.4102	77.3143	45.4102	76.8587	45.4102	77.1464	45.4102	76.9934
46.875	78.4005	46.875	78.2269	46.875	78.5657	46.875	78.0504	46.875	78.7167	46.875	77.8762	46.875	78.8476	46.875	77.7091	46.875	78.9528	46.875	77.5534	46.875	79.0273	46.875	77.413	46.875	79.0671	46.875	77.2911	46.875	79.0698	46.875	77.1906	46.875	79.035	46.875	77.1137	46.875	78.9643	46.875	77.0622	46.875	78.8615	46.875	77.0369	46.875	78.7318	46.875	77.0385	46.875	78.5813	46.875	77.0668	46.875	78.4163	46.875	77.1211	46.875	78.2428	46.875	77.2004	46.875	78.0664	46.875	77.3029	46.875	77.8921	46.875	77.4264	46.875	77.7246	46.875	77.5681
48.3398	79.0948	48.3398	78.9354	48.3398	79.2435	48.3398	78.7705	48.3398	79.3761	48.3398	78.6053	48.3398	79.4876	48.3398	78.4447	48.3398	79.5732	48.3398	78.2934	48.3398	79.6289	48.3398	78.1557	48.3398	79.6517	48.3398	78.0354	48.3398	79.6402	48.3398	77.9355	48.3398	79.5947	48.3398	77.8587	48.3398	79.5177	48.3398	77.8065	48.3398	79.4136	48.3398	77.7799	48.3398	79.2879	48.3398	77.7791	48.3398	79.1467	48.3398	77.8036	48.3398	78.9958	48.3398	77.8521	48.3398	78.8402	48.3398	77.9231	48.3398	78.6843	48.3398	78.0145	48.3398	78.5315	48.3398	78.1238	48.3398	78.3852	48.3398	78.2483
51.2695	79.9483	51.2695	79.772	51.2695	80.1117	51.2695	79.5888	51.2695	80.2564	51.2695	79.4043	51.2695	80.3764	51.2695	79.2239	51.2695	80.4664	51.2695	79.0527	51.2695	80.5217	51.2695	78.8952	51.2695	80.5392	51.2695	78.7554	51.2695	80.5172	51.2695	78.6367	51.2695	80.4563	51.2695	78.5417	51.2695	80.3592	51.2695	78.4724	51.2695	80.2304	51.2695	78.43	51.2695	80.0764	51.2695	78.4149	51.2695	79.904	51.2695	78.4269	51.2695	79.7208	51.2695	78.4653	51.2695	79.5336	51.2695	78.5291	51.2695	79.3487	51.2695	78.6168	51.2695	79.1717	51.2695	78.7269	51.2695	79.0068	51.2695	78.8576
52.7344	80.4153	52.7344	80.2451	52.7344	80.5729	52.7344	80.0681	52.7344	80.7122	52.7344	79.8897	52.7344	80.8276	52.7344	79.715	52.7344	80.9136	52.7344	79.549	52.7344	80.9659	52.7344	79.3959	52.7344	80.9812	52.7344	79.2596	52.7344	80.958	52.7344	79.1432	52.7344	80.8969	52.7344	79.0495	52.7344	80.8007	52.7344	78.9802	52.7344	80.6742	52.7344	78.9367	52.7344	80.5234	52.7344	78.9193	52.7344	80.3554	52.7344	78.9282	52.7344	80.1771	52.7344	78.9628	52.7344	79.9951	52.7344	79.0224	52.7344	79.8154	52.7344	79.1058	52.7344	79.6432	52.7344	79.2116	52.7344	79.4829	52.7344	79.338
54.1992	80.8358	54.1992	80.6693	54.1992	80.9905	54.1992	80.4965	54.1992	81.1275	54.1992	80.3228	54.1992	81.2414	54.1992	80.1535	54.1992	81.3271	54.1992	79.9932	54.1992	81.3801	54.1992	79.8462	54.1992	81.3974	54.1992	79.716	54.1992	81.3777	54.1992	79.6059	54.1992	81.3214	54.1992	79.5182	54.1992	81.2314	54.1992	79.4545	54.1992	81.1119	54.1992	79.4159	54.1992	80.969	54.1992	79.4027	54.1992	80.8092	54.1992	79.4149	54.1992	80.6391	54.1992	79.452	54.1992	80.4647	54.1992	79.513	54.1992	80.2918	54.1992	79.5969	54.1992	80.1251	54.1992	79.7022	54.1992	79.969	54.1992	79.827
55.6641	81.2066	55.6641	81.0395	55.6641	81.3612	55.6641	80.8656	55.6641	81.4975	55.6641	80.6906	55.6641	81.61	55.6641	80.5199	55.6641	81.6936	55.6641	80.3586	55.6641	81.7441	55.6641	80.2113	55.6641	81.7587	55.6641	80.082	55.6641	81.7362	55.6641	79.974	55.6641	81.6775	55.6641	79.8897	55.6641	81.586	55.6641	79.8308	55.6641	81.4665	55.6641	79.798	55.6641	81.3256	55.6641	79.7915	55.6641	81.1701	55.6641	79.8106	55.6641	81.0066	55.6641	79.8539	55.6641	80.8408	55.6641	79.92	55.6641	80.6772	55.6641	80.007	55.6641	80.5198	55.6641	80.1126	55.6641	80.3714	55.6641	80.2349
58.5938	82.0304	58.5938	81.8585	58.5938	82.1896	58.5938	81.6801	58.5938	82.3302	58.5938	81.5009	58.5938	82.4465	58.5938	81.3266	58.5938	82.5333	58.5938	81.1626	58.5938	82.5865	58.5938	81.0136	58.5938	82.6031	58.5938	80.8838	58.5938	82.5819	58.5938	80.7763	58.5938	82.524	58.5938	80.6936	58.5938	82.4325	58.5938	80.637	58.5938	82.3126	58.5938	80.6073	58.5938	82.1706	58.5938	80.604	58.5938	82.0134	58.5938	80.6262	58.5938	81.8476	58.5938	80.6724	58.5938	81.6789	58.5938	80.7411	58.5938	81.5124	58.5938	80.8302	58.5938	81.3521	58.5938	80.9379	58.5938	81.2011	58.5938	81.0622
60.0586	82.3401	60.0586	82.1663	60.0586	82.5	60.0586	81.9848	60.0586	82.6399	60.0586	81.802	60.0586	82.7542	60.0586	81.6238	60.0586	82.8376	60.0586	81.4559	60.0586	82.8863	60.0586	81.3034	60.0586	82.8975	60.0586	81.1708	60.0586	82.8708	60.0586	81.0617	60.0586	82.8075	60.0586	80.9785	60.0586	82.7114	60.0586	80.9229	60.0586	82.5881	60.0586	80.8953	60.0586	82.4446	60.0586	80.8951	60.0586	82.2878	60.0586	80.9208	60.0586	82.1244	60.0586	80.9706	60.0586	81.9599	60.0586	81.042	60.0586	81.7986	60.0586	81.1326	60.0586	81.6437	60.0586	81.2402	60.0586	81.4976	60.0586	81.3625
62.9883	83.0892	62.9883	82.9146	62.9883	83.2484	62.9883	82.7311	62.9883	83.3861	62.9883	82.5447	62.9883	83.4966	62.9883	82.3618	62.9883	83.5747	62.9883	82.1878	62.9883	83.6164	62.9883	82.0281	62.9883	83.6192	62.9883	81.8872	62.9883	83.5824	62.9883	81.7687	62.9883	83.5077	62.9883	81.6753	62.9883	83.3992	62.9883	81.6088	62.9883	83.2627	62.9883	81.5699	62.9883	83.1058	62.9883	81.5583	62.9883	82.9363	62.9883	81.5731	62.9883	82.7614	62.9883	81.6125	62.9883	82.5874	62.9883	81.6748	62.9883	82.419	62.9883	81.7578	62.9883	82.2597	62.9883	81.8595	62.9883	82.1121	62.9883	81.9782
64.4531	83.3659	64.4531	83.1894	64.4531	83.5273	64.4531	83.0039	64.4531	83.6671	64.4531	82.8159	64.4531	83.7797	64.4531	82.6316	64.4531	83.8598	64.4531	82.4567	64.4531	83.9036	64.4531	82.2966	64.4531	83.9083	64.4531	82.1556	64.4531	83.8734	64.4531	82.0375	64.4531	83.8003	64.4531	81.9449	64.4531	83.6931	64.4531	81.8794	64.4531	83.5575	64.4531	81.8416	64.4531	83.4008	64.4531	81.8311	64.4531	83.2307	64.4531	81.8469	64.4531	83.0544	64.4531	81.8874	64.4531	82.8783	64.4531	81.9508	64.4531	82.7073	64.4531	82.035	64.4531	82.5453	64.4531	82.1382	64.4531	82.3951	64.4531	82.2588
67.3828	83.954	67.3828	83.7761	67.3828	84.1168	67.3828	83.5896	67.3828	84.2581	67.3828	83.4011	67.3828	84.372	67.3828	83.217	67.3828	84.4534	67.3828	83.0432	67.3828	84.4981	67.3828	82.8851	67.3828	84.5038	67.3828	82.7473	67.3828	84.4698	67.3828	82.6334	67.3828	84.398	67.3828	82.5459	67.3828	84.2923	67.3828	82.4862	67.3828	84.1589	67.3828	82.4545	67.3828	84.005	67.3828	82.45	67.3828	83.8384	67.3828	82.4714	67.3828	83.6663	67.3828	82.5165	67.3828	83.4949	67.3828	82.5831	67.3828	83.3288	67.3828	82.6691	67.3828	83.1715	67.3828	82.7725	67.3828	83.0252	67.3828	82.8917
68.8477	84.2035	68.8477	84.0237	68.8477	84.3676	68.8477	83.835	68.8477	84.5097	68.8477	83.6442	68.8477	84.6238	68.8477	83.4578	68.8477	84.7049	68.8477	83.2822	68.8477	84.749	68.8477	83.1229	68.8477	84.7539	68.8477	82.9849	68.8477	84.7196	68.8477	82.8718	68.8477	84.6482	68.8477	82.7863	68.8477	84.544	68.8477	82.73	68.8477	84.4134	68.8477	82.7028	68.8477	84.2636	68.8477	82.7039	68.8477	84.1022	68.8477	82.7315	68.8477	83.9358	68.8477	82.7831	68.8477	83.7701	68.8477	82.856	68.8477	83.6089	68.8477	82.9475	68.8477	83.4551	68.8477	83.0551	68.8477	83.3105	68.8477	83.1767
