"SPL Vertical"
"On-Axis"		"10°"		"-10°"		"20°"		"-20°"		"30°"		"-30°"		"40°"		"-40°"		"50°"		"-50°"		"60°"		"-60°"		"70°"		"-70°"		"80°"		"-80°"		"90°"		"-90°"		"100°"		"-100°"		"110°"		"-110°"		"120°"		"-120°"		"130°"		"-130°"		"140°"		"-140°"		"150°"		"-150°"		"160°"		"-160°"		"170°"		"-170°"		"180°"
"Frequency / Hz"	"Sound Pressure Level / dB (re 20 µPa/V)  [2.83V at 1m]"	"Frequency / Hz"	"Sound Pressure Level / dB (re 20 µPa/V)  [2.83V at 1m]"	"Frequency / Hz"	"Sound Pressure Level / dB (re 20 µPa/V)  [2.83V at 1m]"	"Frequency / Hz"	"Sound Pressure Level / dB (re 20 µPa/V)  [2.83V at 1m]"	"Frequency / Hz"	"Sound Pressure Level / dB (re 20 µPa/V)  [2.83V at 1m]"	"Frequency / Hz"	"Sound Pressure Level / dB (re 20 µPa/V)  [2.83V at 1m]"	"Frequency / Hz"	"Sound Pressure Level / dB (re 20 µPa/V)  [2.83V at 1m]"	"Frequency / Hz"	"Sound Pressure Level / dB (re 20 µPa/V)  [2.83V at 1m]"	"Frequency / Hz"	"Sound Pressure Level / dB (re 20 µPa/V)  [2.83V at 1m]"	"Frequency / Hz"	"Sound Pressure Level / dB (re 20 µPa/V)  [2.83V at 1m]"	"Frequency / Hz"	"Sound Pressure Level / dB (re 20 µPa/V)  [2.83V at 1m]"	"Frequency / Hz"	"Sound Pressure Level / dB (re 20 µPa/V)  [2.83V at 1m]"	"Frequency / Hz"	"Sound Pressure Level / dB (re 20 µPa/V)  [2.83V at 1m]"	"Frequency / Hz"	"Sound Pressure Level / dB (re 20 µPa/V)  [2.83V at 1m]"	"Frequency / Hz"	"Sound Pressure Level / dB (re 20 µPa/V)  [2.83V at 1m]"	"Frequency / Hz"	"Sound Pressure Level / dB (re 20 µPa/V)  [2.83V at 1m]"	"Frequency / Hz"	"Sound Pressure Level / dB (re 20 µPa/V)  [2.83V at 1m]"	"Frequency / Hz"	"Sound Pressure Level / dB (re 20 µPa/V)  [2.83V at 1m]"	"Frequency / Hz"	"Sound Pressure Level / dB (re 20 µPa/V)  [2.83V at 1m]"	"Frequency / Hz"	"Sound Pressure Level / dB (re 20 µPa/V)  [2.83V at 1m]"	"Frequency / Hz"	"Sound Pressure Level / dB (re 20 µPa/V)  [2.83V at 1m]"	"Frequency / Hz"	"Sound Pressure Level / dB (re 20 µPa/V)  [2.83V at 1m]"	"Frequency / Hz"	"Sound Pressure Level / dB (re 20 µPa/V)  [2.83V at 1m]"	"Frequency / Hz"	"Sound Pressure Level / dB (re 20 µPa/V)  [2.83V at 1m]"	"Frequency / Hz"	"Sound Pressure Level / dB (re 20 µPa/V)  [2.83V at 1m]"	"Frequency / Hz"	"Sound Pressure Level / dB (re 20 µPa/V)  [2.83V at 1m]"	"Frequency / Hz"	"Sound Pressure Level / dB (re 20 µPa/V)  [2.83V at 1m]"	"Frequency / Hz"	"Sound Pressure Level / dB (re 20 µPa/V)  [2.83V at 1m]"	"Frequency / Hz"	"Sound Pressure Level / dB (re 20 µPa/V)  [2.83V at 1m]"	"Frequency / Hz"	"Sound Pressure Level / dB (re 20 µPa/V)  [2.83V at 1m]"	"Frequency / Hz"	"Sound Pressure Level / dB (re 20 µPa/V)  [2.83V at 1m]"	"Frequency / Hz"	"Sound Pressure Level / dB (re 20 µPa/V)  [2.83V at 1m]"	"Frequency / Hz"	"Sound Pressure Level / dB (re 20 µPa/V)  [2.83V at 1m]"	"Frequency / Hz"	"Sound Pressure Level / dB (re 20 µPa/V)  [2.83V at 1m]"	"Frequency / Hz"	"Sound Pressure Level / dB (re 20 µPa/V)  [2.83V at 1m]"	"Frequency / Hz"	"Sound Pressure Level / dB (re 20 µPa/V)  [2.83V at 1m]"
20.5078	62.6119	20.5078	62.2946	20.5078	62.8393	20.5078	61.889	20.5078	62.9749	20.5078	61.3976	20.5078	63.0157	20.5078	60.8247	20.5078	62.9581	20.5078	60.1805	20.5078	62.7978	20.5078	59.4855	20.5078	62.53	20.5078	58.7782	20.5078	62.1511	20.5078	58.1218	20.5078	61.6598	20.5078	57.6027	20.5078	61.0617	20.5078	57.3072	20.5078	60.3749	20.5078	57.2763	20.5078	59.6394	20.5078	57.4744	20.5078	58.9264	20.5078	57.8045	20.5078	58.3374	20.5078	58.155	20.5078	57.9737	20.5078	58.4362	20.5078	57.8798	20.5078	58.592	20.5078	58.0069	20.5078	58.5995	20.5078	58.2421	20.5078	58.4679
21.9727	59.0178	21.9727	58.4531	21.9727	59.3817	21.9727	57.6692	21.9727	59.5539	21.9727	56.6384	21.9727	59.5342	21.9727	55.331	21.9727	59.3131	21.9727	53.7469	21.9727	58.8703	21.9727	52.0399	21.9727	58.1721	21.9727	50.8248	21.9727	57.1675	21.9727	51.0864	21.9727	55.784	21.9727	52.7309	21.9727	53.9382	21.9727	54.7453	21.9727	51.6496	21.9727	56.5682	21.9727	49.6454	21.9727	58.0604	21.9727	49.9604	21.9727	59.2152	21.9727	52.3899	21.9727	60.0499	21.9727	54.9352	21.9727	60.579	21.9727	56.9817	21.9727	60.8086	21.9727	58.5206	21.9727	60.7359	21.9727	59.6234	21.9727	60.3488
23.4375	59.7466	23.4375	59.4107	23.4375	59.989	23.4375	59.0279	23.4375	60.1126	23.4375	58.6769	23.4375	60.1052	23.4375	58.4732	23.4375	59.9654	23.4375	58.5462	23.4375	59.7052	23.4375	58.9768	23.4375	59.3603	23.4375	59.7425	23.4375	59.0073	23.4375	60.7323	23.4375	58.7804	23.4375	61.8143	23.4375	58.8521	23.4375	62.8837	23.4375	59.3441	23.4375	63.8717	23.4375	60.2279	23.4375	64.7368	23.4375	61.3452	23.4375	65.4536	23.4375	62.5193	23.4375	66.0056	23.4375	63.6243	23.4375	66.381	23.4375	64.5886	23.4375	66.571	23.4375	65.3768	23.4375	66.569	23.4375	65.9727	23.4375	66.3704
24.9023	63.8214	24.9023	63.7113	24.9023	63.9153	24.9023	63.6179	24.9023	63.9715	24.9023	63.5839	24.9023	63.979	24.9023	63.6563	24.9023	63.9384	24.9023	63.8759	24.9023	63.8633	24.9023	64.2631	24.9023	63.7837	24.9023	64.8091	24.9023	63.748	24.9023	65.4784	24.9023	63.8201	24.9023	66.2202	24.9023	64.0629	24.9023	66.9815	24.9023	64.5121	24.9023	67.7154	24.9023	65.1546	24.9023	68.3834	24.9023	65.9317	24.9023	68.9553	24.9023	66.7643	24.9023	69.4078	24.9023	67.5777	24.9023	69.7227	24.9023	68.3142	24.9023	69.8871	24.9023	68.9339	24.9023	69.8921	24.9023	69.4118	24.9023	69.7334
26.3672	67.4906	26.3672	67.4437	26.3672	67.5504	26.3672	67.4299	26.3672	67.6091	26.3672	67.4735	26.3672	67.6603	26.3672	67.5999	26.3672	67.7057	26.3672	67.8293	26.3672	67.7555	26.3672	68.1716	26.3672	67.829	26.3672	68.6222	26.3672	67.9528	26.3672	69.1621	26.3672	68.1571	26.3672	69.762	26.3672	68.4669	26.3672	70.3873	26.3672	68.8926	26.3672	71.0035	26.3672	69.4235	26.3672	71.5786	26.3672	70.0285	26.3672	72.0844	26.3672	70.6643	26.3672	72.4976	26.3672	71.2849	26.3672	72.7995	26.3672	71.8492	26.3672	72.9757	26.3672	72.3243	26.3672	73.0173	26.3672	72.6866	26.3672	72.9203
27.832	70.007	27.832	70.0186	27.832	70.024	27.832	70.0698	27.832	70.0613	27.832	70.1731	27.832	70.1143	27.832	70.3402	27.832	70.1829	27.832	70.5793	27.832	70.2714	27.832	70.8932	27.832	70.3884	27.832	71.2772	27.832	70.5459	27.832	71.7197	27.832	70.7571	27.832	72.2024	27.832	71.0335	27.832	72.703	27.832	71.381	27.832	73.1971	27.832	71.796	27.832	73.6598	27.832	72.2643	27.832	74.0675	27.832	72.7623	27.832	74.3989	27.832	73.2603	27.832	74.6361	27.832	73.7271	27.832	74.7656	27.832	74.1336	27.832	74.779	27.832	74.4552	27.832	74.6741
29.2969	72.2012	29.2969	72.2063	29.2969	72.2185	29.2969	72.2411	29.2969	72.2529	29.2969	72.3135	29.2969	72.3011	29.2969	72.4317	29.2969	72.3626	29.2969	72.602	29.2969	72.4398	29.2969	72.828	29.2969	72.5376	29.2969	73.1092	29.2969	72.6636	29.2969	73.4397	29.2969	72.8263	29.2969	73.8087	29.2969	73.0341	29.2969	74.2007	29.2969	73.2925	29.2969	74.5969	29.2969	73.6017	29.2969	74.9762	29.2969	73.9545	29.2969	75.3173	29.2969	74.3357	29.2969	75.5997	29.2969	74.724	29.2969	75.8058	29.2969	75.0942	29.2969	75.9221	29.2969	75.421	29.2969	75.9405	29.2969	75.6818	29.2969	75.8588
30.7617	73.4082	30.7617	73.4159	30.7617	73.4185	30.7617	73.4465	30.7617	73.4433	30.7617	73.5058	30.7617	73.4804	30.7617	73.5995	30.7617	73.5295	30.7617	73.7326	30.7617	73.5922	30.7617	73.9085	30.7617	73.672	30.7617	74.1282	30.7617	73.7742	30.7617	74.3888	30.7617	73.9052	30.7617	74.6835	30.7617	74.0714	30.7617	75.0013	30.7617	74.2775	30.7617	75.3274	30.7617	74.5246	30.7617	75.6443	30.7617	74.8086	30.7617	75.9329	30.7617	75.1188	30.7617	76.1744	30.7617	75.4388	30.7617	76.3521	30.7617	75.7478	30.7617	76.453	30.7617	76.024	30.7617	76.4691	30.7617	76.2465	30.7617	76.3987
32.2266	74.0008	32.2266	73.9993	32.2266	74.0163	32.2266	74.0157	32.2266	74.0427	32.2266	74.0548	32.2266	74.0783	32.2266	74.1219	32.2266	74.123	32.2266	74.2218	32.2266	74.1781	32.2266	74.3584	32.2266	74.2464	32.2266	74.5338	32.2266	74.3322	32.2266	74.7471	32.2266	74.4409	32.2266	74.9936	32.2266	74.5778	32.2266	75.2648	32.2266	74.7475	32.2266	75.5481	32.2266	74.9516	32.2266	75.8278	32.2266	75.1875	32.2266	76.0864	32.2266	75.4472	32.2266	76.3061	32.2266	75.7171	32.2266	76.4707	32.2266	75.9797	32.2266	76.5675	32.2266	76.2153	32.2266	76.5889	32.2266	76.4051	32.2266	76.5332
33.6914	74.4146	33.6914	74.4098	33.6914	74.4322	33.6914	74.4207	33.6914	74.4599	33.6914	74.4512	33.6914	74.4966	33.6914	74.5055	33.6914	74.5418	33.6914	74.5875	33.6914	74.5962	33.6914	74.7007	33.6914	74.6619	33.6914	74.8468	33.6914	74.7416	33.6914	75.0257	33.6914	74.8392	33.6914	75.2339	33.6914	74.9586	33.6914	75.4647	33.6914	75.103	33.6914	75.7078	33.6914	75.274	33.6914	75.9499	33.6914	75.4697	33.6914	76.1756	33.6914	75.6843	33.6914	76.3691	33.6914	75.9075	33.6914	76.5158	33.6914	76.1251	33.6914	76.6042	33.6914	76.3209	33.6914	76.6274	33.6914	76.4786	33.6914	76.584
35.1562	74.2794	35.1562	74.2807	35.1562	74.2954	35.1562	74.3017	35.1562	74.3268	35.1562	74.3455	35.1562	74.372	35.1562	74.4149	35.1562	74.4304	35.1562	74.5126	35.1562	74.502	35.1562	74.6404	35.1562	74.5877	35.1562	74.7988	35.1562	74.6887	35.1562	74.9863	35.1562	74.8071	35.1562	75.1989	35.1562	74.9445	35.1562	75.4296	35.1562	75.1025	35.1562	75.6688	35.1562	75.2808	35.1562	75.9042	35.1562	75.4771	35.1562	76.1218	35.1562	75.6856	35.1562	76.3074	35.1562	75.8975	35.1562	76.4481	35.1562	76.1008	35.1562	76.5337	35.1562	76.2815	35.1562	76.5583	35.1562	76.4256	35.1562	76.5208
36.6211	75.216	36.6211	75.2151	36.6211	75.2292	36.6211	75.2283	36.6211	75.2533	36.6211	75.2575	36.6211	75.2871	36.6211	75.3047	36.6211	75.3298	36.6211	75.3718	36.6211	75.3811	36.6211	75.4603	36.6211	75.4413	36.6211	75.5708	36.6211	75.511	36.6211	75.703	36.6211	75.5915	36.6211	75.8545	36.6211	75.6842	36.6211	76.0209	36.6211	75.7907	36.6211	76.1956	36.6211	75.9118	36.6211	76.3693	36.6211	76.047	36.6211	76.5314	36.6211	76.1935	36.6211	76.6702	36.6211	76.3458	36.6211	76.7751	36.6211	76.4956	36.6211	76.8375	36.6211	76.632	36.6211	76.8525	36.6211	76.7437	36.6211	76.8199
38.0859	75.8354	38.0859	75.8323	38.0859	75.85	38.0859	75.8417	38.0859	75.8746	38.0859	75.8653	38.0859	75.9085	38.0859	75.9044	38.0859	75.9507	38.0859	75.9606	38.0859	76.0008	38.0859	76.0351	38.0859	76.0584	38.0859	76.1285	38.0859	76.1237	38.0859	76.2406	38.0859	76.197	38.0859	76.3699	38.0859	76.2794	38.0859	76.5128	38.0859	76.3716	38.0859	76.6638	38.0859	76.4743	38.0859	76.8152	38.0859	76.5875	38.0859	76.9578	38.0859	76.7093	38.0859	77.0812	38.0859	76.8355	38.0859	77.1757	38.0859	76.9595	38.0859	77.2338	38.0859	77.0725	38.0859	77.2508	38.0859	77.1647	38.0859	77.2265
39.5508	76.4962	39.5508	76.4913	39.5508	76.5122	39.5508	76.4987	39.5508	76.5384	39.5508	76.5192	39.5508	76.574	39.5508	76.554	39.5508	76.6181	39.5508	76.604	39.5508	76.6697	39.5508	76.67	39.5508	76.7281	39.5508	76.7526	39.5508	76.7928	39.5508	76.8516	39.5508	76.8635	39.5508	76.9657	39.5508	76.9405	39.5508	77.0922	39.5508	77.0241	39.5508	77.2263	39.5508	77.1148	39.5508	77.3617	39.5508	77.2126	39.5508	77.49	39.5508	77.3163	39.5508	77.6023	39.5508	77.4228	39.5508	77.6898	39.5508	77.527	39.5508	77.7453	39.5508	77.6216	39.5508	77.7648	39.5508	77.698	39.5508	77.7479
41.0156	77.1731	41.0156	77.1674	41.0156	77.1899	41.0156	77.1735	41.0156	77.2171	41.0156	77.1919	41.0156	77.2537	41.0156	77.2234	41.0156	77.2988	41.0156	77.2685	41.0156	77.3513	41.0156	77.3278	41.0156	77.4102	41.0156	77.4015	41.0156	77.4744	41.0156	77.4894	41.0156	77.5432	41.0156	77.5907	41.0156	77.6162	41.0156	77.703	41.0156	77.6935	41.0156	77.8226	41.0156	77.7751	41.0156	77.944	41.0156	77.8612	41.0156	78.0602	41.0156	77.9508	41.0156	78.163	41.0156	78.0418	41.0156	78.2447	41.0156	78.1299	41.0156	78.2986	41.0156	78.209	41.0156	78.3209	41.0156	78.2718	41.0156	78.311
42.4805	77.7669	42.4805	77.7614	42.4805	77.7837	42.4805	77.7678	42.4805	77.8112	42.4805	77.7861	42.4805	77.8488	42.4805	77.8167	42.4805	77.8954	42.4805	77.8598	42.4805	77.9497	42.4805	77.9156	42.4805	78.0103	42.4805	77.9841	42.4805	78.0759	42.4805	78.0651	42.4805	78.1453	42.4805	78.1578	42.4805	78.2175	42.4805	78.2603	42.4805	78.292	42.4805	78.3694	42.4805	78.3688	42.4805	78.4806	42.4805	78.4476	42.4805	78.5877	42.4805	78.5279	42.4805	78.6835	42.4805	78.6078	42.4805	78.7609	42.4805	78.684	42.4805	78.8138	42.4805	78.7514	42.4805	78.8385	42.4805	78.8036	42.4805	78.8343
43.9453	78.2709	43.9453	78.2663	43.9453	78.2869	43.9453	78.2733	43.9453	78.3139	43.9453	78.2917	43.9453	78.3511	43.9453	78.3217	43.9453	78.3975	43.9453	78.3631	43.9453	78.4518	43.9453	78.4159	43.9453	78.5125	43.9453	78.48	43.9453	78.5778	43.9453	78.555	43.9453	78.6464	43.9453	78.6403	43.9453	78.717	43.9453	78.7343	43.9453	78.7889	43.9453	78.8345	43.9453	78.8616	43.9453	78.9368	43.9453	78.9349	43.9453	79.0359	43.9453	79.0082	43.9453	79.1254	43.9453	79.0802	43.9453	79.1987	43.9453	79.1478	43.9453	79.2501	43.9453	79.2066	43.9453	79.2761	43.9453	79.2511	43.9453	79.2757
45.4102	78.6718	45.4102	78.6687	45.4102	78.687	45.4102	78.6777	45.4102	78.7142	45.4102	78.6986	45.4102	78.7526	45.4102	78.7308	45.4102	78.8013	45.4102	78.7741	45.4102	78.8587	45.4102	78.828	45.4102	78.923	45.4102	78.8921	45.4102	78.9925	45.4102	78.9659	45.4102	79.0651	45.4102	79.0487	45.4102	79.1392	45.4102	79.1392	45.4102	79.2136	45.4102	79.2351	45.4102	79.2875	45.4102	79.333	45.4102	79.3603	45.4102	79.4281	45.4102	79.4314	45.4102	79.5146	45.4102	79.4993	45.4102	79.5865	45.4102	79.5615	45.4102	79.6385	45.4102	79.614	45.4102	79.6671	45.4102	79.6522	45.4102	79.6711
46.875	78.98	46.875	78.9789	46.875	78.9938	46.875	78.9902	46.875	79.0203	46.875	79.0135	46.875	79.0588	46.875	79.0479	46.875	79.1083	46.875	79.0928	46.875	79.1674	46.875	79.1474	46.875	79.234	46.875	79.2113	46.875	79.3061	46.875	79.2836	46.875	79.3816	46.875	79.3637	46.875	79.4583	46.875	79.4504	46.875	79.5348	46.875	79.5417	46.875	79.6097	46.875	79.6346	46.875	79.6823	46.875	79.7251	46.875	79.7515	46.875	79.8081	46.875	79.816	46.875	79.8779	46.875	79.8736	46.875	79.9297	46.875	79.9207	46.875	79.96	46.875	79.9534	46.875	79.9675
48.3398	79.2332	48.3398	79.2338	48.3398	79.246	48.3398	79.2474	48.3398	79.2722	48.3398	79.2731	48.3398	79.3115	48.3398	79.3101	48.3398	79.3627	48.3398	79.3573	48.3398	79.4244	48.3398	79.4137	48.3398	79.4944	48.3398	79.4785	48.3398	79.5705	48.3398	79.5508	48.3398	79.6502	48.3398	79.6298	48.3398	79.7312	48.3398	79.7144	48.3398	79.8113	48.3398	79.8028	48.3398	79.8889	48.3398	79.8926	48.3398	79.9626	48.3398	79.98	48.3398	80.0313	48.3398	80.0605	48.3398	80.0935	48.3398	80.1293	48.3398	80.147	48.3398	80.1816	48.3398	80.1892	48.3398	80.2142	48.3398	80.2165	48.3398	80.2256
51.2695	79.7979	51.2695	79.8008	51.2695	79.8073	51.2695	79.8155	51.2695	79.8292	51.2695	79.8408	51.2695	79.8635	51.2695	79.8757	51.2695	79.9093	51.2695	79.9189	51.2695	79.9652	51.2695	79.9691	51.2695	80.0296	51.2695	80.0253	51.2695	80.1001	51.2695	80.0867	51.2695	80.1742	51.2695	80.1524	51.2695	80.2494	51.2695	80.2216	51.2695	80.3229	51.2695	80.2934	51.2695	80.3928	51.2695	80.366	51.2695	80.4571	51.2695	80.437	51.2695	80.5145	51.2695	80.5032	51.2695	80.5638	51.2695	80.5608	51.2695	80.6038	51.2695	80.6063	51.2695	80.633	51.2695	80.6368	51.2695	80.6494	51.2695	80.6512
52.7344	79.9887	52.7344	79.9921	52.7344	79.9975	52.7344	80.007	52.7344	80.0189	52.7344	80.0324	52.7344	80.0525	52.7344	80.067	52.7344	80.0975	52.7344	80.1095	52.7344	80.1528	52.7344	80.1585	52.7344	80.2163	52.7344	80.2128	52.7344	80.286	52.7344	80.2715	52.7344	80.3591	52.7344	80.3337	52.7344	80.4332	52.7344	80.3988	52.7344	80.5054	52.7344	80.4659	52.7344	80.5736	52.7344	80.5336	52.7344	80.6357	52.7344	80.6	52.7344	80.6903	52.7344	80.6622	52.7344	80.7363	52.7344	80.7171	52.7344	80.7724	52.7344	80.7613	52.7344	80.7975	52.7344	80.7923	52.7344	80.8101	52.7344	80.8086
54.1992	80.184	54.1992	80.1863	54.1992	80.1939	54.1992	80.2002	54.1992	80.2164	54.1992	80.2246	54.1992	80.2512	54.1992	80.2582	54.1992	80.2973	54.1992	80.2994	54.1992	80.3535	54.1992	80.3469	54.1992	80.4178	54.1992	80.3992	54.1992	80.488	54.1992	80.4554	54.1992	80.5615	54.1992	80.5145	54.1992	80.6354	54.1992	80.576	54.1992	80.707	54.1992	80.639	54.1992	80.7739	54.1992	80.7028	54.1992	80.8339	54.1992	80.7656	54.1992	80.8854	54.1992	80.8253	54.1992	80.9272	54.1992	80.8791	54.1992	80.9582	54.1992	80.9239	54.1992	80.9776	54.1992	80.9574	54.1992	80.9844	54.1992	80.9778
55.6641	80.3533	55.6641	80.3537	55.6641	80.3649	55.6641	80.3655	55.6641	80.3888	55.6641	80.3876	55.6641	80.4246	55.6641	80.4186	55.6641	80.4715	55.6641	80.4571	55.6641	80.5283	55.6641	80.5014	55.6641	80.5929	55.6641	80.5501	55.6641	80.6631	55.6641	80.6022	55.6641	80.7363	55.6641	80.6569	55.6641	80.8095	55.6641	80.7135	55.6641	80.8798	55.6641	80.7716	55.6641	80.9445	55.6641	80.8306	55.6641	81.0013	55.6641	80.8894	55.6641	81.0484	55.6641	80.9463	55.6641	81.0845	55.6641	80.999	55.6641	81.1089	55.6641	81.0449	55.6641	81.121	55.6641	81.0816	55.6641	81.1204	55.6641	81.1071
58.5938	80.7172	58.5938	80.7129	58.5938	80.7322	58.5938	80.7188	58.5938	80.758	58.5938	80.7339	58.5938	80.7942	58.5938	80.7568	58.5938	80.8399	58.5938	80.7862	58.5938	80.8938	58.5938	80.8203	58.5938	80.9541	58.5938	80.8579	58.5938	81.0187	58.5938	80.8976	58.5938	81.0848	58.5938	80.9388	58.5938	81.1498	58.5938	80.9812	58.5938	81.2106	58.5938	81.0247	58.5938	81.2644	58.5938	81.0696	58.5938	81.3089	58.5938	81.1158	58.5938	81.3421	58.5938	81.1627	58.5938	81.363	58.5938	81.2092	58.5938	81.3714	58.5938	81.2535	58.5938	81.3675	58.5938	81.2935	58.5938	81.3524	58.5938	81.3271
60.0586	80.9424	60.0586	80.934	60.0586	80.9602	60.0586	80.9349	60.0586	80.9876	60.0586	80.944	60.0586	81.0241	60.0586	80.9602	60.0586	81.0688	60.0586	80.9821	60.0586	81.1204	60.0586	81.0081	60.0586	81.1772	60.0586	81.037	60.0586	81.237	60.0586	81.0677	60.0586	81.2973	60.0586	81.0995	60.0586	81.3555	60.0586	81.1323	60.0586	81.4085	60.0586	81.1664	60.0586	81.4537	60.0586	81.2024	60.0586	81.4887	60.0586	81.2409	60.0586	81.5118	60.0586	81.2819	60.0586	81.5221	60.0586	81.3247	60.0586	81.5198	60.0586	81.3682	60.0586	81.5057	60.0586	81.4103	60.0586	81.4814	60.0586	81.4488
62.9883	81.469	62.9883	81.4531	62.9883	81.4915	62.9883	81.4436	62.9883	81.5206	62.9883	81.4399	62.9883	81.5559	62.9883	81.4409	62.9883	81.5964	62.9883	81.4455	62.9883	81.6412	62.9883	81.4526	62.9883	81.6886	62.9883	81.461	62.9883	81.7367	62.9883	81.4699	62.9883	81.7833	62.9883	81.4792	62.9883	81.8256	62.9883	81.4894	62.9883	81.861	62.9883	81.5016	62.9883	81.8868	62.9883	81.5171	62.9883	81.9007	62.9883	81.5378	62.9883	81.9014	62.9883	81.565	62.9883	81.8884	62.9883	81.5992	62.9883	81.8628	62.9883	81.64	62.9883	81.8266	62.9883	81.686	62.9883	81.7827	62.9883	81.7347
64.4531	81.7133	64.4531	81.6974	64.4531	81.7344	64.4531	81.6864	64.4531	81.7607	64.4531	81.6795	64.4531	81.7919	64.4531	81.6759	64.4531	81.8271	64.4531	81.6744	64.4531	81.8654	64.4531	81.6738	64.4531	81.9054	64.4531	81.6731	64.4531	81.9453	64.4531	81.6717	64.4531	81.9828	64.4531	81.6697	64.4531	82.0155	64.4531	81.6677	64.4531	82.0407	64.4531	81.6671	64.4531	82.056	64.4531	81.67	64.4531	82.0592	64.4531	81.6786	64.4531	82.0492	64.4531	81.695	64.4531	82.0261	64.4531	81.7204	64.4531	81.9912	64.4531	81.755	64.4531	81.9471	64.4531	81.7979	64.4531	81.8976	64.4531	81.8465
67.3828	82.1663	67.3828	82.1518	67.3828	82.1859	67.3828	82.1419	67.3828	82.2105	67.3828	82.136	67.3828	82.2395	67.3828	82.1327	67.3828	82.2722	67.3828	82.1307	67.3828	82.3073	67.3828	82.1284	67.3828	82.3432	67.3828	82.1243	67.3828	82.3783	67.3828	82.1174	67.3828	82.4101	67.3828	82.1077	67.3828	82.4362	67.3828	82.0956	67.3828	82.4539	67.3828	82.083	67.3828	82.4608	67.3828	82.0724	67.3828	82.4549	67.3828	82.0671	67.3828	82.4353	67.3828	82.0702	67.3828	82.4025	67.3828	82.0843	67.3828	82.3583	67.3828	82.1106	67.3828	82.3063	67.3828	82.1488	67.3828	82.2508	67.3828	82.1967
