"SPL Horizontal"
"On-Axis"		"10°"		"-10°"		"20°"		"-20°"		"30°"		"-30°"		"40°"		"-40°"		"50°"		"-50°"		"60°"		"-60°"		"70°"		"-70°"		"80°"		"-80°"		"90°"		"-90°"		"100°"		"-100°"		"110°"		"-110°"		"120°"		"-120°"		"130°"		"-130°"		"140°"		"-140°"		"150°"		"-150°"		"160°"		"-160°"		"170°"		"-170°"		"180°"
"Frequency [Hz]"	"Sound Pessure Level [dB]  / [2.83V 1m] "	"Frequency [Hz]"	"Sound Pessure Level [dB]  / [2.83V 1m] "	"Frequency [Hz]"	"Sound Pessure Level [dB]  / [2.83V 1m] "	"Frequency [Hz]"	"Sound Pessure Level [dB]  / [2.83V 1m] "	"Frequency [Hz]"	"Sound Pessure Level [dB]  / [2.83V 1m] "	"Frequency [Hz]"	"Sound Pessure Level [dB]  / [2.83V 1m] "	"Frequency [Hz]"	"Sound Pessure Level [dB]  / [2.83V 1m] "	"Frequency [Hz]"	"Sound Pessure Level [dB]  / [2.83V 1m] "	"Frequency [Hz]"	"Sound Pessure Level [dB]  / [2.83V 1m] "	"Frequency [Hz]"	"Sound Pessure Level [dB]  / [2.83V 1m] "	"Frequency [Hz]"	"Sound Pessure Level [dB]  / [2.83V 1m] "	"Frequency [Hz]"	"Sound Pessure Level [dB]  / [2.83V 1m] "	"Frequency [Hz]"	"Sound Pessure Level [dB]  / [2.83V 1m] "	"Frequency [Hz]"	"Sound Pessure Level [dB]  / [2.83V 1m] "	"Frequency [Hz]"	"Sound Pessure Level [dB]  / [2.83V 1m] "	"Frequency [Hz]"	"Sound Pessure Level [dB]  / [2.83V 1m] "	"Frequency [Hz]"	"Sound Pessure Level [dB]  / [2.83V 1m] "	"Frequency [Hz]"	"Sound Pessure Level [dB]  / [2.83V 1m] "	"Frequency [Hz]"	"Sound Pessure Level [dB]  / [2.83V 1m] "	"Frequency [Hz]"	"Sound Pessure Level [dB]  / [2.83V 1m] "	"Frequency [Hz]"	"Sound Pessure Level [dB]  / [2.83V 1m] "	"Frequency [Hz]"	"Sound Pessure Level [dB]  / [2.83V 1m] "	"Frequency [Hz]"	"Sound Pessure Level [dB]  / [2.83V 1m] "	"Frequency [Hz]"	"Sound Pessure Level [dB]  / [2.83V 1m] "	"Frequency [Hz]"	"Sound Pessure Level [dB]  / [2.83V 1m] "	"Frequency [Hz]"	"Sound Pessure Level [dB]  / [2.83V 1m] "	"Frequency [Hz]"	"Sound Pessure Level [dB]  / [2.83V 1m] "	"Frequency [Hz]"	"Sound Pessure Level [dB]  / [2.83V 1m] "	"Frequency [Hz]"	"Sound Pessure Level [dB]  / [2.83V 1m] "	"Frequency [Hz]"	"Sound Pessure Level [dB]  / [2.83V 1m] "	"Frequency [Hz]"	"Sound Pessure Level [dB]  / [2.83V 1m] "	"Frequency [Hz]"	"Sound Pessure Level [dB]  / [2.83V 1m] "	"Frequency [Hz]"	"Sound Pessure Level [dB]  / [2.83V 1m] "	"Frequency [Hz]"	"Sound Pessure Level [dB]  / [2.83V 1m] "	"Frequency [Hz]"	"Sound Pessure Level [dB]  / [2.83V 1m] "	"Frequency [Hz]"	"Sound Pessure Level [dB]  / [2.83V 1m] "
20.5078	63.8128	20.5078	63.8347	20.5078	63.8088	20.5078	63.8733	20.5078	63.8212	20.5078	63.9257	20.5078	63.8465	20.5078	63.988	20.5078	63.8798	20.5078	64.0563	20.5078	63.9169	20.5078	64.1277	20.5078	63.9547	20.5078	64.2	20.5078	63.9921	20.5078	64.2717	20.5078	64.029	20.5078	64.3414	20.5078	64.0657	20.5078	64.4079	20.5078	64.1021	20.5078	64.4699	20.5078	64.1382	20.5078	64.5256	20.5078	64.1734	20.5078	64.5712	20.5078	64.2081	20.5078	64.6002	20.5078	64.2438	20.5078	64.6049	20.5078	64.2844	20.5078	64.5809	20.5078	64.3342	20.5078	64.5307	20.5078	64.3955	20.5078	64.4645
21.9727	67.944	21.9727	67.9388	21.9727	67.9499	21.9727	67.9344	21.9727	67.9567	21.9727	67.9315	21.9727	67.9652	21.9727	67.9307	21.9727	67.9753	21.9727	67.9325	21.9727	67.9868	21.9727	67.9372	21.9727	67.9978	21.9727	67.9437	21.9727	68.006	21.9727	67.9504	21.9727	68.008	21.9727	67.9548	21.9727	68.0012	21.9727	67.9544	21.9727	67.9832	21.9727	67.9468	21.9727	67.9535	21.9727	67.9309	21.9727	67.913	21.9727	67.9068	21.9727	67.8657	21.9727	67.876	21.9727	67.8177	21.9727	67.841	21.9727	67.7768	21.9727	67.8052	21.9727	67.75	21.9727	67.7732	21.9727	67.7411	21.9727	67.75
23.4375	69.7468	23.4375	69.7248	23.4375	69.7703	23.4375	69.7047	23.4375	69.7944	23.4375	69.6858	23.4375	69.8168	23.4375	69.6672	23.4375	69.8346	23.4375	69.6473	23.4375	69.8449	23.4375	69.6247	23.4375	69.8446	23.4375	69.5981	23.4375	69.8318	23.4375	69.5668	23.4375	69.8051	23.4375	69.5309	23.4375	69.7644	23.4375	69.4916	23.4375	69.7108	23.4375	69.4509	23.4375	69.6466	23.4375	69.4108	23.4375	69.5755	23.4375	69.3734	23.4375	69.502	23.4375	69.3398	23.4375	69.4314	23.4375	69.3107	23.4375	69.369	23.4375	69.2878	23.4375	69.3197	23.4375	69.2737	23.4375	69.2871	23.4375	69.2723
24.9023	72.0654	24.9023	72.0682	24.9023	72.0625	24.9023	72.0698	24.9023	72.0594	24.9023	72.0684	24.9023	72.0551	24.9023	72.0616	24.9023	72.0475	24.9023	72.047	24.9023	72.0344	24.9023	72.0224	24.9023	72.0132	24.9023	71.9863	24.9023	71.9817	24.9023	71.9385	24.9023	71.9385	24.9023	71.8801	24.9023	71.883	24.9023	71.8131	24.9023	71.8161	24.9023	71.7408	24.9023	71.7399	24.9023	71.6665	24.9023	71.6581	24.9023	71.5931	24.9023	71.5756	24.9023	71.5237	24.9023	71.4983	24.9023	71.4609	24.9023	71.4322	24.9023	71.4083	24.9023	71.3832	24.9023	71.3705	24.9023	71.3558	24.9023	71.3518
26.3672	74.5769	26.3672	74.5692	26.3672	74.5789	26.3672	74.556	26.3672	74.5748	26.3672	74.537	26.3672	74.5637	26.3672	74.5119	26.3672	74.5451	26.3672	74.48	26.3672	74.5179	26.3672	74.4406	26.3672	74.4816	26.3672	74.3935	26.3672	74.4355	26.3672	74.3392	26.3672	74.3793	26.3672	74.2791	26.3672	74.3136	26.3672	74.215	26.3672	74.2397	26.3672	74.149	26.3672	74.1601	26.3672	74.0832	26.3672	74.0783	26.3672	74.0192	26.3672	73.9989	26.3672	73.9584	26.3672	73.9268	26.3672	73.9027	26.3672	73.8671	26.3672	73.8551	26.3672	73.8243	26.3672	73.8196	26.3672	73.8018	26.3672	73.8007
27.832	75.3863	27.832	75.3644	27.832	75.4024	27.832	75.3355	27.832	75.4127	27.832	75.2976	27.832	75.4157	27.832	75.2481	27.832	75.4088	27.832	75.1849	27.832	75.3889	27.832	75.1065	27.832	75.3528	27.832	75.0123	27.832	75.2984	27.832	74.9034	27.832	75.2245	27.832	74.7822	27.832	75.1318	27.832	74.6528	27.832	75.0221	27.832	74.521	27.832	74.899	27.832	74.394	27.832	74.7671	27.832	74.28	27.832	74.632	27.832	74.1868	27.832	74.5	27.832	74.1212	27.832	74.3769	27.832	74.0874	27.832	74.2688	27.832	74.087	27.832	74.1812	27.832	74.1192
29.2969	77.8098	29.2969	77.8108	29.2969	77.8001	29.2969	77.803	29.2969	77.7816	29.2969	77.7864	29.2969	77.7545	29.2969	77.7607	29.2969	77.719	29.2969	77.726	29.2969	77.6752	29.2969	77.6826	29.2969	77.6238	29.2969	77.6317	29.2969	77.5653	29.2969	77.575	29.2969	77.5009	29.2969	77.5153	29.2969	77.432	29.2969	77.4556	29.2969	77.3606	29.2969	77.3989	29.2969	77.2895	29.2969	77.3468	29.2969	77.2223	29.2969	77.2991	29.2969	77.1629	29.2969	77.2543	29.2969	77.1154	29.2969	77.2103	29.2969	77.0831	29.2969	77.1669	29.2969	77.0685	29.2969	77.1263	29.2969	77.0724	29.2969	77.093
30.7617	79.3851	30.7617	79.3675	30.7617	79.3902	30.7617	79.3376	30.7617	79.3826	30.7617	79.2951	30.7617	79.3617	30.7617	79.2397	30.7617	79.3269	30.7617	79.1712	30.7617	79.2778	30.7617	79.0893	30.7617	79.2142	30.7617	78.9946	30.7617	79.1368	30.7617	78.888	30.7617	79.0467	30.7617	78.7717	30.7617	78.946	30.7617	78.649	30.7617	78.8373	30.7617	78.5243	30.7617	78.7242	30.7617	78.4036	30.7617	78.6104	30.7617	78.2937	30.7617	78.4998	30.7617	78.2021	30.7617	78.3958	30.7617	78.1352	30.7617	78.3016	30.7617	78.0972	30.7617	78.2203	30.7617	78.0895	30.7617	78.1551	30.7617	78.11
32.2266	80.4519	32.2266	80.4535	32.2266	80.44	32.2266	80.4446	32.2266	80.4179	32.2266	80.4248	32.2266	80.3854	32.2266	80.3936	32.2266	80.3423	32.2266	80.3508	32.2266	80.2884	32.2266	80.2967	32.2266	80.2239	32.2266	80.2324	32.2266	80.1498	32.2266	80.1597	32.2266	80.0675	32.2266	80.0813	32.2266	79.9798	32.2266	80.0003	32.2266	79.8899	32.2266	79.9199	32.2266	79.8017	32.2266	79.8428	32.2266	79.7193	32.2266	79.771	32.2266	79.6469	32.2266	79.7054	32.2266	79.5882	32.2266	79.6468	32.2266	79.5458	32.2266	79.5963	32.2266	79.5216	32.2266	79.5558	32.2266	79.516	32.2266	79.5282
33.6914	81.6708	33.6914	81.6635	33.6914	81.6646	33.6914	81.6425	33.6914	81.6448	33.6914	81.6076	33.6914	81.6115	33.6914	81.5587	33.6914	81.5646	33.6914	81.4959	33.6914	81.5041	33.6914	81.4197	33.6914	81.4306	33.6914	81.3314	33.6914	81.3451	33.6914	81.2329	33.6914	81.2493	33.6914	81.1273	33.6914	81.1458	33.6914	81.0184	33.6914	81.0378	33.6914	80.9106	33.6914	80.9295	33.6914	80.8086	33.6914	80.8251	33.6914	80.7164	33.6914	80.7291	33.6914	80.6374	33.6914	80.6456	33.6914	80.5738	33.6914	80.578	33.6914	80.5273	33.6914	80.5287	33.6914	80.4988	33.6914	80.499	33.6914	80.4892
35.1562	82.4626	35.1562	82.4514	35.1562	82.46	35.1562	82.4264	35.1562	82.4437	35.1562	82.3873	35.1562	82.4137	35.1562	82.3344	35.1562	82.3703	35.1562	82.2681	35.1562	82.3136	35.1562	82.1891	35.1562	82.2442	35.1562	82.0991	35.1562	82.1634	35.1562	82.0003	35.1562	82.0728	35.1562	81.8959	35.1562	81.9751	35.1562	81.7897	35.1562	81.8733	35.1562	81.6859	35.1562	81.771	35.1562	81.5887	35.1562	81.672	35.1562	81.5021	35.1562	81.5799	35.1562	81.4296	35.1562	81.4981	35.1562	81.3737	35.1562	81.4292	35.1562	81.3362	35.1562	81.3753	35.1562	81.3178	35.1562	81.3381	35.1562	81.3186
36.6211	83.1329	36.6211	83.1215	36.6211	83.1297	36.6211	83.0958	36.6211	83.1121	36.6211	83.056	36.6211	83.08	36.6211	83.0028	36.6211	83.0338	36.6211	82.9371	36.6211	82.9741	36.6211	82.8605	36.6211	82.902	36.6211	82.775	36.6211	82.819	36.6211	82.6834	36.6211	82.7275	36.6211	82.5889	36.6211	82.6303	36.6211	82.4949	36.6211	82.5309	36.6211	82.4049	36.6211	82.4334	36.6211	82.3218	36.6211	82.3415	36.6211	82.2478	36.6211	82.2589	36.6211	82.1848	36.6211	82.1886	36.6211	82.1337	36.6211	82.1327	36.6211	82.0956	36.6211	82.0928	36.6211	82.0716	36.6211	82.0694	36.6211	82.0625
38.0859	83.5435	38.0859	83.5281	38.0859	83.5417	38.0859	83.4955	38.0859	83.5232	38.0859	83.4458	38.0859	83.4882	38.0859	83.3793	38.0859	83.4375	38.0859	83.2969	38.0859	83.3717	38.0859	83.2001	38.0859	83.292	38.0859	83.0911	38.0859	83.2002	38.0859	82.9731	38.0859	83.0982	38.0859	82.8497	38.0859	82.9889	38.0859	82.7257	38.0859	82.8755	38.0859	82.6057	38.0859	82.7613	38.0859	82.4947	38.0859	82.6503	38.0859	82.3975	38.0859	82.5459	38.0859	82.3181	38.0859	82.4516	38.0859	82.2598	38.0859	82.3699	38.0859	82.2244	38.0859	82.3033	38.0859	82.2124	38.0859	82.2536	38.0859	82.2226
39.5508	84.0597	39.5508	84.0493	39.5508	84.0527	39.5508	84.0217	39.5508	84.0287	39.5508	83.9773	39.5508	83.9883	39.5508	83.9167	39.5508	83.9323	39.5508	83.8414	39.5508	83.862	39.5508	83.7531	39.5508	83.7792	39.5508	83.6546	39.5508	83.686	39.5508	83.549	39.5508	83.5852	39.5508	83.4402	39.5508	83.48	39.5508	83.3324	39.5508	83.3738	39.5508	83.2297	39.5508	83.2704	39.5508	83.1358	39.5508	83.1734	39.5508	83.0536	39.5508	83.086	39.5508	82.9851	39.5508	83.011	39.5508	82.9315	39.5508	82.9506	39.5508	82.8936	39.5508	82.9059	39.5508	82.8718	39.5508	82.8778	39.5508	82.8665
41.0156	84.2584	41.0156	84.2494	41.0156	84.2485	41.0156	84.2213	41.0156	84.2199	41.0156	84.1744	41.0156	84.1735	41.0156	84.1095	41.0156	84.1103	41.0156	84.0276	41.0156	84.0318	41.0156	83.9307	41.0156	83.9398	41.0156	83.8215	41.0156	83.8371	41.0156	83.7035	41.0156	83.7266	41.0156	83.5809	41.0156	83.6119	41.0156	83.4587	41.0156	83.4969	41.0156	83.3418	41.0156	83.3855	41.0156	83.2351	41.0156	83.2814	41.0156	83.1425	41.0156	83.1879	41.0156	83.0666	41.0156	83.1077	41.0156	83.009	41.0156	83.0425	41.0156	82.9701	41.0156	82.9935	41.0156	82.9494	41.0156	82.9614	41.0156	82.9466
42.4805	84.6369	42.4805	84.6357	42.4805	84.618	42.4805	84.6145	42.4805	84.5797	42.4805	84.5736	42.4805	84.523	42.4805	84.5136	42.4805	84.4493	42.4805	84.4361	42.4805	84.3606	42.4805	84.3427	42.4805	84.2595	42.4805	84.2362	42.4805	84.149	42.4805	84.1197	42.4805	84.0327	42.4805	83.9974	42.4805	83.9146	42.4805	83.8738	42.4805	83.7987	42.4805	83.7537	42.4805	83.6891	42.4805	83.6418	42.4805	83.5894	42.4805	83.5422	42.4805	83.5025	42.4805	83.4583	42.4805	83.4305	42.4805	83.3922	42.4805	83.3745	42.4805	83.3448	42.4805	83.3348	42.4805	83.316	42.4805	83.3117	42.4805	83.3053
43.9453	84.8285	43.9453	84.8355	43.9453	84.8011	43.9453	84.8217	43.9453	84.7536	43.9453	84.7876	43.9453	84.6874	43.9453	84.734	43.9453	84.6041	43.9453	84.6623	43.9453	84.5061	43.9453	84.5744	43.9453	84.3963	43.9453	84.4731	43.9453	84.2783	43.9453	84.3617	43.9453	84.1565	43.9453	84.2444	43.9453	84.0352	43.9453	84.1257	43.9453	83.9192	43.9453	84.01	43.9453	83.8128	43.9453	83.9018	43.9453	83.7198	43.9453	83.8043	43.9453	83.643	43.9453	83.7197	43.9453	83.5841	43.9453	83.6494	43.9453	83.5436	43.9453	83.5938	43.9453	83.5211	43.9453	83.5527	43.9453	83.5158	43.9453	83.5266
45.4102	85.0768	45.4102	85.0847	45.4102	85.0468	45.4102	85.0706	45.4102	84.9952	45.4102	85.0351	45.4102	84.923	45.4102	84.9794	45.4102	84.8319	45.4102	84.905	45.4102	84.7242	45.4102	84.8142	45.4102	84.6031	45.4102	84.7097	45.4102	84.4727	45.4102	84.5948	45.4102	84.3375	45.4102	84.4732	45.4102	84.2029	45.4102	84.349	45.4102	84.0743	45.4102	84.2263	45.4102	83.9569	45.4102	84.1092	45.4102	83.8553	45.4102	84.0012	45.4102	83.7726	45.4102	83.9052	45.4102	83.7109	45.4102	83.8231	45.4102	83.6706	45.4102	83.7561	45.4102	83.6512	45.4102	83.7047	45.4102	83.6513	45.4102	83.6695
46.875	85.3161	46.875	85.3167	46.875	85.2943	46.875	85.2961	46.875	85.2514	46.875	85.2551	46.875	85.1883	46.875	85.1949	46.875	85.1066	46.875	85.1175	46.875	85.0082	46.875	85.0253	46.875	84.8961	46.875	84.9213	46.875	84.774	46.875	84.809	46.875	84.6464	46.875	84.6923	46.875	84.5184	46.875	84.5755	46.875	84.3954	46.875	84.4624	46.875	84.2826	46.875	84.3567	46.875	84.1844	46.875	84.2616	46.875	84.1041	46.875	84.179	46.875	84.0435	46.875	84.1102	46.875	84.0029	46.875	84.0555	46.875	83.9813	46.875	84.0151	46.875	83.9771	46.875	83.9887
48.3398	85.5619	48.3398	85.5531	48.3398	85.5473	48.3398	85.5215	48.3398	85.5094	48.3398	85.4684	48.3398	85.4491	48.3398	85.3958	48.3398	85.3678	48.3398	85.3061	48.3398	85.268	48.3398	85.2027	48.3398	85.1529	48.3398	85.0896	48.3398	85.0266	48.3398	84.971	48.3398	84.8939	48.3398	84.8516	48.3398	84.7603	48.3398	84.736	48.3398	84.6318	48.3398	84.6283	48.3398	84.5139	48.3398	84.5315	48.3398	84.4117	48.3398	84.4475	48.3398	84.3286	48.3398	84.3767	48.3398	84.2665	48.3398	84.3186	48.3398	84.2257	48.3398	84.2721	48.3398	84.2046	48.3398	84.2366	48.3398	84.2011	48.3398	84.2125
51.2695	86.0097	51.2695	86.0014	51.2695	85.9929	51.2695	85.9687	51.2695	85.9511	51.2695	85.9127	51.2695	85.8853	51.2695	85.8352	51.2695	85.7972	51.2695	85.7389	51.2695	85.6892	51.2695	85.627	51.2695	85.5647	51.2695	85.5036	51.2695	85.4283	51.2695	85.3732	51.2695	85.285	51.2695	85.2408	51.2695	85.1409	51.2695	85.1114	51.2695	85.0021	51.2695	84.9896	51.2695	84.8747	51.2695	84.8793	51.2695	84.7639	51.2695	84.7831	51.2695	84.6732	51.2695	84.7024	51.2695	84.6043	51.2695	84.6373	51.2695	84.5573	51.2695	84.5873	51.2695	84.5306	51.2695	84.5515	51.2695	84.5221	51.2695	84.5296
52.7344	86.0388	52.7344	86.0305	52.7344	86.0207	52.7344	85.9965	52.7344	85.9767	52.7344	85.9378	52.7344	85.9076	52.7344	85.8564	52.7344	85.8152	52.7344	85.755	52.7344	85.7021	52.7344	85.6372	52.7344	85.5718	52.7344	85.5076	52.7344	85.4288	52.7344	85.3711	52.7344	85.2784	52.7344	85.2335	52.7344	85.127	52.7344	85.1001	52.7344	84.9811	52.7344	84.976	52.7344	84.8473	52.7344	84.865	52.7344	84.7314	52.7344	84.7694	52.7344	84.6375	52.7344	84.6897	52.7344	84.5677	52.7344	84.6249	52.7344	84.5222	52.7344	84.5736	52.7344	84.4991	52.7344	84.5347	52.7344	84.4955	52.7344	84.5082
54.1992	86.2656	54.1992	86.2603	54.1992	86.2442	54.1992	86.2287	54.1992	86.1963	54.1992	86.172	54.1992	86.1229	54.1992	86.0924	54.1992	86.0261	54.1992	85.9926	54.1992	85.9088	54.1992	85.8762	54.1992	85.7748	54.1992	85.7475	54.1992	85.629	54.1992	85.6113	54.1992	85.4768	54.1992	85.4727	54.1992	85.3248	54.1992	85.337	54.1992	85.1794	54.1992	85.2089	54.1992	85.0471	54.1992	85.0922	54.1992	84.9333	54.1992	84.99	54.1992	84.8416	54.1992	84.9037	54.1992	84.7738	54.1992	84.8336	54.1992	84.7295	54.1992	84.7793	54.1992	84.7065	54.1992	84.7395	54.1992	84.7021	54.1992	84.7136
55.6641	86.4752	55.6641	86.4659	55.6641	86.457	55.6641	86.4298	55.6641	86.4114	55.6641	86.3688	55.6641	86.3391	55.6641	86.2852	55.6641	86.2423	55.6641	86.1826	55.6641	86.1237	55.6641	86.065	55.6641	85.9872	55.6641	85.9373	55.6641	85.8378	55.6641	85.8046	55.6641	85.6816	55.6641	85.6723	55.6641	85.5252	55.6641	85.5452	55.6641	85.3759	55.6641	85.4275	55.6641	85.2406	55.6641	85.3218	55.6641	85.1254	55.6641	85.2295	55.6641	85.0346	55.6641	85.1505	55.6641	84.9702	55.6641	85.0835	55.6641	84.9321	55.6641	85.0273	55.6641	84.9178	55.6641	84.9813	55.6641	84.9238	55.6641	84.946
58.5938	86.9469	58.5938	86.9235	58.5938	86.9426	58.5938	86.8735	58.5938	86.9106	58.5938	86.7989	58.5938	86.8518	58.5938	86.7025	58.5938	86.7679	58.5938	86.5885	58.5938	86.6618	58.5938	86.4617	58.5938	86.5375	58.5938	86.3279	58.5938	86.4	58.5938	86.1931	58.5938	86.2554	58.5938	86.0636	58.5938	86.1104	58.5938	85.945	58.5938	85.972	58.5938	85.8413	58.5938	85.8469	58.5938	85.7551	58.5938	85.7404	58.5938	85.6866	58.5938	85.6559	58.5938	85.6343	58.5938	85.5945	58.5938	85.5954	58.5938	85.5549	58.5938	85.5669	58.5938	85.5341	58.5938	85.5464	58.5938	85.5281	58.5938	85.5331
60.0586	87.1251	60.0586	87.0974	60.0586	87.1237	60.0586	87.0419	60.0586	87.0932	60.0586	86.9607	60.0586	87.0346	60.0586	86.8571	60.0586	86.9499	60.0586	86.7356	60.0586	86.8422	60.0586	86.6018	60.0586	86.716	60.0586	86.4621	60.0586	86.5765	60.0586	86.3233	60.0586	86.4305	60.0586	86.1925	60.0586	86.2849	60.0586	86.0756	60.0586	86.1473	60.0586	85.9769	60.0586	86.0242	60.0586	85.8984	60.0586	85.9212	60.0586	85.8399	60.0586	85.8411	60.0586	85.7986	60.0586	85.7845	60.0586	85.7706	60.0586	85.7493	60.0586	85.7516	60.0586	85.7315	60.0586	85.7384	60.0586	85.7264	60.0586	85.7297
62.9883	87.5315	62.9883	87.5025	62.9883	87.5288	62.9883	87.4429	62.9883	87.4944	62.9883	87.3549	62.9883	87.4296	62.9883	87.2421	62.9883	87.3367	62.9883	87.1092	62.9883	87.2191	62.9883	86.9624	62.9883	87.0818	62.9883	86.8089	62.9883	86.9306	62.9883	86.6566	62.9883	86.7728	62.9883	86.5133	62.9883	86.616	62.9883	86.3861	62.9883	86.4685	62.9883	86.2799	62.9883	86.3374	62.9883	86.197	62.9883	86.2285	62.9883	86.1369	62.9883	86.1448	62.9883	86.0961	62.9883	86.0866	62.9883	86.0698	62.9883	86.0513	62.9883	86.0529	62.9883	86.0343	62.9883	86.0414	62.9883	86.03	62.9883	86.0335
64.4531	87.689	64.4531	87.6543	64.4531	87.6909	64.4531	87.588	64.4531	87.6602	64.4531	87.4928	64.4531	87.5978	64.4531	87.3724	64.4531	87.5063	64.4531	87.2322	64.4531	87.3894	64.4531	87.0789	64.4531	87.2519	64.4531	86.9203	64.4531	87.1002	64.4531	86.7648	64.4531	86.9416	64.4531	86.6209	64.4531	86.7841	64.4531	86.4955	64.4531	86.6359	64.4531	86.3937	64.4531	86.5045	64.4531	86.3172	64.4531	86.3955	64.4531	86.2648	64.4531	86.3119	64.4531	86.2322	64.4531	86.2539	64.4531	86.2139	64.4531	86.2183	64.4531	86.204	64.4531	86.2004	64.4531	86.1983	64.4531	86.1943	64.4531	86.1947
67.3828	88.0383	67.3828	87.9893	67.3828	88.0513	67.3828	87.9052	67.3828	88.0282	67.3828	87.7887	67.3828	87.9707	67.3828	87.6439	67.3828	87.8812	67.3828	87.4766	67.3828	87.7639	67.3828	87.2947	67.3828	87.6239	67.3828	87.1073	67.3828	87.4678	67.3828	86.9248	67.3828	87.3034	67.3828	86.758	67.3828	87.1391	67.3828	86.6163	67.3828	86.9834	67.3828	86.5063	67.3828	86.8439	67.3828	86.4308	67.3828	86.7264	67.3828	86.3882	67.3828	86.6334	67.3828	86.3728	67.3828	86.5645	67.3828	86.3771	67.3828	86.5159	67.3828	86.3927	67.3828	86.482	67.3828	86.4132	67.3828	86.4567	67.3828	86.4346
68.8477	88.2679	68.8477	88.2183	68.8477	88.2805	68.8477	88.1326	68.8477	88.2562	68.8477	88.0133	68.8477	88.1968	68.8477	87.8644	68.8477	88.1051	68.8477	87.6921	68.8477	87.9853	68.8477	87.5041	68.8477	87.843	68.8477	87.3102	68.8477	87.685	68.8477	87.1217	68.8477	87.5194	68.8477	86.9499	68.8477	87.3549	68.8477	86.805	68.8477	87.2002	68.8477	86.6946	68.8477	87.0631	68.8477	86.6216	68.8477	86.9489	68.8477	86.5842	68.8477	86.86	68.8477	86.576	68.8477	86.7951	68.8477	86.5883	68.8477	86.7497	68.8477	86.6121	68.8477	86.7174	68.8477	86.6396	68.8477	86.6914	68.8477	86.6664
