"SPL Horizontal"
"On-Axis"		"10°"		"-10°"		"20°"		"-20°"		"30°"		"-30°"		"40°"		"-40°"		"50°"		"-50°"		"60°"		"-60°"		"70°"		"-70°"		"80°"		"-80°"		"90°"		"-90°"		"100°"		"-100°"		"110°"		"-110°"		"120°"		"-120°"		"130°"		"-130°"		"140°"		"-140°"		"150°"		"-150°"		"160°"		"-160°"		"170°"		"-170°"		"180°"
"Frequency [Hz]"	"Sound Pessure Level [dB]  / [2.83V 1m] "	"Frequency [Hz]"	"Sound Pessure Level [dB]  / [2.83V 1m] "	"Frequency [Hz]"	"Sound Pessure Level [dB]  / [2.83V 1m] "	"Frequency [Hz]"	"Sound Pessure Level [dB]  / [2.83V 1m] "	"Frequency [Hz]"	"Sound Pessure Level [dB]  / [2.83V 1m] "	"Frequency [Hz]"	"Sound Pessure Level [dB]  / [2.83V 1m] "	"Frequency [Hz]"	"Sound Pessure Level [dB]  / [2.83V 1m] "	"Frequency [Hz]"	"Sound Pessure Level [dB]  / [2.83V 1m] "	"Frequency [Hz]"	"Sound Pessure Level [dB]  / [2.83V 1m] "	"Frequency [Hz]"	"Sound Pessure Level [dB]  / [2.83V 1m] "	"Frequency [Hz]"	"Sound Pessure Level [dB]  / [2.83V 1m] "	"Frequency [Hz]"	"Sound Pessure Level [dB]  / [2.83V 1m] "	"Frequency [Hz]"	"Sound Pessure Level [dB]  / [2.83V 1m] "	"Frequency [Hz]"	"Sound Pessure Level [dB]  / [2.83V 1m] "	"Frequency [Hz]"	"Sound Pessure Level [dB]  / [2.83V 1m] "	"Frequency [Hz]"	"Sound Pessure Level [dB]  / [2.83V 1m] "	"Frequency [Hz]"	"Sound Pessure Level [dB]  / [2.83V 1m] "	"Frequency [Hz]"	"Sound Pessure Level [dB]  / [2.83V 1m] "	"Frequency [Hz]"	"Sound Pessure Level [dB]  / [2.83V 1m] "	"Frequency [Hz]"	"Sound Pessure Level [dB]  / [2.83V 1m] "	"Frequency [Hz]"	"Sound Pessure Level [dB]  / [2.83V 1m] "	"Frequency [Hz]"	"Sound Pessure Level [dB]  / [2.83V 1m] "	"Frequency [Hz]"	"Sound Pessure Level [dB]  / [2.83V 1m] "	"Frequency [Hz]"	"Sound Pessure Level [dB]  / [2.83V 1m] "	"Frequency [Hz]"	"Sound Pessure Level [dB]  / [2.83V 1m] "	"Frequency [Hz]"	"Sound Pessure Level [dB]  / [2.83V 1m] "	"Frequency [Hz]"	"Sound Pessure Level [dB]  / [2.83V 1m] "	"Frequency [Hz]"	"Sound Pessure Level [dB]  / [2.83V 1m] "	"Frequency [Hz]"	"Sound Pessure Level [dB]  / [2.83V 1m] "	"Frequency [Hz]"	"Sound Pessure Level [dB]  / [2.83V 1m] "	"Frequency [Hz]"	"Sound Pessure Level [dB]  / [2.83V 1m] "	"Frequency [Hz]"	"Sound Pessure Level [dB]  / [2.83V 1m] "	"Frequency [Hz]"	"Sound Pessure Level [dB]  / [2.83V 1m] "	"Frequency [Hz]"	"Sound Pessure Level [dB]  / [2.83V 1m] "	"Frequency [Hz]"	"Sound Pessure Level [dB]  / [2.83V 1m] "	"Frequency [Hz]"	"Sound Pessure Level [dB]  / [2.83V 1m] "
20.5078	48.68	20.5078	48.5554	20.5078	48.6051	20.5078	48.241	20.5078	48.3241	20.5078	47.757	20.5078	47.8325	20.5078	47.1503	20.5078	47.1347	20.5078	46.5259	20.5078	46.264	20.5078	46.0793	20.5078	45.3337	20.5078	46.0686	20.5078	44.6197	20.5078	46.6463	20.5078	44.5499	20.5078	47.7086	20.5078	45.3556	20.5078	49.001	20.5078	46.775	20.5078	50.3065	20.5078	48.3815	20.5078	51.5014	20.5078	49.9096	20.5078	52.5274	20.5078	51.2508	20.5078	53.3596	20.5078	52.3711	20.5078	53.9873	20.5078	53.2642	20.5078	54.4056	20.5078	53.9317	20.5078	54.6115	20.5078	54.3769	20.5078	54.6026
21.9727	52.0236	21.9727	51.8737	21.9727	51.9759	21.9727	51.5216	21.9727	51.7301	21.9727	50.958	21.9727	51.2817	21.9727	50.1726	21.9727	50.6271	21.9727	49.1678	21.9727	49.7768	21.9727	47.9998	21.9727	48.7865	21.9727	46.878	21.9727	47.8263	21.9727	46.2833	21.9727	47.2526	21.9727	46.7203	21.9727	47.4677	21.9727	48.0629	21.9727	48.4869	21.9727	49.7354	21.9727	49.9145	21.9727	51.3375	21.9727	51.3761	21.9727	52.7154	21.9727	52.6845	21.9727	53.8306	21.9727	53.772	21.9727	54.682	21.9727	54.6209	21.9727	55.2775	21.9727	55.2293	21.9727	55.6254	21.9727	55.5991	21.9727	55.7314
23.4375	51.899	23.4375	51.7209	23.4375	51.8763	23.4375	51.3405	23.4375	51.6547	23.4375	50.7628	23.4375	51.2384	23.4375	50.0143	23.4375	50.6408	23.4375	49.1817	23.4375	49.9051	23.4375	48.4767	23.4375	49.1448	23.4375	48.2573	23.4375	48.597	23.4375	48.8083	23.4375	48.5907	23.4375	50.0178	23.4375	49.2988	23.4375	51.5133	23.4375	50.5403	23.4375	52.999	23.4375	51.9826	23.4375	54.3312	23.4375	53.3871	23.4375	55.4569	23.4375	54.6387	23.4375	56.3608	23.4375	55.6925	23.4375	57.0412	23.4375	56.5339	23.4375	57.5002	23.4375	57.1595	23.4375	57.74	23.4375	57.5691	23.4375	57.7627
24.9023	54.0565	24.9023	53.9446	24.9023	54.0111	24.9023	53.6836	24.9023	53.8072	24.9023	53.294	24.9023	53.4523	24.9023	52.8203	24.9023	52.9695	24.9023	52.3492	24.9023	52.4135	24.9023	52.026	24.9023	51.8961	24.9023	52.031	24.9023	51.6007	24.9023	52.4818	24.9023	51.7298	24.9023	53.3368	24.9023	52.3647	24.9023	54.429	24.9023	53.3881	24.9023	55.5818	24.9023	54.5881	24.9023	56.6727	24.9023	55.7886	24.9023	57.6327	24.9023	56.8854	24.9023	58.4267	24.9023	57.8259	24.9023	59.0372	24.9023	58.5861	24.9023	59.4557	24.9023	59.155	24.9023	59.6781	24.9023	59.5278	24.9023	59.7023
26.3672	56.2326	26.3672	56.1353	26.3672	56.1836	26.3672	55.8976	26.3672	55.9882	26.3672	55.5352	26.3672	55.6534	26.3672	55.0814	26.3672	55.1982	26.3672	54.6021	26.3672	54.6659	26.3672	54.2097	26.3672	54.1423	26.3672	54.0576	26.3672	53.7705	26.3672	54.2796	26.3672	53.7266	26.3672	54.8971	26.3672	54.1233	26.3672	55.7996	26.3672	54.9177	26.3672	56.8248	26.3672	55.9453	26.3672	57.8376	26.3672	57.0328	26.3672	58.7518	26.3672	58.0594	26.3672	59.5196	26.3672	58.957	26.3672	60.1158	26.3672	59.6905	26.3672	60.5274	26.3672	60.2427	26.3672	60.7478	26.3672	60.6052	26.3672	60.774
27.832	57.8979	27.832	57.8176	27.832	57.8495	27.832	57.6105	27.832	57.6756	27.832	57.2861	27.832	57.3866	27.832	56.8674	27.832	57.005	27.832	56.4031	27.832	56.5752	27.832	55.9826	27.832	56.1758	27.832	55.7405	27.832	55.9238	27.832	55.82	27.832	55.9484	27.832	56.2886	27.832	56.325	27.832	57.0823	27.832	57.0202	27.832	58.0526	27.832	57.9139	27.832	59.053	27.832	58.871	27.832	59.9812	27.832	59.787	27.832	60.777	27.832	60.5955	27.832	61.4081	27.832	61.2576	27.832	61.8581	27.832	61.7511	27.832	62.1187	27.832	62.0632	27.832	62.1869
29.2969	59.2802	29.2969	59.21	29.2969	59.244	29.2969	59.039	29.2969	59.103	29.2969	58.7828	29.2969	58.8672	29.2969	58.4718	29.2969	58.5591	29.2969	58.1598	29.2969	58.2207	29.2969	57.9294	29.2969	57.9216	29.2969	57.8827	29.2969	57.7587	29.2969	58.1053	29.2969	57.8331	29.2969	58.6171	29.2969	58.2024	29.2969	59.356	29.2969	58.8429	29.2969	60.2144	29.2969	59.662	29.2969	61.0873	29.2969	60.5484	29.2969	61.8962	29.2969	61.409	29.2969	62.5904	29.2969	62.1798	29.2969	63.1392	29.2969	62.8208	29.2969	63.5246	29.2969	63.3079	29.2969	63.7369	29.2969	63.6273	29.2969	63.7714
30.7617	59.7565	30.7617	59.6807	30.7617	59.7272	30.7617	59.5036	30.7617	59.5989	30.7617	59.2411	30.7617	59.3886	30.7617	58.9276	30.7617	59.1279	30.7617	58.6248	30.7617	58.8693	30.7617	58.4258	30.7617	58.6887	30.7617	58.4401	30.7617	58.6758	30.7617	58.7476	30.7617	58.9035	30.7617	59.348	30.7617	59.39	30.7617	60.1592	30.7617	60.0867	30.7617	61.0653	30.7617	60.9042	30.7617	61.9642	30.7617	61.7511	30.7617	62.7849	30.7617	62.555	30.7617	63.4836	30.7617	63.2664	30.7617	64.0349	30.7617	63.8533	30.7617	64.4251	30.7617	64.2952	30.7617	64.647	30.7617	64.5795	30.7617	64.6982
32.2266	61.6565	32.2266	61.5967	32.2266	61.648	32.2266	61.4745	32.2266	61.5725	32.2266	61.3052	32.2266	61.4398	32.2266	61.1157	32.2266	61.2694	32.2266	60.947	32.2266	61.0935	32.2266	60.8535	32.2266	60.9585	32.2266	60.8938	32.2266	60.9217	32.2266	61.1123	32.2266	61.0382	32.2266	61.5191	32.2266	61.3396	32.2266	62.0831	32.2266	61.818	32.2266	62.7439	32.2266	62.4273	32.2266	63.4334	32.2266	63.1016	32.2266	64.0914	32.2266	63.7754	32.2266	64.6714	32.2266	64.3947	32.2266	65.1407	32.2266	64.9202	32.2266	65.4774	32.2266	65.3244	32.2266	65.668	32.2266	65.5898	32.2266	65.7058
33.6914	63.3226	33.6914	63.2707	33.6914	63.3155	33.6914	63.1641	33.6914	63.2516	33.6914	63.0141	33.6914	63.1395	33.6914	62.8415	33.6914	62.9957	33.6914	62.6779	33.6914	62.8465	33.6914	62.5665	33.6914	62.7288	33.6914	62.5563	33.6914	62.6877	33.6914	62.6903	33.6914	62.7676	33.6914	62.9885	33.6914	62.9973	33.6914	63.4371	33.6914	63.3772	33.6914	63.9928	33.6914	63.8769	33.6914	64.5969	33.6914	64.4455	33.6914	65.1913	33.6914	65.0271	33.6914	65.7277	33.6914	65.5712	33.6914	66.17	33.6914	66.038	33.6914	66.4933	33.6914	66.3984	33.6914	66.6823	33.6914	66.6328	33.6914	66.7292
35.1562	64.8969	35.1562	64.85	35.1562	64.8781	35.1562	64.7412	35.1562	64.796	35.1562	64.5809	35.1562	64.6592	35.1562	64.3886	35.1562	64.4846	35.1562	64.1952	35.1562	64.2989	35.1562	64.0442	35.1562	64.1406	35.1562	63.9877	35.1562	64.0575	35.1562	64.074	35.1562	64.0976	35.1562	64.33	35.1562	64.2941	35.1562	64.747	35.1562	64.6501	35.1562	65.2826	35.1562	65.1357	35.1562	65.8759	35.1562	65.6983	35.1562	66.4654	35.1562	66.2793	35.1562	67.0001	35.1562	66.8258	35.1562	67.4417	35.1562	67.2963	35.1562	67.7645	35.1562	67.6606	35.1562	67.9524	35.1562	67.8984	35.1562	67.9974
36.6211	65.8754	36.6211	65.8401	36.6211	65.8568	36.6211	65.7539	36.6211	65.788	36.6211	65.6273	36.6211	65.6791	36.6211	65.4794	36.6211	65.5483	36.6211	65.3397	36.6211	65.4226	36.6211	65.2479	36.6211	65.3373	36.6211	65.249	36.6211	65.3325	36.6211	65.3818	36.6211	65.4444	36.6211	65.6649	36.6211	65.6929	36.6211	66.0871	36.6211	66.0734	36.6211	66.6096	36.6211	66.5561	36.6211	67.1795	36.6211	67.0958	36.6211	67.7427	36.6211	67.6428	36.6211	68.2536	36.6211	68.1526	36.6211	68.6774	36.6211	68.5887	36.6211	68.9896	36.6211	68.9243	36.6211	69.175	36.6211	69.1404	36.6211	69.2257
38.0859	66.8397	38.0859	66.8014	38.0859	66.8384	38.0859	66.7262	38.0859	66.8007	38.0859	66.6243	38.0859	66.7366	38.0859	66.514	38.0859	66.663	38.0859	66.4228	38.0859	66.6034	38.0859	66.386	38.0859	66.5874	38.0859	66.4413	38.0859	66.6463	38.0859	66.6192	38.0859	66.8062	38.0859	66.9312	38.0859	67.0793	38.0859	67.3633	38.0859	67.4589	38.0859	67.8797	38.0859	67.9199	38.0859	68.4327	38.0859	68.4247	38.0859	68.9746	38.0859	68.9324	38.0859	69.4641	38.0859	69.4046	38.0859	69.8695	38.0859	69.8089	38.0859	70.1685	38.0859	70.1202	38.0859	70.347	38.0859	70.3204	38.0859	70.3978
39.5508	67.9632	39.5508	67.9266	39.5508	67.9781	39.5508	67.8717	39.5508	67.9731	39.5508	67.8078	39.5508	67.9548	39.5508	67.75	39.5508	67.9345	39.5508	67.7194	39.5508	67.9281	39.5508	67.7413	39.5508	67.955	39.5508	67.8405	39.5508	68.0354	39.5508	68.0348	39.5508	68.1868	39.5508	68.3286	39.5508	68.4189	39.5508	68.7096	39.5508	68.73	39.5508	69.1511	39.5508	69.1057	39.5508	69.6182	39.5508	69.5217	39.5508	70.0741	39.5508	69.9476	39.5508	70.4855	39.5508	70.3518	39.5508	70.8256	39.5508	70.7055	39.5508	71.0739	39.5508	70.9842	39.5508	71.2174	39.5508	71.1696	39.5508	71.2494
41.0156	69.5759	41.0156	69.5131	41.0156	69.6134	41.0156	69.4284	41.0156	69.6258	41.0156	69.3292	41.0156	69.6167	41.0156	69.2281	41.0156	69.5932	41.0156	69.1426	41.0156	69.5659	41.0156	69.0944	41.0156	69.5492	41.0156	69.1073	41.0156	69.56	41.0156	69.2011	41.0156	69.6158	41.0156	69.3864	41.0156	69.7311	41.0156	69.6596	41.0156	69.9133	41.0156	70.0021	41.0156	70.1595	41.0156	70.3847	41.0156	70.4557	41.0156	70.7732	41.0156	70.7784	41.0156	71.1346	41.0156	71.0993	41.0156	71.4403	41.0156	71.3894	41.0156	71.6684	41.0156	71.6225	41.0156	71.8043	41.0156	71.7776	41.0156	71.8407
42.4805	70.6091	42.4805	70.5816	42.4805	70.6103	42.4805	70.5315	42.4805	70.5852	42.4805	70.4664	42.4805	70.5374	42.4805	70.3981	42.4805	70.4748	42.4805	70.3428	42.4805	70.4096	42.4805	70.3195	42.4805	70.3585	42.4805	70.3485	42.4805	70.3414	42.4805	70.4463	42.4805	70.3792	42.4805	70.6219	42.4805	70.4889	42.4805	70.8725	42.4805	70.6783	42.4805	71.1831	42.4805	70.9427	42.4805	71.5288	42.4805	71.2643	42.4805	71.8797	42.4805	71.6157	42.4805	72.2056	42.4805	71.9652	42.4805	72.4793	42.4805	72.282	42.4805	72.6791	42.4805	72.5395	42.4805	72.7897	42.4805	72.7176	42.4805	72.803
43.9453	71.4545	43.9453	71.4358	43.9453	71.4528	43.9453	71.3998	43.9453	71.4314	43.9453	71.3532	43.9453	71.394	43.9453	71.3065	43.9453	71.3484	43.9453	71.2737	43.9453	71.3059	43.9453	71.2714	43.9453	71.2814	43.9453	71.3166	43.9453	71.292	43.9453	71.4235	43.9453	71.3543	43.9453	71.5991	43.9453	71.4811	43.9453	71.8407	43.9453	71.6769	43.9453	72.1351	43.9453	71.9359	43.9453	72.4604	43.9453	72.242	43.9453	72.7901	43.9453	72.571	43.9453	73.0965	43.9453	72.8955	43.9453	73.3545	43.9453	73.1882	43.9453	73.5439	43.9453	73.4255	43.9453	73.6501	43.9453	73.5887	43.9453	73.6654
45.4102	72.3795	45.4102	72.3663	45.4102	72.3774	45.4102	72.3405	45.4102	72.3606	45.4102	72.3078	45.4102	72.3326	45.4102	72.277	45.4102	72.2999	45.4102	72.2598	45.4102	72.2721	45.4102	72.2698	45.4102	72.2616	45.4102	72.3208	45.4102	72.2821	45.4102	72.424	45.4102	72.3472	45.4102	72.5853	45.4102	72.4668	45.4102	72.8026	45.4102	72.645	45.4102	73.0651	45.4102	72.877	45.4102	73.3549	45.4102	73.15	45.4102	73.6491	45.4102	73.444	45.4102	73.9236	45.4102	73.7352	45.4102	74.1556	45.4102	73.9993	45.4102	74.3263	45.4102	74.2147	45.4102	74.4218	45.4102	74.3637	45.4102	74.4346
46.875	73.3307	46.875	73.3252	46.875	73.323	46.875	73.3086	46.875	73.3026	46.875	73.2858	46.875	73.2724	46.875	73.264	46.875	73.2383	46.875	73.2529	46.875	73.2085	46.875	73.2639	46.875	73.1941	46.875	73.3086	46.875	73.2072	46.875	73.3969	46.875	73.2598	46.875	73.5344	46.875	73.3613	46.875	73.7204	46.875	73.5156	46.875	73.9468	46.875	73.7197	46.875	74.1989	46.875	73.9627	46.875	74.4569	46.875	74.2274	46.875	74.6991	46.875	74.4923	46.875	74.9045	46.875	74.7351	46.875	75.0552	46.875	74.9352	46.875	75.1378	46.875	75.0756	46.875	75.145
48.3398	74.1711	48.3398	74.173	48.3398	74.1585	48.3398	74.1658	48.3398	74.1357	48.3398	74.1534	48.3398	74.1055	48.3398	74.1417	48.3398	74.073	48.3398	74.1384	48.3398	74.0455	48.3398	74.1528	48.3398	74.0326	48.3398	74.1943	48.3398	74.0448	48.3398	74.2715	48.3398	74.0925	48.3398	74.3895	48.3398	74.184	48.3398	74.549	48.3398	74.323	48.3398	74.7443	48.3398	74.507	48.3398	74.9637	48.3398	74.7268	48.3398	75.1908	48.3398	74.9672	48.3398	75.4062	48.3398	75.2089	48.3398	75.5906	48.3398	75.4313	48.3398	75.7269	48.3398	75.6151	48.3398	75.802	48.3398	75.7444	48.3398	75.8083
51.2695	75.7145	51.2695	75.7142	51.2695	75.7056	51.2695	75.7058	51.2695	75.6878	51.2695	75.6924	51.2695	75.6635	51.2695	75.6785	51.2695	75.6368	51.2695	75.6703	51.2695	75.6134	51.2695	75.675	51.2695	75.6008	51.2695	75.7006	51.2695	75.6073	51.2695	75.7543	51.2695	75.6414	51.2695	75.8413	51.2695	75.7099	51.2695	75.9635	51.2695	75.8166	51.2695	76.1176	51.2695	75.9607	51.2695	76.2953	51.2695	76.1355	51.2695	76.4833	51.2695	76.3296	51.2695	76.6654	51.2695	76.5272	51.2695	76.8241	51.2695	76.7107	51.2695	76.9436	51.2695	76.8631	51.2695	77.0117	51.2695	76.9699	51.2695	77.0209
52.7344	76.387	52.7344	76.392	52.7344	76.3768	52.7344	76.3924	52.7344	76.3621	52.7344	76.3902	52.7344	76.345	52.7344	76.3889	52.7344	76.3293	52.7344	76.3931	52.7344	76.3196	52.7344	76.4086	52.7344	76.3221	52.7344	76.4418	52.7344	76.3432	52.7344	76.4985	52.7344	76.3891	52.7344	76.5833	52.7344	76.465	52.7344	76.6977	52.7344	76.5729	52.7344	76.8394	52.7344	76.7115	52.7344	77.0016	52.7344	76.8749	52.7344	77.1729	52.7344	77.053	52.7344	77.3391	52.7344	77.2322	52.7344	77.4848	52.7344	77.3973	52.7344	77.5956	52.7344	77.5335	52.7344	77.6601	52.7344	77.6278	52.7344	77.6713
54.1992	77.0824	54.1992	77.0874	54.1992	77.0732	54.1992	77.0886	54.1992	77.0602	54.1992	77.0878	54.1992	77.0453	54.1992	77.0875	54.1992	77.0311	54.1992	77.0916	54.1992	77.0215	54.1992	77.1049	54.1992	77.0215	54.1992	77.1325	54.1992	77.0365	54.1992	77.1796	54.1992	77.072	54.1992	77.2502	54.1992	77.1326	54.1992	77.3464	54.1992	77.2209	54.1992	77.4665	54.1992	77.3365	54.1992	77.605	54.1992	77.4752	54.1992	77.7525	54.1992	77.6287	54.1992	77.8965	54.1992	77.7855	54.1992	78.0231	54.1992	77.9319	54.1992	78.1191	54.1992	78.0541	54.1992	78.174	54.1992	78.1402	54.1992	78.1815
55.6641	77.6041	55.6641	77.6088	55.6641	77.5953	55.6641	77.6098	55.6641	77.5831	55.6641	77.6081	55.6641	77.5693	55.6641	77.6062	55.6641	77.5564	55.6641	77.6073	55.6641	77.548	55.6641	77.6158	55.6641	77.5484	55.6641	77.6367	55.6641	77.5626	55.6641	77.6752	55.6641	77.5957	55.6641	77.7354	55.6641	77.6517	55.6641	77.8199	55.6641	77.7331	55.6641	77.9277	55.6641	77.8396	55.6641	78.0542	55.6641	77.967	55.6641	78.1908	55.6641	78.1078	55.6641	78.3258	55.6641	78.2512	55.6641	78.4461	55.6641	78.3846	55.6641	78.539	55.6641	78.495	55.6641	78.5943	55.6641	78.5713	55.6641	78.6055
58.5938	78.3826	58.5938	78.3821	58.5938	78.383	58.5938	78.382	58.5938	78.3836	58.5938	78.3833	58.5938	78.3851	58.5938	78.3878	58.5938	78.3889	58.5938	78.3976	58.5938	78.3971	58.5938	78.4158	58.5938	78.4124	58.5938	78.4455	58.5938	78.438	58.5938	78.49	58.5938	78.4773	58.5938	78.5518	58.5938	78.5331	58.5938	78.6321	58.5938	78.607	58.5938	78.7298	58.5938	78.6987	58.5938	78.841	58.5938	78.8055	58.5938	78.9592	58.5938	78.9215	58.5938	79.0752	58.5938	79.0386	58.5938	79.1787	58.5938	79.1468	58.5938	79.2593	58.5938	79.2357	58.5938	79.3086	58.5938	79.2961	58.5938	79.3214
60.0586	78.8104	60.0586	78.8145	60.0586	78.8074	60.0586	78.8198	60.0586	78.8057	60.0586	78.8271	60.0586	78.806	60.0586	78.8376	60.0586	78.8094	60.0586	78.8528	60.0586	78.8176	60.0586	78.8747	60.0586	78.8327	60.0586	78.9057	60.0586	78.8573	60.0586	78.9483	60.0586	78.8938	60.0586	79.0043	60.0586	78.9444	60.0586	79.0749	60.0586	79.0104	60.0586	79.1592	60.0586	79.0916	60.0586	79.2543	60.0586	79.1857	60.0586	79.3548	60.0586	79.288	60.0586	79.453	60.0586	79.3918	60.0586	79.5398	60.0586	79.4886	60.0586	79.6064	60.0586	79.5694	60.0586	79.6455	60.0586	79.626	60.0586	79.6523
62.9883	79.5485	62.9883	79.5531	62.9883	79.5475	62.9883	79.5613	62.9883	79.5502	62.9883	79.5732	62.9883	79.5568	62.9883	79.5889	62.9883	79.5676	62.9883	79.609	62.9883	79.5831	62.9883	79.6341	62.9883	79.6041	62.9883	79.6654	62.9883	79.6316	62.9883	79.704	62.9883	79.6668	62.9883	79.7512	62.9883	79.7109	62.9883	79.8078	62.9883	79.7647	62.9883	79.8733	62.9883	79.828	62.9883	79.9461	62.9883	79.8998	62.9883	80.0224	62.9883	79.977	62.9883	80.097	62.9883	80.055	62.9883	80.1633	62.9883	80.1278	62.9883	80.2146	62.9883	80.1887	62.9883	80.2449	62.9883	80.2312	62.9883	80.2507
64.4531	79.8681	64.4531	79.8739	64.4531	79.867	64.4531	79.8843	64.4531	79.8708	64.4531	79.8991	64.4531	79.8794	64.4531	79.9182	64.4531	79.893	64.4531	79.9415	64.4531	79.9116	64.4531	79.9691	64.4531	79.9356	64.4531	80.0017	64.4531	79.9654	64.4531	80.0398	64.4531	80.0016	64.4531	80.0845	64.4531	80.0451	64.4531	80.1363	64.4531	80.0962	64.4531	80.1949	64.4531	80.1547	64.4531	80.2592	64.4531	80.2197	64.4531	80.3263	64.4531	80.2886	64.4531	80.3917	64.4531	80.3576	64.4531	80.4499	64.4531	80.4216	64.4531	80.4952	64.4531	80.4747	64.4531	80.5223	64.4531	80.5115	64.4531	80.528
67.3828	80.3745	67.3828	80.3775	67.3828	80.3794	67.3828	80.3882	67.3828	80.3921	67.3828	80.4057	67.3828	80.412	67.3828	80.4293	67.3828	80.4383	67.3828	80.4579	67.3828	80.4698	67.3828	80.4906	67.3828	80.5056	67.3828	80.5267	67.3828	80.5447	67.3828	80.5657	67.3828	80.5863	67.3828	80.6076	67.3828	80.6301	67.3828	80.6525	67.3828	80.6758	67.3828	80.7003	67.3828	80.7232	67.3828	80.7507	67.3828	80.7718	67.3828	80.8022	67.3828	80.8203	67.3828	80.8524	67.3828	80.8667	67.3828	80.8978	67.3828	80.9081	67.3828	80.9344	67.3828	80.941	67.3828	80.9587	67.3828	80.9618	67.3828	80.9681
68.8477	80.6372	68.8477	80.6401	68.8477	80.6423	68.8477	80.6506	68.8477	80.6552	68.8477	80.668	68.8477	80.675	68.8477	80.6911	68.8477	80.7006	68.8477	80.7186	68.8477	80.7306	68.8477	80.7492	68.8477	80.7636	68.8477	80.7818	68.8477	80.7984	68.8477	80.8157	68.8477	80.834	68.8477	80.8508	68.8477	80.87	68.8477	80.887	68.8477	80.9063	68.8477	80.9248	68.8477	80.9429	68.8477	80.9639	68.8477	80.9799	68.8477	81.0037	68.8477	81.0167	68.8477	81.0424	68.8477	81.0521	68.8477	81.0775	68.8477	81.084	68.8477	81.1059	68.8477	81.1097	68.8477	81.1246	68.8477	81.1263	68.8477	81.1316
