"SPL Vertical"
"On-Axis"		"10°"		"-10°"		"20°"		"-20°"		"30°"		"-30°"		"40°"		"-40°"		"50°"		"-50°"		"60°"		"-60°"		"70°"		"-70°"		"80°"		"-80°"		"90°"		"-90°"		"100°"		"-100°"		"110°"		"-110°"		"120°"		"-120°"		"130°"		"-130°"		"140°"		"-140°"		"150°"		"-150°"		"160°"		"-160°"		"170°"		"-170°"		"180°"
"Frequency [Hz]"	"Sound Pessure Level [dB]  / [2.83V 1m] "	"Frequency [Hz]"	"Sound Pessure Level [dB]  / [2.83V 1m] "	"Frequency [Hz]"	"Sound Pessure Level [dB]  / [2.83V 1m] "	"Frequency [Hz]"	"Sound Pessure Level [dB]  / [2.83V 1m] "	"Frequency [Hz]"	"Sound Pessure Level [dB]  / [2.83V 1m] "	"Frequency [Hz]"	"Sound Pessure Level [dB]  / [2.83V 1m] "	"Frequency [Hz]"	"Sound Pessure Level [dB]  / [2.83V 1m] "	"Frequency [Hz]"	"Sound Pessure Level [dB]  / [2.83V 1m] "	"Frequency [Hz]"	"Sound Pessure Level [dB]  / [2.83V 1m] "	"Frequency [Hz]"	"Sound Pessure Level [dB]  / [2.83V 1m] "	"Frequency [Hz]"	"Sound Pessure Level [dB]  / [2.83V 1m] "	"Frequency [Hz]"	"Sound Pessure Level [dB]  / [2.83V 1m] "	"Frequency [Hz]"	"Sound Pessure Level [dB]  / [2.83V 1m] "	"Frequency [Hz]"	"Sound Pessure Level [dB]  / [2.83V 1m] "	"Frequency [Hz]"	"Sound Pessure Level [dB]  / [2.83V 1m] "	"Frequency [Hz]"	"Sound Pessure Level [dB]  / [2.83V 1m] "	"Frequency [Hz]"	"Sound Pessure Level [dB]  / [2.83V 1m] "	"Frequency [Hz]"	"Sound Pessure Level [dB]  / [2.83V 1m] "	"Frequency [Hz]"	"Sound Pessure Level [dB]  / [2.83V 1m] "	"Frequency [Hz]"	"Sound Pessure Level [dB]  / [2.83V 1m] "	"Frequency [Hz]"	"Sound Pessure Level [dB]  / [2.83V 1m] "	"Frequency [Hz]"	"Sound Pessure Level [dB]  / [2.83V 1m] "	"Frequency [Hz]"	"Sound Pessure Level [dB]  / [2.83V 1m] "	"Frequency [Hz]"	"Sound Pessure Level [dB]  / [2.83V 1m] "	"Frequency [Hz]"	"Sound Pessure Level [dB]  / [2.83V 1m] "	"Frequency [Hz]"	"Sound Pessure Level [dB]  / [2.83V 1m] "	"Frequency [Hz]"	"Sound Pessure Level [dB]  / [2.83V 1m] "	"Frequency [Hz]"	"Sound Pessure Level [dB]  / [2.83V 1m] "	"Frequency [Hz]"	"Sound Pessure Level [dB]  / [2.83V 1m] "	"Frequency [Hz]"	"Sound Pessure Level [dB]  / [2.83V 1m] "	"Frequency [Hz]"	"Sound Pessure Level [dB]  / [2.83V 1m] "	"Frequency [Hz]"	"Sound Pessure Level [dB]  / [2.83V 1m] "	"Frequency [Hz]"	"Sound Pessure Level [dB]  / [2.83V 1m] "	"Frequency [Hz]"	"Sound Pessure Level [dB]  / [2.83V 1m] "	"Frequency [Hz]"	"Sound Pessure Level [dB]  / [2.83V 1m] "	"Frequency [Hz]"	"Sound Pessure Level [dB]  / [2.83V 1m] "
20.5078	43.4286	20.5078	41.3422	20.5078	44.6179	20.5078	37.7739	20.5078	45.1378	20.5078	31.9649	20.5078	45.0499	20.5078	34.5375	20.5078	44.2977	20.5078	40.8447	20.5078	42.6749	20.5078	44.9911	20.5078	39.6927	20.5078	47.9744	20.5078	34.92	20.5078	50.2816	20.5078	36.6709	20.5078	52.1407	20.5078	42.8	20.5078	53.6722	20.5078	47.0649	20.5078	54.9441	20.5078	50.1283	20.5078	55.9965	20.5078	52.4467	20.5078	56.8517	20.5078	54.2444	20.5078	57.5212	20.5078	55.6422	20.5078	58.0084	20.5078	56.7115	20.5078	58.3111	20.5078	57.4975	20.5078	58.4228	20.5078	58.0309	20.5078	58.3337
21.9727	46.4626	21.9727	45.5968	21.9727	47.1469	21.9727	44.8711	21.9727	47.528	21.9727	44.8601	21.9727	47.5621	21.9727	45.9231	21.9727	47.2316	21.9727	47.7098	21.9727	46.5556	21.9727	49.6745	21.9727	45.6895	21.9727	51.5303	21.9727	45.1692	21.9727	53.1896	21.9727	45.8648	21.9727	54.6427	21.9727	47.832	21.9727	55.9019	21.9727	50.2191	21.9727	56.9812	21.9727	52.4554	21.9727	57.8915	21.9727	54.375	21.9727	58.6389	21.9727	55.9653	21.9727	59.2246	21.9727	57.251	21.9727	59.6464	21.9727	58.2605	21.9727	59.8986	21.9727	59.0189	21.9727	59.9731	21.9727	59.5463	21.9727	59.8597
23.4375	52.295	23.4375	51.5939	23.4375	52.7867	23.4375	50.7188	23.4375	53.0536	23.4375	49.7668	23.4375	53.084	23.4375	48.9665	23.4375	52.8632	23.4375	48.6997	23.4375	52.3756	23.4375	49.2552	23.4375	51.6181	23.4375	50.4954	23.4375	50.6452	23.4375	52.031	23.4375	49.6856	23.4375	53.5703	23.4375	49.2845	23.4375	54.9793	23.4375	49.9867	23.4375	56.2118	23.4375	51.5802	23.4375	57.2566	23.4375	53.4203	23.4375	58.1126	23.4375	55.1165	23.4375	58.7803	23.4375	56.5414	23.4375	59.2577	23.4375	57.6757	23.4375	59.5402	23.4375	58.5323	23.4375	59.6204	23.4375	59.1304	23.4375	59.488
24.9023	51.2849	24.9023	50.3834	24.9023	51.9102	24.9023	49.2805	24.9023	52.2391	24.9023	48.2227	24.9023	52.2602	24.9023	47.7647	24.9023	51.9562	24.9023	48.4491	24.9023	51.3066	24.9023	50.0679	24.9023	50.3178	24.9023	51.992	24.9023	49.139	24.9023	53.8398	24.9023	48.3522	24.9023	55.4861	24.9023	48.9244	24.9023	56.9107	24.9023	50.8442	24.9023	58.1232	24.9023	53.1414	24.9023	59.137	24.9023	55.2415	24.9023	59.9622	24.9023	57.0009	24.9023	60.6036	24.9023	58.4202	24.9023	61.0616	24.9023	59.5297	24.9023	61.3326	24.9023	60.3604	24.9023	61.4093	24.9023	60.9377	24.9023	61.282
26.3672	53.6024	26.3672	52.9672	26.3672	54.0799	26.3672	52.2698	26.3672	54.3562	26.3672	51.7008	26.3672	54.4103	26.3672	51.5475	26.3672	54.2329	26.3672	52.0365	26.3672	53.8314	26.3672	53.1136	26.3672	53.2572	26.3672	54.5087	26.3672	52.6677	26.3672	55.9715	26.3672	52.3981	26.3672	57.3612	26.3672	52.846	26.3672	58.6169	26.3672	54.0626	26.3672	59.7172	26.3672	55.6824	26.3672	60.6555	26.3672	57.3314	26.3672	61.4297	26.3672	58.8161	26.3672	62.0376	26.3672	60.0681	26.3672	62.4753	26.3672	61.0739	26.3672	62.7366	26.3672	61.8395	26.3672	62.8137	26.3672	62.3765	26.3672	62.6973
27.832	56.7416	27.832	56.2721	27.832	57.094	27.832	55.7487	27.832	57.2942	27.832	55.2805	27.832	57.3228	27.832	55.0262	27.832	57.1704	27.832	55.1473	27.832	56.8413	27.832	55.7077	27.832	56.3689	27.832	56.623	27.832	55.8481	27.832	57.73	27.832	55.4774	27.832	58.882	27.832	55.5368	27.832	59.9843	27.832	56.1996	27.832	60.9849	27.832	57.3482	27.832	61.8566	27.832	58.698	27.832	62.5848	27.832	60.0171	27.832	63.1594	27.832	61.1831	27.832	63.5722	27.832	62.1467	27.832	63.8145	27.832	62.8941	27.832	63.8773	27.832	63.4266	27.832	63.7513
29.2969	57.9161	29.2969	57.5803	29.2969	58.1904	29.2969	57.2523	29.2969	58.36	29.2969	57.0313	29.2969	58.4015	29.2969	57.0311	29.2969	58.308	29.2969	57.3367	29.2969	58.0934	29.2969	57.9555	29.2969	57.8058	29.2969	58.8133	29.2969	57.5482	29.2969	59.8012	29.2969	57.4862	29.2969	60.821	29.2969	57.7936	29.2969	61.8038	29.2969	58.5315	29.2969	62.7061	29.2969	59.5893	29.2969	63.5016	29.2969	60.7767	29.2969	64.1732	29.2969	61.9346	29.2969	64.7083	29.2969	62.9684	29.2969	65.0965	29.2969	63.8318	29.2969	65.3278	29.2969	64.5069	29.2969	65.3929	29.2969	64.9897	29.2969	65.2829
30.7617	60.0735	30.7617	59.7199	30.7617	60.3529	30.7617	59.3439	30.7617	60.526	30.7617	59.0233	30.7617	60.5749	30.7617	58.8586	30.7617	60.4942	30.7617	58.9474	30.7617	60.2936	30.7617	59.3388	30.7617	60.0085	30.7617	60.0041	30.7617	59.7161	30.7617	60.8552	30.7617	59.546	30.7617	61.7905	30.7617	59.6559	30.7617	62.727	30.7617	60.1452	30.7617	63.6078	30.7617	60.9741	30.7617	64.3965	30.7617	61.9934	30.7617	65.0698	30.7617	63.0435	30.7617	65.6114	30.7617	64.0118	30.7617	66.0085	30.7617	64.8356	30.7617	66.2503	30.7617	65.4853	30.7617	66.3268	30.7617	65.9501	30.7617	66.2291
32.2266	61.2342	32.2266	60.9454	32.2266	61.462	32.2266	60.6438	32.2266	61.5981	32.2266	60.3988	32.2266	61.6261	32.2266	60.2954	32.2266	61.5426	32.2266	60.4127	32.2266	61.3599	32.2266	60.7894	32.2266	61.1153	32.2266	61.4034	32.2266	60.8826	32.2266	62.1845	32.2266	60.7776	32.2266	63.0477	32.2266	60.9313	32.2266	63.9195	32.2266	61.4197	32.2266	64.7461	32.2266	62.205	32.2266	65.4912	32.2266	63.1614	32.2266	66.1298	32.2266	64.1507	32.2266	66.6445	32.2266	65.0704	32.2266	67.0212	32.2266	65.8595	32.2266	67.2483	32.2266	66.4869	32.2266	67.3158	32.2266	66.9398	32.2266	67.2151
33.6914	62.6392	33.6914	62.4163	33.6914	62.8269	33.6914	62.2026	33.6914	62.9495	33.6914	62.0557	33.6914	62.9898	33.6914	62.0398	33.6914	62.9438	33.6914	62.2081	33.6914	62.8236	33.6914	62.5828	33.6914	62.6632	33.6914	63.1443	33.6914	62.5259	33.6914	63.8411	33.6914	62.5035	33.6914	64.6094	33.6914	62.6933	33.6914	65.3907	33.6914	63.1496	33.6914	66.1387	33.6914	63.8464	33.6914	66.819	33.6914	64.6914	33.6914	67.4066	33.6914	65.5754	33.6914	67.8825	33.6914	66.4092	33.6914	68.2317	33.6914	67.1345	33.6914	68.4416	33.6914	67.7179	33.6914	68.5017	33.6914	68.1429	33.6914	68.4039
35.1562	63.9994	35.1562	63.8387	35.1562	64.1386	35.1562	63.6945	35.1562	64.2302	35.1562	63.6141	35.1562	64.2597	35.1562	63.6478	35.1562	64.2256	35.1562	63.8356	35.1562	64.1416	35.1562	64.194	35.1562	64.0413	35.1562	64.7084	35.1562	63.9817	35.1562	65.3399	35.1562	64.0377	35.1562	66.0379	35.1562	64.281	35.1562	66.7532	35.1562	64.7453	35.1562	67.4443	35.1562	65.4034	35.1562	68.0785	35.1562	66.1805	35.1562	68.6307	35.1562	66.9885	35.1562	69.0814	35.1562	67.7522	35.1562	69.4146	35.1562	68.4196	35.1562	69.6173	35.1562	68.9584	35.1562	69.6789	35.1562	69.3515	35.1562	69.5918
36.6211	65.6019	36.6211	65.454	36.6211	65.7368	36.6211	65.3254	36.6211	65.836	36.6211	65.2551	36.6211	65.8868	36.6211	65.2837	36.6211	65.8875	36.6211	65.4441	36.6211	65.8499	36.6211	65.7513	36.6211	65.8013	36.6211	66.1967	36.6211	65.7866	36.6211	66.7513	36.6211	65.8634	36.6211	67.3741	36.6211	66.0863	36.6211	68.0227	36.6211	66.4841	36.6211	68.6585	36.6211	67.042	36.6211	69.2498	36.6211	67.7071	36.6211	69.771	36.6211	68.4093	36.6211	70.2014	36.6211	69.0832	36.6211	70.5243	36.6211	69.6787	36.6211	70.7262	36.6211	70.1626	36.6211	70.7963	36.6211	70.5152	36.6211	70.7271
38.0859	66.7403	38.0859	66.6146	38.0859	66.8579	38.0859	66.5088	38.0859	66.9474	38.0859	66.4566	38.0859	66.9977	38.0859	66.4929	38.0859	67.0077	38.0859	66.6459	38.0859	66.9878	38.0859	66.9295	38.0859	66.9624	38.0859	67.3383	38.0859	66.9704	38.0859	67.8486	38.0859	67.0606	38.0859	68.4257	38.0859	67.2791	38.0859	69.0313	38.0859	67.6507	38.0859	69.6297	38.0859	68.1646	38.0859	70.1898	38.0859	68.7769	38.0859	70.6863	38.0859	69.4269	38.0859	71.0982	38.0859	70.0553	38.0859	71.4083	38.0859	70.6145	38.0859	71.6029	38.0859	71.0714	38.0859	71.6713	38.0859	71.4055	38.0859	71.6064
39.5508	68.1565	39.5508	68.0544	39.5508	68.254	39.5508	67.9708	39.5508	68.33	39.5508	67.9333	39.5508	68.3752	39.5508	67.97	39.5508	68.3888	39.5508	68.1047	39.5508	68.3801	39.5508	68.3499	39.5508	68.3699	39.5508	68.7038	39.5508	68.3905	39.5508	69.1498	39.5508	68.4823	39.5508	69.6606	39.5508	68.6833	39.5508	70.204	39.5508	69.0149	39.5508	70.7479	39.5508	69.4705	39.5508	71.2631	39.5508	70.0158	39.5508	71.7244	39.5508	70.6001	39.5508	72.1104	39.5508	71.1706	39.5508	72.4034	39.5508	71.683	39.5508	72.5891	39.5508	72.1043	39.5508	72.6565	39.5508	72.4134	39.5508	72.5987
41.0156	69.3878	41.0156	69.3064	41.0156	69.4734	41.0156	69.2487	41.0156	69.5484	41.0156	69.2376	41.0156	69.6048	41.0156	69.2958	41.0156	69.6421	41.0156	69.4414	41.0156	69.6686	41.0156	69.6833	41.0156	69.7018	41.0156	70.019	41.0156	69.768	41.0156	70.4343	41.0156	69.8982	41.0156	70.9065	41.0156	70.1202	41.0156	71.4084	41.0156	70.448	41.0156	71.9121	41.0156	70.8745	41.0156	72.3915	41.0156	71.3714	41.0156	72.8234	41.0156	71.8974	41.0156	73.1877	41.0156	72.4089	41.0156	73.4673	41.0156	72.8672	41.0156	73.6486	41.0156	73.2433	41.0156	73.7209	41.0156	73.5171	41.0156	73.6777
42.4805	70.7738	42.4805	70.696	42.4805	70.8546	42.4805	70.638	42.4805	70.9258	42.4805	70.6197	42.4805	70.9804	42.4805	70.661	42.4805	71.018	42.4805	70.7788	42.4805	71.0454	42.4805	70.983	42.4805	71.0776	42.4805	71.2737	42.4805	71.1368	42.4805	71.641	42.4805	71.2496	42.4805	72.0661	42.4805	71.4408	42.4805	72.5252	42.4805	71.7247	42.4805	72.9923	42.4805	72.0985	42.4805	73.4419	42.4805	72.5405	42.4805	73.8506	42.4805	73.0157	42.4805	74.1978	42.4805	73.4843	42.4805	74.4659	42.4805	73.9094	42.4805	74.6405	42.4805	74.2614	42.4805	74.711	42.4805	74.5195	42.4805	74.6711
43.9453	71.8133	43.9453	71.7554	43.9453	71.8803	43.9453	71.7208	43.9453	71.9457	43.9453	71.7259	43.9453	72.0033	43.9453	71.7867	43.9453	72.0525	43.9453	71.9164	43.9453	72.0989	43.9453	72.1224	43.9453	72.1549	43.9453	72.4042	43.9453	72.2384	43.9453	72.7529	43.9453	72.371	43.9453	73.1527	43.9453	72.5723	43.9453	73.583	43.9453	72.8531	43.9453	74.0207	43.9453	73.2105	43.9453	74.4429	43.9453	73.6258	43.9453	74.8279	43.9453	74.0691	43.9453	75.1562	43.9453	74.5053	43.9453	75.4107	43.9453	74.9013	43.9453	75.5774	43.9453	75.2295	43.9453	75.6461	43.9453	75.4701	43.9453	75.6107
45.4102	72.9719	45.4102	72.9199	45.4102	73.0336	45.4102	72.8898	45.4102	73.0957	45.4102	72.8956	45.4102	73.1529	45.4102	72.9511	45.4102	73.2046	45.4102	73.0679	45.4102	73.2557	45.4102	73.2527	45.4102	73.3165	45.4102	73.5061	45.4102	73.4023	45.4102	73.8211	45.4102	73.5312	45.4102	74.1847	45.4102	73.7197	45.4102	74.5789	45.4102	73.9775	45.4102	74.9832	45.4102	74.3023	45.4102	75.3761	45.4102	74.6788	45.4102	75.737	45.4102	75.0813	45.4102	76.0469	45.4102	75.4788	45.4102	76.289	45.4102	75.8409	45.4102	76.4494	45.4102	76.1417	45.4102	76.5181	45.4102	76.3619	45.4102	76.4891
46.875	74.0507	46.875	74.0074	46.875	74.1043	46.875	73.9848	46.875	74.1605	46.875	73.9946	46.875	74.2149	46.875	74.0487	46.875	74.267	46.875	74.1568	46.875	74.3212	46.875	74.3253	46.875	74.3863	46.875	74.5552	46.875	74.4756	46.875	74.8415	46.875	74.6042	46.875	75.1735	46.875	74.7862	46.875	75.5359	46.875	75.0294	46.875	75.9102	46.875	75.3318	46.875	76.2769	46.875	75.6801	46.875	76.6165	46.875	76.0516	46.875	76.9103	46.875	76.4184	46.875	77.1421	46.875	76.7525	46.875	77.2981	46.875	77.0298	46.875	77.368	46.875	77.2316	46.875	77.3461
48.3398	74.8899	48.3398	74.8473	48.3398	74.9445	48.3398	74.8261	48.3398	75.0042	48.3398	74.8372	48.3398	75.0649	48.3398	74.8911	48.3398	75.1266	48.3398	74.997	48.3398	75.193	48.3398	75.1604	48.3398	75.2722	48.3398	75.3822	48.3398	75.3752	48.3398	75.6575	48.3398	75.5147	48.3398	75.9765	48.3398	75.702	48.3398	76.3247	48.3398	75.9429	48.3398	76.685	48.3398	76.2346	48.3398	77.0389	48.3398	76.5649	48.3398	77.368	48.3398	76.9133	48.3398	77.6544	48.3398	77.2548	48.3398	77.8825	48.3398	77.5642	48.3398	78.039	48.3398	77.8189	48.3398	78.1141	48.3398	78.0019	48.3398	78.1019
51.2695	76.7235	51.2695	76.6916	51.2695	76.7709	51.2695	76.6816	51.2695	76.8285	51.2695	76.7006	51.2695	76.8934	51.2695	76.7557	51.2695	76.9649	51.2695	76.8526	51.2695	77.0448	51.2695	76.995	51.2695	77.1377	51.2695	77.1835	51.2695	77.2504	51.2695	77.4149	51.2695	77.3905	51.2695	77.6823	51.2695	77.5645	51.2695	77.9753	51.2695	77.7757	51.2695	78.2808	51.2695	78.0222	51.2695	78.5839	51.2695	78.2952	51.2695	78.8689	51.2695	78.5803	51.2695	79.1202	51.2695	78.8587	51.2695	79.3235	51.2695	79.1104	51.2695	79.4666	51.2695	79.3169	51.2695	79.5403	51.2695	79.4633	51.2695	79.5393
52.7344	77.5863	52.7344	77.5582	52.7344	77.6311	52.7344	77.552	52.7344	77.6882	52.7344	77.5735	52.7344	77.7548	52.7344	77.6283	52.7344	77.83	52.7344	77.721	52.7344	77.9148	52.7344	77.8545	52.7344	78.0125	52.7344	78.0292	52.7344	78.1281	52.7344	78.2424	52.7344	78.2671	52.7344	78.4883	52.7344	78.4347	52.7344	78.7582	52.7344	78.6333	52.7344	79.0405	52.7344	78.8612	52.7344	79.3218	52.7344	79.1109	52.7344	79.5878	52.7344	79.3701	52.7344	79.8239	52.7344	79.6224	52.7344	80.0166	52.7344	79.85	52.7344	80.1541	52.7344	80.036	52.7344	80.2275	52.7344	80.1665	52.7344	80.2318
54.1992	78.354	54.1992	78.3285	54.1992	78.3952	54.1992	78.323	54.1992	78.4487	54.1992	78.3423	54.1992	78.5125	54.1992	78.3913	54.1992	78.5858	54.1992	78.4739	54.1992	78.6696	54.1992	78.5931	54.1992	78.7664	54.1992	78.7498	54.1992	78.88	54.1992	78.9422	54.1992	79.0148	54.1992	79.1657	54.1992	79.1745	54.1992	79.4129	54.1992	79.3609	54.1992	79.6736	54.1992	79.5721	54.1992	79.9356	54.1992	79.8018	54.1992	80.1856	54.1992	80.0388	54.1992	80.4096	54.1992	80.2687	54.1992	80.5945	54.1992	80.4753	54.1992	80.7288	54.1992	80.643	54.1992	80.8035	54.1992	80.7589	54.1992	80.8138
55.6641	78.9899	55.6641	78.9672	55.6641	79.0282	55.6641	78.9637	55.6641	79.0796	55.6641	78.9832	55.6641	79.1422	55.6641	79.0297	55.6641	79.2154	55.6641	79.1067	55.6641	79.2999	55.6641	79.2167	55.6641	79.3974	55.6641	79.3606	55.6641	79.5107	55.6641	79.5372	55.6641	79.6432	55.6641	79.7428	55.6641	79.7975	55.6641	79.9709	55.6641	79.9745	55.6641	80.2127	55.6641	80.1724	55.6641	80.4571	55.6641	80.3852	55.6641	80.6917	55.6641	80.6031	55.6641	80.9035	55.6641	80.8131	55.6641	81.08	55.6641	81.0007	55.6641	81.21	55.6641	81.1517	55.6641	81.285	55.6641	81.2543	55.6641	81.3
58.5938	80.0506	58.5938	80.0303	58.5938	80.088	58.5938	80.0293	58.5938	80.1405	58.5938	80.0501	58.5938	80.2069	58.5938	80.0955	58.5938	80.2864	58.5938	80.1677	58.5938	80.3788	58.5938	80.2683	58.5938	80.4848	58.5938	80.3978	58.5938	80.6052	58.5938	80.5551	58.5938	80.7409	58.5938	80.7372	58.5938	80.8924	58.5938	80.939	58.5938	81.0591	58.5938	81.1535	58.5938	81.2384	58.5938	81.3714	58.5938	81.4251	58.5938	81.5824	58.5938	81.6113	58.5938	81.7751	58.5938	81.7868	58.5938	81.9386	58.5938	81.9403	58.5938	82.0628	58.5938	82.0605	58.5938	82.1399	58.5938	82.1377	58.5938	82.1652
60.0586	80.5167	60.0586	80.4963	60.0586	80.5549	60.0586	80.4954	60.0586	80.6094	60.0586	80.5159	60.0586	80.6789	60.0586	80.5598	60.0586	80.7626	60.0586	80.6286	60.0586	80.8599	60.0586	80.7236	60.0586	80.9704	60.0586	80.8449	60.0586	81.0941	60.0586	80.9916	60.0586	81.2307	60.0586	81.161	60.0586	81.3797	60.0586	81.3488	60.0586	81.5397	60.0586	81.5487	60.0586	81.708	60.0586	81.7527	60.0586	81.8798	60.0586	81.9512	60.0586	82.0484	60.0586	82.1341	60.0586	82.2049	60.0586	82.2911	60.0586	82.3397	60.0586	82.4127	60.0586	82.4428	60.0586	82.4915	60.0586	82.5059	60.0586	82.523
62.9883	81.4201	62.9883	81.3992	62.9883	81.4589	62.9883	81.397	62.9883	81.5146	62.9883	81.4144	62.9883	81.5863	62.9883	81.452	62.9883	81.6727	62.9883	81.5107	62.9883	81.7724	62.9883	81.5908	62.9883	81.884	62.9883	81.6924	62.9883	82.0057	62.9883	81.8147	62.9883	82.1358	62.9883	81.9559	62.9883	82.2724	62.9883	82.113	62.9883	82.4135	62.9883	82.2814	62.9883	82.5561	62.9883	82.4551	62.9883	82.6967	62.9883	82.6264	62.9883	82.8301	62.9883	82.7869	62.9883	82.9503	62.9883	82.9279	62.9883	83.0501	62.9883	83.0412	62.9883	83.1223	62.9883	83.1201	62.9883	83.1605	62.9883	83.1603
64.4531	81.7993	64.4531	81.7772	64.4531	81.8389	64.4531	81.7734	64.4531	81.8952	64.4531	81.7882	64.4531	81.9672	64.4531	81.8221	64.4531	82.0537	64.4531	81.8755	64.4531	82.153	64.4531	81.9486	64.4531	82.2633	64.4531	82.0412	64.4531	82.3825	64.4531	82.1527	64.4531	82.5085	64.4531	82.2816	64.4531	82.6388	64.4531	82.4253	64.4531	82.7713	64.4531	82.58	64.4531	82.9029	64.4531	82.7403	64.4531	83.0303	64.4531	82.8996	64.4531	83.149	64.4531	83.0503	64.4531	83.2539	64.4531	83.1842	64.4531	83.3388	64.4531	83.2939	64.4531	83.3976	64.4531	83.3729	64.4531	83.4249	64.4531	83.4171
67.3828	82.33	67.3828	82.3074	67.3828	82.3694	67.3828	82.3017	67.3828	82.4252	67.3828	82.3127	67.3828	82.4967	67.3828	82.3403	67.3828	82.5824	67.3828	82.3844	67.3828	82.6805	67.3828	82.4446	67.3828	82.7884	67.3828	82.5209	67.3828	82.9033	67.3828	82.6125	67.3828	83.0222	67.3828	82.7187	67.3828	83.1418	67.3828	82.8376	67.3828	83.259	67.3828	82.9666	67.3828	83.371	67.3828	83.1018	67.3828	83.4746	67.3828	83.2382	67.3828	83.5665	67.3828	83.3696	67.3828	83.6431	67.3828	83.4895	67.3828	83.7005	67.3828	83.5914	67.3828	83.7346	67.3828	83.6697	67.3828	83.742	67.3828	83.7205
68.8477	82.4958	68.8477	82.4746	68.8477	82.5345	68.8477	82.4705	68.8477	82.5905	68.8477	82.4832	68.8477	82.6629	68.8477	82.5122	68.8477	82.7505	68.8477	82.5568	68.8477	82.8509	68.8477	82.6167	68.8477	82.9616	68.8477	82.6913	68.8477	83.079	68.8477	82.7802	68.8477	83.1998	68.8477	82.8823	68.8477	83.3201	68.8477	82.9962	68.8477	83.4366	68.8477	83.1194	68.8477	83.546	68.8477	83.2486	68.8477	83.6451	68.8477	83.3791	68.8477	83.7309	68.8477	83.5055	68.8477	83.8004	68.8477	83.6216	68.8477	83.8502	68.8477	83.7215	68.8477	83.8772	68.8477	83.7998	68.8477	83.8786	68.8477	83.8529
