"SPL Vertical"
"On-Axis"		"10°"		"-10°"		"20°"		"-20°"		"30°"		"-30°"		"40°"		"-40°"		"50°"		"-50°"		"60°"		"-60°"		"70°"		"-70°"		"80°"		"-80°"		"90°"		"-90°"		"100°"		"-100°"		"110°"		"-110°"		"120°"		"-120°"		"130°"		"-130°"		"140°"		"-140°"		"150°"		"-150°"		"160°"		"-160°"		"170°"		"-170°"		"180°"
"Frequency / Hz"	"Sound Pressure Level / dB (re 20 µPa/V)  [2.83  V @ 1. m]"	"Frequency / Hz"	"Sound Pressure Level / dB (re 20 µPa/V)  [2.83  V @ 1. m]"	"Frequency / Hz"	"Sound Pressure Level / dB (re 20 µPa/V)  [2.83  V @ 1. m]"	"Frequency / Hz"	"Sound Pressure Level / dB (re 20 µPa/V)  [2.83  V @ 1. m]"	"Frequency / Hz"	"Sound Pressure Level / dB (re 20 µPa/V)  [2.83  V @ 1. m]"	"Frequency / Hz"	"Sound Pressure Level / dB (re 20 µPa/V)  [2.83  V @ 1. m]"	"Frequency / Hz"	"Sound Pressure Level / dB (re 20 µPa/V)  [2.83  V @ 1. m]"	"Frequency / Hz"	"Sound Pressure Level / dB (re 20 µPa/V)  [2.83  V @ 1. m]"	"Frequency / Hz"	"Sound Pressure Level / dB (re 20 µPa/V)  [2.83  V @ 1. m]"	"Frequency / Hz"	"Sound Pressure Level / dB (re 20 µPa/V)  [2.83  V @ 1. m]"	"Frequency / Hz"	"Sound Pressure Level / dB (re 20 µPa/V)  [2.83  V @ 1. m]"	"Frequency / Hz"	"Sound Pressure Level / dB (re 20 µPa/V)  [2.83  V @ 1. m]"	"Frequency / Hz"	"Sound Pressure Level / dB (re 20 µPa/V)  [2.83  V @ 1. m]"	"Frequency / Hz"	"Sound Pressure Level / dB (re 20 µPa/V)  [2.83  V @ 1. m]"	"Frequency / Hz"	"Sound Pressure Level / dB (re 20 µPa/V)  [2.83  V @ 1. m]"	"Frequency / Hz"	"Sound Pressure Level / dB (re 20 µPa/V)  [2.83  V @ 1. m]"	"Frequency / Hz"	"Sound Pressure Level / dB (re 20 µPa/V)  [2.83  V @ 1. m]"	"Frequency / Hz"	"Sound Pressure Level / dB (re 20 µPa/V)  [2.83  V @ 1. m]"	"Frequency / Hz"	"Sound Pressure Level / dB (re 20 µPa/V)  [2.83  V @ 1. m]"	"Frequency / Hz"	"Sound Pressure Level / dB (re 20 µPa/V)  [2.83  V @ 1. m]"	"Frequency / Hz"	"Sound Pressure Level / dB (re 20 µPa/V)  [2.83  V @ 1. m]"	"Frequency / Hz"	"Sound Pressure Level / dB (re 20 µPa/V)  [2.83  V @ 1. m]"	"Frequency / Hz"	"Sound Pressure Level / dB (re 20 µPa/V)  [2.83  V @ 1. m]"	"Frequency / Hz"	"Sound Pressure Level / dB (re 20 µPa/V)  [2.83  V @ 1. m]"	"Frequency / Hz"	"Sound Pressure Level / dB (re 20 µPa/V)  [2.83  V @ 1. m]"	"Frequency / Hz"	"Sound Pressure Level / dB (re 20 µPa/V)  [2.83  V @ 1. m]"	"Frequency / Hz"	"Sound Pressure Level / dB (re 20 µPa/V)  [2.83  V @ 1. m]"	"Frequency / Hz"	"Sound Pressure Level / dB (re 20 µPa/V)  [2.83  V @ 1. m]"	"Frequency / Hz"	"Sound Pressure Level / dB (re 20 µPa/V)  [2.83  V @ 1. m]"	"Frequency / Hz"	"Sound Pressure Level / dB (re 20 µPa/V)  [2.83  V @ 1. m]"	"Frequency / Hz"	"Sound Pressure Level / dB (re 20 µPa/V)  [2.83  V @ 1. m]"	"Frequency / Hz"	"Sound Pressure Level / dB (re 20 µPa/V)  [2.83  V @ 1. m]"	"Frequency / Hz"	"Sound Pressure Level / dB (re 20 µPa/V)  [2.83  V @ 1. m]"	"Frequency / Hz"	"Sound Pressure Level / dB (re 20 µPa/V)  [2.83  V @ 1. m]"	"Frequency / Hz"	"Sound Pressure Level / dB (re 20 µPa/V)  [2.83  V @ 1. m]"	"Frequency / Hz"	"Sound Pressure Level / dB (re 20 µPa/V)  [2.83  V @ 1. m]"
20.5078	98.1654	20.5078	97.8487	20.5078	98.4289	20.5078	97.4881	20.5078	98.628	20.5078	97.0912	20.5078	98.7482	20.5078	96.6649	20.5078	98.7717	20.5078	96.2154	20.5078	98.6788	20.5078	95.7481	20.5078	98.4502	20.5078	95.2676	20.5078	98.0717	20.5078	94.7776	20.5078	97.5395	20.5078	94.2813	20.5078	96.8669	20.5078	93.7822	20.5078	96.0882	20.5078	93.2848	20.5078	95.257	20.5078	92.7967	20.5078	94.4351	20.5078	92.3309	20.5078	93.6734	20.5078	91.9079	20.5078	92.9971	20.5078	91.5577	20.5078	92.4111	20.5078	91.3176	20.5078	91.9192	20.5078	91.224	20.5078	91.5386	20.5078	91.2987
21.9727	99.6045	21.9727	99.2994	21.9727	99.8879	21.9727	98.9783	21.9727	100.143	21.9727	98.6467	21.9727	100.363	21.9727	98.3098	21.9727	100.537	21.9727	97.9732	21.9727	100.657	21.9727	97.6423	21.9727	100.713	21.9727	97.3226	21.9727	100.696	21.9727	97.0196	21.9727	100.601	21.9727	96.739	21.9727	100.423	21.9727	96.4871	21.9727	100.166	21.9727	96.2712	21.9727	99.8322	21.9727	96.0997	21.9727	99.4303	21.9727	95.9829	21.9727	98.9724	21.9727	95.9322	21.9727	98.4754	21.9727	95.96	21.9727	97.9622	21.9727	96.0773	21.9727	97.4597	21.9727	96.2911	21.9727	96.9971	21.9727	96.601
23.4375	100.067	23.4375	99.7196	23.4375	100.414	23.4375	99.3783	23.4375	100.751	23.4375	99.0483	23.4375	101.069	23.4375	98.7344	23.4375	101.354	23.4375	98.4406	23.4375	101.588	23.4375	98.1705	23.4375	101.755	23.4375	97.9276	23.4375	101.837	23.4375	97.715	23.4375	101.823	23.4375	97.5356	23.4375	101.703	23.4375	97.3926	23.4375	101.48	23.4375	97.2895	23.4375	101.161	23.4375	97.2303	23.4375	100.763	23.4375	97.2196	23.4375	100.309	23.4375	97.2627	23.4375	99.8238	23.4375	97.3652	23.4375	99.3352	23.4375	97.5321	23.4375	98.8675	23.4375	97.7673	23.4375	98.4413	23.4375	98.0715
24.9023	99.7592	24.9023	99.4333	24.9023	100.091	24.9023	99.1196	24.9023	100.422	24.9023	98.8229	24.9023	100.74	24.9023	98.5477	24.9023	101.032	24.9023	98.298	24.9023	101.28	24.9023	98.0775	24.9023	101.466	24.9023	97.8896	24.9023	101.573	24.9023	97.7373	24.9023	101.586	24.9023	97.6231	24.9023	101.499	24.9023	97.5492	24.9023	101.314	24.9023	97.5174	24.9023	101.042	24.9023	97.5289	24.9023	100.703	24.9023	97.5845	24.9023	100.321	24.9023	97.6842	24.9023	99.9217	24.9023	97.8273	24.9023	99.5268	24.9023	98.0127	24.9023	99.1533	24.9023	98.2393	24.9023	98.8113	24.9023	98.5059
26.3672	93.2121	26.3672	92.8095	26.3672	93.7062	26.3672	92.5034	26.3672	94.2754	26.3672	92.29	26.3672	94.8918	26.3672	92.1605	26.3672	95.5196	26.3672	92.1047	26.3672	96.1191	26.3672	92.1133	26.3672	96.6515	26.3672	92.1787	26.3672	97.0834	26.3672	92.2951	26.3672	97.3896	26.3672	92.458	26.3672	97.5558	26.3672	92.6635	26.3672	97.5806	26.3672	92.9076	26.3672	97.4759	26.3672	93.1861	26.3672	97.2655	26.3672	93.4939	26.3672	96.9804	26.3672	93.8249	26.3672	96.6519	26.3672	94.1721	26.3672	96.3047	26.3672	94.5284	26.3672	95.9524	26.3672	94.8874	26.3672	95.5995	26.3672	95.2448
27.832	100.218	27.832	99.8219	27.832	100.586	27.832	99.4077	27.832	100.92	27.832	98.985	27.832	101.214	27.832	98.5648	27.832	101.461	27.832	98.1585	27.832	101.653	27.832	97.777	27.832	101.78	27.832	97.4303	27.832	101.829	27.832	97.1268	27.832	101.79	27.832	96.8737	27.832	101.652	27.832	96.6768	27.832	101.409	27.832	96.5403	27.832	101.064	27.832	96.4678	27.832	100.627	27.832	96.4619	27.832	100.119	27.832	96.525	27.832	99.5681	27.832	96.66	27.832	99.0044	27.832	96.8697	27.832	98.4592	27.832	97.1565	27.832	97.9585	27.832	97.5208
29.2969	104.436	29.2969	104.055	29.2969	104.798	29.2969	103.663	29.2969	105.132	29.2969	103.27	29.2969	105.427	29.2969	102.884	29.2969	105.671	29.2969	102.514	29.2969	105.846	29.2969	102.166	29.2969	105.938	29.2969	101.85	29.2969	105.928	29.2969	101.57	29.2969	105.807	29.2969	101.331	29.2969	105.57	29.2969	101.139	29.2969	105.221	29.2969	100.995	29.2969	104.778	29.2969	100.901	29.2969	104.268	29.2969	100.86	29.2969	103.724	29.2969	100.873	29.2969	103.181	29.2969	100.941	29.2969	102.67	29.2969	101.066	29.2969	102.214	29.2969	101.252	29.2969	101.823	29.2969	101.503
30.7617	101.035	30.7617	100.757	30.7617	101.317	30.7617	100.485	30.7617	101.601	30.7617	100.217	30.7617	101.878	30.7617	99.9546	30.7617	102.137	30.7617	99.6975	30.7617	102.356	30.7617	99.4476	30.7617	102.515	30.7617	99.2069	30.7617	102.587	30.7617	98.9783	30.7617	102.553	30.7617	98.7654	30.7617	102.399	30.7617	98.5721	30.7617	102.122	30.7617	98.4028	30.7617	101.733	30.7617	98.2632	30.7617	101.256	30.7617	98.1595	30.7617	100.723	30.7617	98.0997	30.7617	100.175	30.7617	98.0927	30.7617	99.6512	30.7617	98.1489	30.7617	99.1833	30.7617	98.2787	30.7617	98.7934	30.7617	98.4916
32.2266	98.1599	32.2266	97.7665	32.2266	98.5952	32.2266	97.42	32.2266	99.0613	32.2266	97.1211	32.2266	99.5406	32.2266	96.8676	32.2266	100.01	32.2266	96.6561	32.2266	100.441	32.2266	96.4836	32.2266	100.804	32.2266	96.348	32.2266	101.074	32.2266	96.2482	32.2266	101.227	32.2266	96.185	32.2266	101.249	32.2266	96.16	32.2266	101.138	32.2266	96.1762	32.2266	100.9	32.2266	96.2373	32.2266	100.553	32.2266	96.3472	32.2266	100.122	32.2266	96.5096	32.2266	99.6393	32.2266	96.7274	32.2266	99.1335	32.2266	97.0022	32.2266	98.6322	32.2266	97.334	32.2266	98.1562	32.2266	97.7204
33.6914	98.9241	33.6914	98.5525	33.6914	99.3335	33.6914	98.2248	33.6914	99.7704	33.6914	97.9429	33.6914	100.219	33.6914	97.7067	33.6914	100.66	33.6914	97.5147	33.6914	101.069	33.6914	97.3651	33.6914	101.422	33.6914	97.2568	33.6914	101.694	33.6914	97.1894	33.6914	101.867	33.6914	97.1635	33.6914	101.926	33.6914	97.1803	33.6914	101.867	33.6914	97.2416	33.6914	101.695	33.6914	97.3493	33.6914	101.424	33.6914	97.5048	33.6914	101.076	33.6914	97.7087	33.6914	100.674	33.6914	97.9601	33.6914	100.244	33.6914	98.2571	33.6914	99.8062	33.6914	98.596	33.6914	99.3781	33.6914	98.9718
35.1562	98.5018	35.1562	98.1259	35.1562	98.9368	35.1562	97.8104	35.1562	99.4229	35.1562	97.5525	35.1562	99.9444	35.1562	97.3475	35.1562	100.477	35.1562	97.1912	35.1562	100.989	35.1562	97.0806	35.1562	101.447	35.1562	97.0149	35.1562	101.815	35.1562	96.9949	35.1562	102.068	35.1562	97.0228	35.1562	102.188	35.1562	97.1012	35.1562	102.171	35.1562	97.2321	35.1562	102.028	35.1562	97.4165	35.1562	101.779	35.1562	97.653	35.1562	101.452	35.1562	97.9378	35.1562	101.074	35.1562	98.2648	35.1562	100.669	35.1562	98.6259	35.1562	100.251	35.1562	99.0127	35.1562	99.8316	35.1562	99.4169
36.6211	98.0629	36.6211	97.6107	36.6211	98.5988	36.6211	97.2526	36.6211	99.2	36.6211	96.9919	36.6211	99.8407	36.6211	96.826	36.6211	100.49	36.6211	96.7486	36.6211	101.112	36.6211	96.752	36.6211	101.671	36.6211	96.8287	36.6211	102.134	36.6211	96.9715	36.6211	102.477	36.6211	97.174	36.6211	102.682	36.6211	97.4301	36.6211	102.749	36.6211	97.7335	36.6211	102.688	36.6211	98.0773	36.6211	102.521	36.6211	98.4539	36.6211	102.274	36.6211	98.8546	36.6211	101.974	36.6211	99.2701	36.6211	101.64	36.6211	99.691	36.6211	101.283	36.6211	100.108	36.6211	100.907	36.6211	100.515
38.0859	98.7483	38.0859	98.2778	38.0859	99.2678	38.0859	97.87	38.0859	99.8199	38.0859	97.5356	38.0859	100.385	38.0859	97.2815	38.0859	100.942	38.0859	97.1106	38.0859	101.464	38.0859	97.022	38.0859	101.924	38.0859	97.0116	38.0859	102.295	38.0859	97.0727	38.0859	102.55	38.0859	97.1972	38.0859	102.674	38.0859	97.3761	38.0859	102.656	38.0859	97.6004	38.0859	102.502	38.0859	97.861	38.0859	102.229	38.0859	98.1494	38.0859	101.869	38.0859	98.4583	38.0859	101.455	38.0859	98.7818	38.0859	101.024	38.0859	99.1163	38.0859	100.601	38.0859	99.4616	38.0859	100.199	38.0859	99.8207
39.5508	100.878	39.5508	100.534	39.5508	101.245	39.5508	100.215	39.5508	101.628	39.5508	99.9243	39.5508	102.019	39.5508	99.6626	39.5508	102.405	39.5508	99.4323	39.5508	102.768	39.5508	99.2352	39.5508	103.084	39.5508	99.0734	39.5508	103.33	39.5508	98.9487	39.5508	103.484	39.5508	98.8631	39.5508	103.528	39.5508	98.8184	39.5508	103.454	39.5508	98.8168	39.5508	103.264	39.5508	98.8607	39.5508	102.966	39.5508	98.9532	39.5508	102.581	39.5508	99.0981	39.5508	102.134	39.5508	99.2991	39.5508	101.652	39.5508	99.5596	39.5508	101.164	39.5508	99.8812	39.5508	100.694	39.5508	100.262
41.0156	100.979	41.0156	100.655	41.0156	101.338	41.0156	100.365	41.0156	101.729	41.0156	100.108	41.0156	102.14	41.0156	99.8819	41.0156	102.558	41.0156	99.6854	41.0156	102.957	41.0156	99.5184	41.0156	103.311	41.0156	99.3822	41.0156	103.592	41.0156	99.2793	41.0156	103.774	41.0156	99.2128	41.0156	103.84	41.0156	99.187	41.0156	103.785	41.0156	99.2064	41.0156	103.613	41.0156	99.2755	41.0156	103.339	41.0156	99.3985	41.0156	102.987	41.0156	99.5784	41.0156	102.581	41.0156	99.8159	41.0156	102.145	41.0156	100.109	41.0156	101.698	41.0156	100.453	41.0156	101.259	41.0156	100.84
42.4805	100.972	42.4805	100.64	42.4805	101.367	42.4805	100.375	42.4805	101.815	42.4805	100.176	42.4805	102.299	42.4805	100.039	42.4805	102.796	42.4805	99.9591	42.4805	103.279	42.4805	99.9314	42.4805	103.719	42.4805	99.9525	42.4805	104.088	42.4805	100.02	42.4805	104.364	42.4805	100.132	42.4805	104.534	42.4805	100.288	42.4805	104.597	42.4805	100.487	42.4805	104.56	42.4805	100.728	42.4805	104.439	42.4805	101.008	42.4805	104.252	42.4805	101.322	42.4805	104.016	42.4805	101.664	42.4805	103.742	42.4805	102.024	42.4805	103.437	42.4805	102.391	42.4805	103.107	42.4805	102.756
43.9453	101.384	43.9453	100.992	43.9453	101.819	43.9453	100.658	43.9453	102.281	43.9453	100.391	43.9453	102.748	43.9453	100.198	43.9453	103.2	43.9453	100.082	43.9453	103.615	43.9453	100.04	43.9453	103.968	43.9453	100.068	43.9453	104.241	43.9453	100.16	43.9453	104.419	43.9453	100.31	43.9453	104.497	43.9453	100.511	43.9453	104.482	43.9453	100.755	43.9453	104.393	43.9453	101.036	43.9453	104.252	43.9453	101.344	43.9453	104.083	43.9453	101.672	43.9453	103.898	43.9453	102.009	43.9453	103.701	43.9453	102.345	43.9453	103.485	43.9453	102.668	43.9453	103.242	43.9453	102.97
45.4102	103.204	45.4102	102.771	45.4102	103.619	45.4102	102.331	45.4102	104.003	45.4102	101.894	45.4102	104.344	45.4102	101.471	45.4102	104.623	45.4102	101.07	45.4102	104.82	45.4102	100.699	45.4102	104.912	45.4102	100.366	45.4102	104.875	45.4102	100.075	45.4102	104.689	45.4102	99.8324	45.4102	104.344	45.4102	99.6399	45.4102	103.846	45.4102	99.4993	45.4102	103.223	45.4102	99.4103	45.4102	102.527	45.4102	99.3712	45.4102	101.828	45.4102	99.3783	45.4102	101.198	45.4102	99.4273	45.4102	100.683	45.4102	99.5137	45.4102	100.292	45.4102	99.6351	45.4102	100.006	45.4102	99.7951
46.875	103.098	46.875	102.734	46.875	103.442	46.875	102.356	46.875	103.762	46.875	101.97	46.875	104.05	46.875	101.581	46.875	104.296	46.875	101.197	46.875	104.486	46.875	100.825	46.875	104.6	46.875	100.469	46.875	104.614	46.875	100.135	46.875	104.503	46.875	99.827	46.875	104.247	46.875	99.5474	46.875	103.836	46.875	99.2987	46.875	103.275	46.875	99.0828	46.875	102.586	46.875	98.9026	46.875	101.815	46.875	98.7627	46.875	101.023	46.875	98.6715	46.875	100.283	46.875	98.6434	46.875	99.6562	46.875	98.7001	46.875	99.1829	46.875	98.8701
48.3398	102.184	48.3398	101.903	48.3398	102.462	48.3398	101.616	48.3398	102.74	48.3398	101.322	48.3398	103.018	48.3398	101.021	48.3398	103.29	48.3398	100.716	48.3398	103.543	48.3398	100.412	48.3398	103.755	48.3398	100.113	48.3398	103.899	48.3398	99.826	48.3398	103.944	48.3398	99.5549	48.3398	103.867	48.3398	99.3052	48.3398	103.652	48.3398	99.082	48.3398	103.296	48.3398	98.8918	48.3398	102.81	48.3398	98.743	48.3398	102.219	48.3398	98.6482	48.3398	101.559	48.3398	98.6245	48.3398	100.877	48.3398	98.6941	48.3398	100.225	48.3398	98.8798	48.3398	99.6531	48.3398	99.1987
51.2695	102.212	51.2695	101.896	51.2695	102.571	51.2695	101.624	51.2695	102.967	51.2695	101.391	51.2695	103.387	51.2695	101.192	51.2695	103.808	51.2695	101.022	51.2695	104.202	51.2695	100.877	51.2695	104.535	51.2695	100.759	51.2695	104.775	51.2695	100.666	51.2695	104.9	51.2695	100.602	51.2695	104.898	51.2695	100.571	51.2695	104.774	51.2695	100.579	51.2695	104.549	51.2695	100.631	51.2695	104.251	51.2695	100.734	51.2695	103.908	51.2695	100.891	51.2695	103.544	51.2695	101.105	51.2695	103.169	51.2695	101.374	51.2695	102.789	51.2695	101.69	51.2695	102.41	51.2695	102.039
52.7344	102.174	52.7344	101.805	52.7344	102.586	52.7344	101.487	52.7344	103.028	52.7344	101.221	52.7344	103.482	52.7344	101.006	52.7344	103.922	52.7344	100.842	52.7344	104.318	52.7344	100.723	52.7344	104.639	52.7344	100.649	52.7344	104.857	52.7344	100.615	52.7344	104.948	52.7344	100.621	52.7344	104.906	52.7344	100.666	52.7344	104.739	52.7344	100.751	52.7344	104.473	52.7344	100.874	52.7344	104.149	52.7344	101.036	52.7344	103.804	52.7344	101.235	52.7344	103.469	52.7344	101.466	52.7344	103.154	52.7344	101.723	52.7344	102.857	52.7344	101.998	52.7344	102.568	52.7344	102.281
54.1992	102.349	54.1992	101.933	54.1992	102.792	54.1992	101.557	54.1992	103.247	54.1992	101.227	54.1992	103.696	54.1992	100.948	54.1992	104.113	54.1992	100.72	54.1992	104.471	54.1992	100.544	54.1992	104.741	54.1992	100.419	54.1992	104.896	54.1992	100.342	54.1992	104.919	54.1992	100.313	54.1992	104.8	54.1992	100.329	54.1992	104.551	54.1992	100.388	54.1992	104.198	54.1992	100.488	54.1992	103.782	54.1992	100.626	54.1992	103.351	54.1992	100.798	54.1992	102.944	54.1992	100.998	54.1992	102.58	54.1992	101.221	54.1992	102.261	54.1992	101.459	54.1992	101.976	54.1992	101.711
55.6641	102.495	55.6641	102.096	55.6641	102.913	55.6641	101.726	55.6641	103.339	55.6641	101.389	55.6641	103.758	55.6641	101.093	55.6641	104.152	55.6641	100.842	55.6641	104.498	55.6641	100.637	55.6641	104.767	55.6641	100.482	55.6641	104.933	55.6641	100.376	55.6641	104.976	55.6641	100.319	55.6641	104.887	55.6641	100.311	55.6641	104.673	55.6641	100.349	55.6641	104.357	55.6641	100.433	55.6641	103.973	55.6641	100.56	55.6641	103.56	55.6641	100.726	55.6641	103.146	55.6641	100.93	55.6641	102.751	55.6641	101.166	55.6641	102.383	55.6641	101.432	55.6641	102.041	55.6641	101.724
58.5938	102.852	58.5938	102.477	58.5938	103.242	58.5938	102.124	58.5938	103.638	58.5938	101.8	58.5938	104.024	58.5938	101.508	58.5938	104.384	58.5938	101.252	58.5938	104.694	58.5938	101.034	58.5938	104.927	58.5938	100.856	58.5938	105.057	58.5938	100.72	58.5938	105.065	58.5938	100.626	58.5938	104.943	58.5938	100.575	58.5938	104.699	58.5938	100.569	58.5938	104.359	58.5938	100.607	58.5938	103.958	58.5938	100.691	58.5938	103.536	58.5938	100.819	58.5938	103.122	58.5938	100.989	58.5938	102.732	58.5938	101.2	58.5938	102.37	58.5938	101.448	58.5938	102.036	58.5938	101.728
60.0586	102.533	60.0586	102.132	60.0586	102.949	60.0586	101.755	60.0586	103.37	60.0586	101.407	60.0586	103.783	60.0586	101.092	60.0586	104.169	60.0586	100.813	60.0586	104.503	60.0586	100.575	60.0586	104.758	60.0586	100.38	60.0586	104.909	60.0586	100.229	60.0586	104.934	60.0586	100.126	60.0586	104.825	60.0586	100.07	60.0586	104.59	60.0586	100.064	60.0586	104.25	60.0586	100.108	60.0586	103.841	60.0586	100.203	60.0586	103.4	60.0586	100.348	60.0586	102.956	60.0586	100.541	60.0586	102.527	60.0586	100.781	60.0586	102.12	60.0586	101.064	60.0586	101.738	60.0586	101.384
62.9883	102.034	62.9883	101.6	62.9883	102.494	62.9883	101.201	62.9883	102.969	62.9883	100.842	62.9883	103.444	62.9883	100.529	62.9883	103.899	62.9883	100.264	62.9883	104.309	62.9883	100.05	62.9883	104.647	62.9883	99.8874	62.9883	104.883	62.9883	99.7786	62.9883	104.995	62.9883	99.7243	62.9883	104.971	62.9883	99.7251	62.9883	104.815	62.9883	99.7814	62.9883	104.543	62.9883	99.8933	62.9883	104.188	62.9883	100.06	62.9883	103.78	62.9883	100.281	62.9883	103.347	62.9883	100.552	62.9883	102.907	62.9883	100.871	62.9883	102.468	62.9883	101.23	62.9883	102.037	62.9883	101.622
64.4531	101.89	64.4531	101.465	64.4531	102.346	64.4531	101.079	64.4531	102.824	64.4531	100.739	64.4531	103.308	64.4531	100.447	64.4531	103.778	64.4531	100.206	64.4531	104.209	64.4531	100.017	64.4531	104.571	64.4531	99.8819	64.4531	104.837	64.4531	99.801	64.4531	104.981	64.4531	99.7749	64.4531	104.993	64.4531	99.8041	64.4531	104.875	64.4531	99.8887	64.4531	104.643	64.4531	100.028	64.4531	104.327	64.4531	100.222	64.4531	103.955	64.4531	100.467	64.4531	103.553	64.4531	100.76	64.4531	103.135	64.4531	101.096	64.4531	102.71	64.4531	101.469	64.4531	102.286	64.4531	101.869
67.3828	101.39	67.3828	100.924	67.3828	101.895	67.3828	100.508	67.3828	102.426	67.3828	100.148	67.3828	102.964	67.3828	99.8463	67.3828	103.486	67.3828	99.6064	67.3828	103.964	67.3828	99.4286	67.3828	104.368	67.3828	99.3131	67.3828	104.668	67.3828	99.2597	67.3828	104.842	67.3828	99.2683	67.3828	104.88	67.3828	99.3381	67.3828	104.786	67.3828	99.4679	67.3828	104.58	67.3828	99.656	67.3828	104.287	67.3828	99.8999	67.3828	103.935	67.3828	100.196	67.3828	103.542	67.3828	100.539	67.3828	103.122	67.3828	100.923	67.3828	102.682	67.3828	101.34	67.3828	102.232	67.3828	101.78
