"SPL Vertical"
"On-Axis"		"10°"		"-10°"		"20°"		"-20°"		"30°"		"-30°"		"40°"		"-40°"		"50°"		"-50°"		"60°"		"-60°"		"70°"		"-70°"		"80°"		"-80°"		"90°"		"-90°"		"100°"		"-100°"		"110°"		"-110°"		"120°"		"-120°"		"130°"		"-130°"		"140°"		"-140°"		"150°"		"-150°"		"160°"		"-160°"		"170°"		"-170°"		"180°"
"Frequency / Hz"	"Sound Pressure Level / dB (re 20 µPa/V)  [2.83V at 1m]"	"Frequency / Hz"	"Sound Pressure Level / dB (re 20 µPa/V)  [2.83V at 1m]"	"Frequency / Hz"	"Sound Pressure Level / dB (re 20 µPa/V)  [2.83V at 1m]"	"Frequency / Hz"	"Sound Pressure Level / dB (re 20 µPa/V)  [2.83V at 1m]"	"Frequency / Hz"	"Sound Pressure Level / dB (re 20 µPa/V)  [2.83V at 1m]"	"Frequency / Hz"	"Sound Pressure Level / dB (re 20 µPa/V)  [2.83V at 1m]"	"Frequency / Hz"	"Sound Pressure Level / dB (re 20 µPa/V)  [2.83V at 1m]"	"Frequency / Hz"	"Sound Pressure Level / dB (re 20 µPa/V)  [2.83V at 1m]"	"Frequency / Hz"	"Sound Pressure Level / dB (re 20 µPa/V)  [2.83V at 1m]"	"Frequency / Hz"	"Sound Pressure Level / dB (re 20 µPa/V)  [2.83V at 1m]"	"Frequency / Hz"	"Sound Pressure Level / dB (re 20 µPa/V)  [2.83V at 1m]"	"Frequency / Hz"	"Sound Pressure Level / dB (re 20 µPa/V)  [2.83V at 1m]"	"Frequency / Hz"	"Sound Pressure Level / dB (re 20 µPa/V)  [2.83V at 1m]"	"Frequency / Hz"	"Sound Pressure Level / dB (re 20 µPa/V)  [2.83V at 1m]"	"Frequency / Hz"	"Sound Pressure Level / dB (re 20 µPa/V)  [2.83V at 1m]"	"Frequency / Hz"	"Sound Pressure Level / dB (re 20 µPa/V)  [2.83V at 1m]"	"Frequency / Hz"	"Sound Pressure Level / dB (re 20 µPa/V)  [2.83V at 1m]"	"Frequency / Hz"	"Sound Pressure Level / dB (re 20 µPa/V)  [2.83V at 1m]"	"Frequency / Hz"	"Sound Pressure Level / dB (re 20 µPa/V)  [2.83V at 1m]"	"Frequency / Hz"	"Sound Pressure Level / dB (re 20 µPa/V)  [2.83V at 1m]"	"Frequency / Hz"	"Sound Pressure Level / dB (re 20 µPa/V)  [2.83V at 1m]"	"Frequency / Hz"	"Sound Pressure Level / dB (re 20 µPa/V)  [2.83V at 1m]"	"Frequency / Hz"	"Sound Pressure Level / dB (re 20 µPa/V)  [2.83V at 1m]"	"Frequency / Hz"	"Sound Pressure Level / dB (re 20 µPa/V)  [2.83V at 1m]"	"Frequency / Hz"	"Sound Pressure Level / dB (re 20 µPa/V)  [2.83V at 1m]"	"Frequency / Hz"	"Sound Pressure Level / dB (re 20 µPa/V)  [2.83V at 1m]"	"Frequency / Hz"	"Sound Pressure Level / dB (re 20 µPa/V)  [2.83V at 1m]"	"Frequency / Hz"	"Sound Pressure Level / dB (re 20 µPa/V)  [2.83V at 1m]"	"Frequency / Hz"	"Sound Pressure Level / dB (re 20 µPa/V)  [2.83V at 1m]"	"Frequency / Hz"	"Sound Pressure Level / dB (re 20 µPa/V)  [2.83V at 1m]"	"Frequency / Hz"	"Sound Pressure Level / dB (re 20 µPa/V)  [2.83V at 1m]"	"Frequency / Hz"	"Sound Pressure Level / dB (re 20 µPa/V)  [2.83V at 1m]"	"Frequency / Hz"	"Sound Pressure Level / dB (re 20 µPa/V)  [2.83V at 1m]"	"Frequency / Hz"	"Sound Pressure Level / dB (re 20 µPa/V)  [2.83V at 1m]"	"Frequency / Hz"	"Sound Pressure Level / dB (re 20 µPa/V)  [2.83V at 1m]"	"Frequency / Hz"	"Sound Pressure Level / dB (re 20 µPa/V)  [2.83V at 1m]"
20.5078	56.1459	20.5078	55.9041	20.5078	56.0838	20.5078	55.3549	20.5078	55.6925	20.5078	54.4644	20.5078	54.911	20.5078	53.1584	20.5078	53.6232	20.5078	51.3019	20.5078	51.6191	20.5078	48.6907	20.5078	48.5711	20.5078	45.4106	20.5078	45.0207	20.5078	44.4732	20.5078	46.7022	20.5078	48.0478	20.5078	51.3529	20.5078	51.782	20.5078	54.9573	20.5078	54.6962	20.5078	57.607	20.5078	56.9735	20.5078	59.5908	20.5078	58.7886	20.5078	61.0767	20.5078	60.2463	20.5078	62.1596	20.5078	61.4059	20.5078	62.8957	20.5078	62.2988	20.5078	63.3205	20.5078	62.9386	20.5078	63.4586	20.5078	63.3273
21.9727	58.1405	21.9727	57.9631	21.9727	58.0601	21.9727	57.5303	21.9727	57.7003	21.9727	56.8259	21.9727	57.016	21.9727	55.8131	21.9727	55.9301	21.9727	54.4326	21.9727	54.3222	21.9727	52.619	21.9727	52.0563	21.9727	50.4339	21.9727	49.4031	21.9727	48.6984	21.9727	48.8608	21.9727	49.3572	21.9727	51.8544	21.9727	51.9842	21.9727	55.1959	21.9727	54.7278	21.9727	57.8516	21.9727	57.0463	21.9727	59.8752	21.9727	58.9347	21.9727	61.3951	21.9727	60.4588	21.9727	62.501	21.9727	61.6707	21.9727	63.2503	21.9727	62.6023	21.9727	63.6802	21.9727	63.2692	21.9727	63.8161	21.9727	63.6753
23.4375	59.4491	23.4375	59.2663	23.4375	59.3755	23.4375	58.8289	23.4375	59.0251	23.4375	58.1197	23.4375	58.3547	23.4375	57.1	23.4375	57.2903	23.4375	55.7063	23.4375	55.7178	23.4375	53.8596	23.4375	53.5094	23.4375	51.5802	23.4375	50.9047	23.4375	49.6243	23.4375	50.1879	23.4375	50.1368	23.4375	52.9814	23.4375	52.8447	23.4375	56.2812	23.4375	55.6786	23.4375	58.9341	23.4375	58.0506	23.4375	60.9588	23.4375	59.9689	23.4375	62.4786	23.4375	61.5099	23.4375	63.5831	23.4375	62.7315	23.4375	64.3302	23.4375	63.6688	23.4375	64.7576	23.4375	64.3393	23.4375	64.8911	23.4375	64.748
24.9023	61.6458	24.9023	61.498	24.9023	61.5797	24.9023	61.1396	24.9023	61.285	24.9023	60.5638	24.9023	60.735	24.9023	59.7533	24.9023	59.8913	24.9023	58.6845	24.9023	58.7118	24.9023	57.3425	24.9023	57.196	24.9023	55.7845	24.9023	55.575	24.9023	54.3361	24.9023	54.7436	24.9023	53.8394	24.9023	55.7407	24.9023	54.9145	24.9023	57.9005	24.9023	56.8975	24.9023	60.1032	24.9023	58.9566	24.9023	61.953	24.9023	60.7749	24.9023	63.3997	24.9023	62.2932	24.9023	64.4703	24.9023	63.5197	24.9023	65.199	24.9023	64.4707	24.9023	65.6137	24.9023	65.1566	24.9023	65.7354	24.9023	65.5796
26.3672	61.4729	26.3672	61.3327	26.3672	61.3963	26.3672	60.9837	26.3672	61.0908	26.3672	60.4326	26.3672	60.5439	26.3672	59.6932	26.3672	59.7582	26.3672	58.8096	26.3672	58.7997	26.3672	57.9068	26.3672	57.9149	26.3672	57.2635	26.3672	57.6449	26.3672	57.2754	26.3672	58.4666	26.3672	58.1227	26.3672	60.1217	26.3672	59.5462	26.3672	61.9963	26.3672	61.157	26.3672	63.7256	26.3672	62.7126	26.3672	65.1848	26.3672	64.1107	26.3672	66.3488	26.3672	65.3172	26.3672	67.2232	26.3672	66.3226	26.3672	67.8209	26.3672	67.1232	26.3672	68.156	26.3672	67.7149	26.3672	68.2417	26.3672	68.0909
27.832	63.4519	27.832	63.354	27.832	63.3906	27.832	63.1059	27.832	63.167	27.832	62.7232	27.832	62.7891	27.832	62.2351	27.832	62.2924	27.832	61.6981	27.832	61.771	27.832	61.2151	27.832	61.4157	27.832	60.9445	27.832	61.4917	27.832	61.0579	27.832	62.163	27.832	61.6334	27.832	63.3195	27.832	62.5899	27.832	64.6868	27.832	63.7541	27.832	66.0329	27.832	64.9665	27.832	67.2282	27.832	66.1226	27.832	68.2149	27.832	67.1639	27.832	68.9713	27.832	68.0586	27.832	69.4924	27.832	68.7874	27.832	69.7811	27.832	69.3362	27.832	69.8446	27.832	69.6925
29.2969	65.3555	29.2969	65.2703	29.2969	65.319	29.2969	65.0707	29.2969	65.1619	29.2969	64.7728	29.2969	64.8985	29.2969	64.4053	29.2969	64.5678	29.2969	64.0172	29.2969	64.2498	29.2969	63.6866	29.2969	64.0777	29.2969	63.5198	29.2969	64.2115	29.2969	63.6251	29.2969	64.7478	29.2969	64.0599	29.2969	65.6383	29.2969	64.7925	29.2969	66.724	29.2969	65.7228	29.2969	67.8378	29.2969	66.7358	29.2969	68.8616	29.2969	67.7388	29.2969	69.7276	29.2969	68.6688	29.2969	70.4014	29.2969	69.4856	29.2969	70.8681	29.2969	70.1621	29.2969	71.1239	29.2969	70.6788	29.2969	71.1719	29.2969	71.0199
30.7617	67.3261	30.7617	67.2467	30.7617	67.3155	30.7617	67.0835	30.7617	67.218	30.7617	66.851	30.7617	67.0493	30.7617	66.5749	30.7617	66.8442	30.7617	66.2957	30.7617	66.6648	30.7617	66.0716	30.7617	66.6024	30.7617	65.9755	30.7617	66.7574	30.7617	66.0786	30.7617	67.1925	30.7617	66.4224	30.7617	67.8891	30.7617	66.9966	30.7617	68.7543	30.7617	67.7436	30.7617	69.671	30.7617	68.5843	30.7617	70.5396	30.7617	69.4437	30.7617	71.2917	30.7617	70.2621	30.7617	71.8862	30.7617	70.9963	30.7617	72.3008	30.7617	71.6146	30.7617	72.5263	30.7617	72.0935	30.7617	72.562	30.7617	72.4142
32.2266	69.1985	32.2266	69.1269	32.2266	69.2002	32.2266	68.9904	32.2266	69.1356	32.2266	68.8022	32.2266	69.0192	32.2266	68.5843	32.2266	68.8812	32.2266	68.3702	32.2266	68.7714	32.2266	68.2056	32.2266	68.7585	32.2266	68.1447	32.2266	68.9155	32.2266	68.2402	32.2266	69.2894	32.2266	68.5252	32.2266	69.8726	32.2266	68.9986	32.2266	70.6026	32.2266	69.6241	32.2266	71.3905	32.2266	70.3443	32.2266	72.1518	32.2266	71.0977	32.2266	72.8217	32.2266	71.8302	32.2266	73.3571	32.2266	72.4984	32.2266	73.7322	32.2266	73.069	32.2266	73.9347	32.2266	73.516	32.2266	73.962	32.2266	73.8188
33.6914	70.8867	33.6914	70.8198	33.6914	70.9008	33.6914	70.7045	33.6914	70.866	33.6914	70.552	33.6914	70.7959	33.6914	70.3816	33.6914	70.7162	33.6914	70.2212	33.6914	70.6675	33.6914	70.1071	33.6914	70.7022	33.6914	70.0811	33.6914	70.8736	33.6914	70.1826	33.6914	71.2157	33.6914	70.437	33.6914	71.7244	33.6914	70.8462	33.6914	72.3552	33.6914	71.386	33.6914	73.0401	33.6914	72.014	33.6914	73.7093	33.6914	72.6806	33.6914	74.3043	33.6914	73.3386	33.6914	74.7832	33.6914	73.9473	33.6914	75.1193	33.6914	74.4734	33.6914	75.2982	33.6914	74.8902	33.6914	75.3159	33.6914	75.1764
35.1562	72.5315	35.1562	72.4681	35.1562	72.5559	35.1562	72.3692	35.1562	72.545	35.1562	72.2445	35.1562	72.5107	35.1562	72.1104	35.1562	72.475	35.1562	71.9901	35.1562	72.4705	35.1562	71.9126	35.1562	72.5376	35.1562	71.9105	35.1562	72.7163	35.1562	72.0142	35.1562	73.0319	35.1562	72.2439	35.1562	73.482	35.1562	72.6026	35.1562	74.0339	35.1562	73.074	35.1562	74.6345	35.1562	73.6263	35.1562	75.2255	35.1562	74.2194	35.1562	75.7551	35.1562	74.8125	35.1562	76.1836	35.1562	75.368	35.1562	76.4839	35.1562	75.8537	35.1562	76.641	35.1562	76.2427	35.1562	76.6497	35.1562	76.5135
36.6211	74.0586	36.6211	73.9972	36.6211	74.0918	36.6211	73.9104	36.6211	74.0999	36.6211	73.8064	36.6211	74.0935	36.6211	73.6993	36.6211	74.0909	36.6211	73.6083	36.6211	74.1186	36.6211	73.5571	36.6211	74.2083	36.6211	73.5717	36.6211	74.3906	36.6211	73.6761	36.6211	74.6849	36.6211	73.8868	36.6211	75.0895	36.6211	74.2071	36.6211	75.5793	36.6211	74.6257	36.6211	76.1119	36.6211	75.1179	36.6211	76.6381	36.6211	75.651	36.6211	77.112	36.6211	76.1895	36.6211	77.4964	36.6211	76.6992	36.6211	77.7651	36.6211	77.1493	36.6211	77.9027	36.6211	77.5135	36.6211	77.9035	36.6211	77.7703
38.0859	75.6717	38.0859	75.6137	38.0859	75.7095	38.0859	75.5378	38.0859	75.7301	38.0859	75.4509	38.0859	75.7419	38.0859	75.3644	38.0859	75.7598	38.0859	75.2937	38.0859	75.8048	38.0859	75.2577	38.0859	75.9014	38.0859	75.277	38.0859	76.0735	38.0859	75.3708	38.0859	76.3362	38.0859	75.553	38.0859	76.6894	38.0859	75.828	38.0859	77.1146	38.0859	76.1887	38.0859	77.5783	38.0859	76.6171	38.0859	78.0394	38.0859	77.0869	38.0859	78.4573	38.0859	77.5678	38.0859	78.7977	38.0859	78.0287	38.0859	79.0349	38.0859	78.4406	38.0859	79.1534	38.0859	78.7776	38.0859	79.1472	38.0859	79.0186
39.5508	76.9554	39.5508	76.8973	39.5508	77	39.5508	76.8277	39.5508	77.0338	39.5508	76.7526	39.5508	77.0641	39.5508	76.6817	39.5508	77.1035	39.5508	76.6282	39.5508	77.1692	39.5508	76.6081	39.5508	77.2811	39.5508	76.6382	39.5508	77.4578	39.5508	76.7346	39.5508	77.7109	39.5508	76.9085	39.5508	78.0396	39.5508	77.1639	39.5508	78.4285	39.5508	77.4953	39.5508	78.8491	39.5508	77.8879	39.5508	79.2664	39.5508	78.3195	39.5508	79.6442	39.5508	78.7635	39.5508	79.9511	39.5508	79.1917	39.5508	80.1634	39.5508	79.5773	39.5508	80.2658	39.5508	79.8956	39.5508	80.2525	39.5508	80.1259
41.0156	78.2732	41.0156	78.2161	41.0156	78.3229	41.0156	78.1534	41.0156	78.3675	41.0156	78.0898	41.0156	78.413	41.0156	78.0337	41.0156	78.4695	41.0156	77.9957	41.0156	78.5507	41.0156	77.9887	41.0156	78.672	41.0156	78.0265	41.0156	78.8475	41.0156	78.1217	41.0156	79.086	41.0156	78.2837	41.0156	79.3864	41.0156	78.5159	41.0156	79.7361	41.0156	78.8144	41.0156	80.1118	41.0156	79.1677	41.0156	80.4836	41.0156	79.5575	41.0156	80.82	41.0156	79.9609	41.0156	81.0927	41.0156	80.3531	41.0156	81.2795	41.0156	80.7091	41.0156	81.3661	41.0156	81.0059	41.0156	81.3467	41.0156	81.2235
42.4805	79.4583	42.4805	79.4013	42.4805	79.5125	42.4805	79.3427	42.4805	79.5653	42.4805	79.2868	42.4805	79.6217	42.4805	79.2404	42.4805	79.69	42.4805	79.2124	42.4805	79.7809	42.4805	79.2136	42.4805	79.9067	42.4805	79.2551	42.4805	80.0783	42.4805	79.3475	42.4805	80.3026	42.4805	79.4984	42.4805	80.5784	42.4805	79.7111	42.4805	80.8952	42.4805	79.9827	42.4805	81.2334	42.4805	80.3039	42.4805	81.5673	42.4805	80.6593	42.4805	81.8691	42.4805	81.0292	42.4805	82.113	42.4805	81.3911	42.4805	82.2784	42.4805	81.7222	42.4805	82.3516	42.4805	82.0005	42.4805	82.3271	42.4805	82.2071
43.9453	80.5104	43.9453	80.4545	43.9453	80.5678	43.9453	80.4013	43.9453	80.6279	43.9453	80.3542	43.9453	80.6947	43.9453	80.3187	43.9453	80.7746	43.9453	80.3023	43.9453	80.8759	43.9453	80.3133	43.9453	81.0081	43.9453	80.3608	43.9453	81.1793	43.9453	80.4532	43.9453	81.3942	43.9453	80.5967	43.9453	81.6514	43.9453	80.794	43.9453	81.9417	43.9453	81.0429	43.9453	82.2484	43.9453	81.3361	43.9453	82.5493	43.9453	81.6606	43.9453	82.8199	43.9453	81.9995	43.9453	83.0372	43.9453	82.333	43.9453	83.1824	43.9453	82.6401	43.9453	83.2428	43.9453	82.9006	43.9453	83.2134	43.9453	83.0964
45.4102	81.455	45.4102	81.3984	45.4102	81.516	45.4102	81.3473	45.4102	81.5824	45.4102	81.3046	45.4102	81.6571	45.4102	81.2748	45.4102	81.7448	45.4102	81.2637	45.4102	81.8519	45.4102	81.2783	45.4102	81.9852	45.4102	81.3257	45.4102	82.1509	45.4102	81.4127	45.4102	82.352	45.4102	81.5445	45.4102	82.5871	45.4102	81.7235	45.4102	82.8482	45.4102	81.9482	45.4102	83.1215	45.4102	82.2127	45.4102	83.3878	45.4102	82.5065	45.4102	83.6258	45.4102	82.815	45.4102	83.8151	45.4102	83.1208	45.4102	83.9387	45.4102	83.4048	45.4102	83.985	45.4102	83.6484	45.4102	83.9495	45.4102	83.8344
46.875	82.7706	46.875	82.72	46.875	82.8271	46.875	82.6762	46.875	82.8905	46.875	82.642	46.875	82.9636	46.875	82.6217	46.875	83.0508	46.875	82.6208	46.875	83.1579	46.875	82.646	46.875	83.291	46.875	82.7038	46.875	83.4553	46.875	82.8004	46.875	83.653	46.875	82.9401	46.875	83.8822	46.875	83.1245	46.875	84.1356	46.875	83.3512	46.875	84.4001	46.875	83.6137	46.875	84.6585	46.875	83.9011	46.875	84.8915	46.875	84.1988	46.875	85.08	46.875	84.4898	46.875	85.2081	46.875	84.7561	46.875	85.2644	46.875	84.9802	46.875	85.2436	46.875	85.1466
48.3398	83.4667	48.3398	83.4145	48.3398	83.5261	48.3398	83.3702	48.3398	83.5931	48.3398	83.3362	48.3398	83.6699	48.3398	83.316	48.3398	83.7597	48.3398	83.3142	48.3398	83.8667	48.3398	83.3361	48.3398	83.9954	48.3398	83.3871	48.3398	84.1496	48.3398	83.4726	48.3398	84.3307	48.3398	83.5963	48.3398	84.537	48.3398	83.7599	48.3398	84.7623	48.3398	83.9618	48.3398	84.9955	48.3398	84.197	48.3398	85.2221	48.3398	84.4563	48.3398	85.425	48.3398	84.7272	48.3398	85.5875	48.3398	84.9946	48.3398	85.6949	48.3398	85.2418	48.3398	85.7371	48.3398	85.4525	48.3398	85.7091	48.3398	85.612
51.2695	84.4694	51.2695	84.4152	51.2695	84.5324	51.2695	84.3705	51.2695	84.6043	51.2695	84.337	51.2695	84.686	51.2695	84.3172	51.2695	84.7791	51.2695	84.3141	51.2695	84.8857	51.2695	84.3314	51.2695	85.0081	51.2695	84.3731	51.2695	85.1479	51.2695	84.4427	51.2695	85.3054	51.2695	84.5435	51.2695	85.4788	51.2695	84.6769	51.2695	85.6631	51.2695	84.8423	51.2695	85.8501	51.2695	85.0366	51.2695	86.0287	51.2695	85.2533	51.2695	86.1857	51.2695	85.4827	51.2695	86.3076	51.2695	85.7127	51.2695	86.3827	51.2695	85.9294	51.2695	86.4025	51.2695	86.1183	51.2695	86.3633	51.2695	86.2665
52.7344	84.8461	52.7344	84.7903	52.7344	84.9116	52.7344	84.7448	52.7344	84.9864	52.7344	84.7113	52.7344	85.0709	52.7344	84.6916	52.7344	85.1661	52.7344	84.6883	52.7344	85.2731	52.7344	84.7045	52.7344	85.3932	52.7344	84.7432	52.7344	85.5272	52.7344	84.8075	52.7344	85.675	52.7344	84.9	52.7344	85.8347	52.7344	85.0221	52.7344	86.0018	52.7344	85.1733	52.7344	86.1693	52.7344	85.3512	52.7344	86.3273	52.7344	85.5501	52.7344	86.4645	52.7344	85.7619	52.7344	86.569	52.7344	85.9756	52.7344	86.63	52.7344	86.1785	52.7344	86.6403	52.7344	86.3575	52.7344	86.5965	52.7344	86.5001
54.1992	85.1384	54.1992	85.0823	54.1992	85.2052	54.1992	85.0377	54.1992	85.2822	54.1992	85.0057	54.1992	85.3695	54.1992	84.9881	54.1992	85.4672	54.1992	84.9867	54.1992	85.5758	54.1992	85.004	54.1992	85.6958	54.1992	85.0422	54.1992	85.8272	54.1992	85.1039	54.1992	85.9692	54.1992	85.1911	54.1992	86.1198	54.1992	85.3049	54.1992	86.2748	54.1992	85.4452	54.1992	86.4277	54.1992	85.6096	54.1992	86.5699	54.1992	85.7938	54.1992	86.6913	54.1992	85.9904	54.1992	86.7813	54.1992	86.19	54.1992	86.8306	54.1992	86.3809	54.1992	86.8327	54.1992	86.5511	54.1992	86.7848	54.1992	86.6889
55.6641	85.401	55.6641	85.3447	55.6641	85.4687	55.6641	85.3007	55.6641	85.5474	55.6641	85.2699	55.6641	85.6366	55.6641	85.2536	55.6641	85.7359	55.6641	85.2532	55.6641	85.8451	55.6641	85.2704	55.6641	85.9639	55.6641	85.3069	55.6641	86.0915	55.6641	85.3647	55.6641	86.2267	55.6641	85.4452	55.6641	86.367	55.6641	85.5495	55.6641	86.5086	55.6641	85.6774	55.6641	86.6458	55.6641	85.8274	55.6641	86.7709	55.6641	85.9956	55.6641	86.8753	55.6641	86.1761	55.6641	86.9497	55.6641	86.3606	55.6641	86.9864	55.6641	86.5387	55.6641	86.9796	55.6641	86.6994	55.6641	86.9274	55.6641	86.832
58.5938	85.87	58.5938	85.8093	58.5938	85.9429	58.5938	85.7617	58.5938	86.027	58.5938	85.7278	58.5938	86.1211	58.5938	85.7085	58.5938	86.2238	58.5938	85.7043	58.5938	86.3335	58.5938	85.7159	58.5938	86.4486	58.5938	85.7443	58.5938	86.5671	58.5938	85.7904	58.5938	86.6868	58.5938	85.855	58.5938	86.805	58.5938	85.9389	58.5938	86.9182	58.5938	86.0423	58.5938	87.0221	58.5938	86.1645	58.5938	87.1113	58.5938	86.3031	58.5938	87.1795	58.5938	86.4541	58.5938	87.2205	58.5938	86.6116	58.5938	87.2288	58.5938	86.7676	58.5938	87.2012	58.5938	86.9131	58.5938	87.1369	58.5938	87.039
60.0586	86.0788	60.0586	86.0125	60.0586	86.1574	60.0586	85.9595	60.0586	86.247	60.0586	85.9207	60.0586	86.3459	60.0586	85.8965	60.0586	86.4524	60.0586	85.8875	60.0586	86.5641	60.0586	85.894	60.0586	86.6788	60.0586	85.9167	60.0586	86.794	60.0586	85.956	60.0586	86.9071	60.0586	86.0129	60.0586	87.0153	60.0586	86.0877	60.0586	87.1152	60.0586	86.1809	60.0586	87.203	60.0586	86.292	60.0586	87.2743	60.0586	86.4192	60.0586	87.324	60.0586	86.5594	60.0586	87.3473	60.0586	86.7074	60.0586	87.3399	60.0586	86.8564	60.0586	87.2996	60.0586	86.9982	60.0586	87.2266	60.0586	87.1242
62.9883	86.4895	62.9883	86.4193	62.9883	86.5709	62.9883	86.3617	62.9883	86.6619	62.9883	86.3176	62.9883	86.76	62.9883	86.2873	62.9883	86.8627	62.9883	86.271	62.9883	86.967	62.9883	86.2688	62.9883	87.0697	62.9883	86.2805	62.9883	87.1677	62.9883	86.3062	62.9883	87.2583	62.9883	86.3462	62.9883	87.3388	62.9883	86.4006	62.9883	87.4066	62.9883	86.4698	62.9883	87.4594	62.9883	86.5537	62.9883	87.4947	62.9883	86.6515	62.9883	87.51	62.9883	86.7615	62.9883	87.503	62.9883	86.8806	62.9883	87.472	62.9883	87.0039	62.9883	87.4164	62.9883	87.1255	62.9883	87.3376	62.9883	87.2389
64.4531	86.5996	64.4531	86.5366	64.4531	86.6727	64.4531	86.4849	64.4531	86.754	64.4531	86.4451	64.4531	86.8414	64.4531	86.4175	64.4531	86.9319	64.4531	86.4021	64.4531	87.0228	64.4531	86.3985	64.4531	87.1109	64.4531	86.4064	64.4531	87.1931	64.4531	86.4256	64.4531	87.267	64.4531	86.456	64.4531	87.33	64.4531	86.4977	64.4531	87.3804	64.4531	86.5511	64.4531	87.4165	64.4531	86.6162	64.4531	87.4369	64.4531	86.693	64.4531	87.4399	64.4531	86.7805	64.4531	87.4245	64.4531	86.8765	64.4531	87.3896	64.4531	86.9778	64.4531	87.3354	64.4531	87.0796	64.4531	87.2633	64.4531	87.1765
67.3828	87.0471	67.3828	86.9921	67.3828	87.1127	67.3828	86.9488	67.3828	87.1873	67.3828	86.9173	67.3828	87.2686	67.3828	86.8974	67.3828	87.3538	67.3828	86.8883	67.3828	87.4394	67.3828	86.889	67.3828	87.5219	67.3828	86.8984	67.3828	87.5979	67.3828	86.9157	67.3828	87.6641	67.3828	86.9403	67.3828	87.718	67.3828	86.972	67.3828	87.7574	67.3828	87.0111	67.3828	87.7811	67.3828	87.0582	67.3828	87.788	67.3828	87.1139	67.3828	87.778	67.3828	87.1785	67.3828	87.7509	67.3828	87.2516	67.3828	87.7076	67.3828	87.3315	67.3828	87.6493	67.3828	87.4154	67.3828	87.5787	67.3828	87.4993
