"SPL Vertical"
"On-Axis"		"10°"		"-10°"		"20°"		"-20°"		"30°"		"-30°"		"40°"		"-40°"		"50°"		"-50°"		"60°"		"-60°"		"70°"		"-70°"		"80°"		"-80°"		"90°"		"-90°"		"100°"		"-100°"		"110°"		"-110°"		"120°"		"-120°"		"130°"		"-130°"		"140°"		"-140°"		"150°"		"-150°"		"160°"		"-160°"		"170°"		"-170°"		"180°"
"Frequency [Hz]"	"Sound Pessure Level [dB]  / [2.83V 1m] "	"Frequency [Hz]"	"Sound Pessure Level [dB]  / [2.83V 1m] "	"Frequency [Hz]"	"Sound Pessure Level [dB]  / [2.83V 1m] "	"Frequency [Hz]"	"Sound Pessure Level [dB]  / [2.83V 1m] "	"Frequency [Hz]"	"Sound Pessure Level [dB]  / [2.83V 1m] "	"Frequency [Hz]"	"Sound Pessure Level [dB]  / [2.83V 1m] "	"Frequency [Hz]"	"Sound Pessure Level [dB]  / [2.83V 1m] "	"Frequency [Hz]"	"Sound Pessure Level [dB]  / [2.83V 1m] "	"Frequency [Hz]"	"Sound Pessure Level [dB]  / [2.83V 1m] "	"Frequency [Hz]"	"Sound Pessure Level [dB]  / [2.83V 1m] "	"Frequency [Hz]"	"Sound Pessure Level [dB]  / [2.83V 1m] "	"Frequency [Hz]"	"Sound Pessure Level [dB]  / [2.83V 1m] "	"Frequency [Hz]"	"Sound Pessure Level [dB]  / [2.83V 1m] "	"Frequency [Hz]"	"Sound Pessure Level [dB]  / [2.83V 1m] "	"Frequency [Hz]"	"Sound Pessure Level [dB]  / [2.83V 1m] "	"Frequency [Hz]"	"Sound Pessure Level [dB]  / [2.83V 1m] "	"Frequency [Hz]"	"Sound Pessure Level [dB]  / [2.83V 1m] "	"Frequency [Hz]"	"Sound Pessure Level [dB]  / [2.83V 1m] "	"Frequency [Hz]"	"Sound Pessure Level [dB]  / [2.83V 1m] "	"Frequency [Hz]"	"Sound Pessure Level [dB]  / [2.83V 1m] "	"Frequency [Hz]"	"Sound Pessure Level [dB]  / [2.83V 1m] "	"Frequency [Hz]"	"Sound Pessure Level [dB]  / [2.83V 1m] "	"Frequency [Hz]"	"Sound Pessure Level [dB]  / [2.83V 1m] "	"Frequency [Hz]"	"Sound Pessure Level [dB]  / [2.83V 1m] "	"Frequency [Hz]"	"Sound Pessure Level [dB]  / [2.83V 1m] "	"Frequency [Hz]"	"Sound Pessure Level [dB]  / [2.83V 1m] "	"Frequency [Hz]"	"Sound Pessure Level [dB]  / [2.83V 1m] "	"Frequency [Hz]"	"Sound Pessure Level [dB]  / [2.83V 1m] "	"Frequency [Hz]"	"Sound Pessure Level [dB]  / [2.83V 1m] "	"Frequency [Hz]"	"Sound Pessure Level [dB]  / [2.83V 1m] "	"Frequency [Hz]"	"Sound Pessure Level [dB]  / [2.83V 1m] "	"Frequency [Hz]"	"Sound Pessure Level [dB]  / [2.83V 1m] "	"Frequency [Hz]"	"Sound Pessure Level [dB]  / [2.83V 1m] "	"Frequency [Hz]"	"Sound Pessure Level [dB]  / [2.83V 1m] "	"Frequency [Hz]"	"Sound Pessure Level [dB]  / [2.83V 1m] "	"Frequency [Hz]"	"Sound Pessure Level [dB]  / [2.83V 1m] "
20.5078	60.4368	20.5078	60.2191	20.5078	60.6516	20.5078	60.006	20.5078	60.8562	20.5078	59.8042	20.5078	61.0432	20.5078	59.6195	20.5078	61.2057	20.5078	59.4566	20.5078	61.3372	20.5078	59.3188	20.5078	61.4314	20.5078	59.2085	20.5078	61.4835	20.5078	59.127	20.5078	61.4903	20.5078	59.075	20.5078	61.4509	20.5078	59.0528	20.5078	61.3674	20.5078	59.0603	20.5078	61.2446	20.5078	59.0971	20.5078	61.0892	20.5078	59.1628	20.5078	60.9086	20.5078	59.2566	20.5078	60.7104	20.5078	59.3774	20.5078	60.5017	20.5078	59.5232	20.5078	60.2894	20.5078	59.6915	20.5078	60.0797	20.5078	59.8785
21.9727	62.9819	21.9727	62.7945	21.9727	63.165	21.9727	62.6094	21.9727	63.3364	21.9727	62.4329	21.9727	63.4887	21.9727	62.27	21.9727	63.6147	21.9727	62.1249	21.9727	63.7079	21.9727	62.0009	21.9727	63.7632	21.9727	61.9005	21.9727	63.7774	21.9727	61.8252	21.9727	63.7493	21.9727	61.7761	21.9727	63.6809	21.9727	61.7533	21.9727	63.5767	21.9727	61.7564	21.9727	63.4438	21.9727	61.7843	21.9727	63.2908	21.9727	61.8352	21.9727	63.1268	21.9727	61.9069	21.9727	62.9596	21.9727	61.9966	21.9727	62.7953	21.9727	62.1018	21.9727	62.6377	21.9727	62.2199	21.9727	62.4887	21.9727	62.3492
23.4375	63.7734	23.4375	63.5704	23.4375	63.9714	23.4375	63.3692	23.4375	64.1573	23.4375	63.1762	23.4375	64.3235	23.4375	62.9965	23.4375	64.4627	23.4375	62.8348	23.4375	64.5676	23.4375	62.6946	23.4375	64.6324	23.4375	62.5785	23.4375	64.6526	23.4375	62.4883	23.4375	64.6263	23.4375	62.4251	23.4375	64.5543	23.4375	62.3893	23.4375	64.441	23.4375	62.3808	23.4375	64.2933	23.4375	62.3991	23.4375	64.1199	23.4375	62.4434	23.4375	63.9305	23.4375	62.5122	23.4375	63.7338	23.4375	62.6042	23.4375	63.5376	23.4375	62.7175	23.4375	63.3475	23.4375	62.8505	23.4375	63.1677	23.4375	63.0013
24.9023	64.6144	24.9023	64.4244	24.9023	64.7971	24.9023	64.2334	24.9023	64.9661	24.9023	64.047	24.9023	65.1146	24.9023	63.8703	24.9023	65.2359	24.9023	63.7074	24.9023	65.3239	24.9023	63.562	24.9023	65.3732	24.9023	63.4367	24.9023	65.3801	24.9023	63.3338	24.9023	65.3428	24.9023	63.2549	24.9023	65.2621	24.9023	63.2013	24.9023	65.1422	24.9023	63.1737	24.9023	64.9895	24.9023	63.1723	24.9023	64.8123	24.9023	63.1972	24.9023	64.6199	24.9023	63.2481	24.9023	64.421	24.9023	63.3242	24.9023	64.2231	24.9023	63.4244	24.9023	64.0326	24.9023	63.5474	24.9023	63.8541	24.9023	63.6914
26.3672	65.9222	26.3672	65.7387	26.3672	66.1046	26.3672	65.5595	26.3672	66.2797	26.3672	65.3894	26.3672	66.4412	26.3672	65.2326	26.3672	66.5821	26.3672	65.0923	26.3672	66.6959	26.3672	64.9715	26.3672	66.7764	26.3672	64.8724	26.3672	66.8185	26.3672	64.7966	26.3672	66.8194	26.3672	64.7454	26.3672	66.7787	26.3672	64.7198	26.3672	66.699	26.3672	64.7202	26.3672	66.5852	26.3672	64.7468	26.3672	66.4442	26.3672	64.7993	26.3672	66.2832	26.3672	64.8769	26.3672	66.1095	26.3672	64.9782	26.3672	65.9293	26.3672	65.1012	26.3672	65.748	26.3672	65.2431	26.3672	65.5704	26.3672	65.4008
27.832	66.591	27.832	66.3975	27.832	66.7839	27.832	66.2096	27.832	66.9695	27.832	66.0327	27.832	67.1401	27.832	65.8709	27.832	67.2881	27.832	65.7278	27.832	67.4061	27.832	65.6057	27.832	67.4873	27.832	65.5065	27.832	67.5266	27.832	65.4314	27.832	67.5211	27.832	65.3813	27.832	67.4706	27.832	65.3564	27.832	67.3781	27.832	65.3568	27.832	67.2493	27.832	65.382	27.832	67.0921	27.832	65.4315	27.832	66.9153	27.832	65.5044	27.832	66.7277	27.832	65.5996	27.832	66.537	27.832	65.7155	27.832	66.3495	27.832	65.8507	27.832	66.1703	27.832	66.003
29.2969	67.2613	29.2969	67.0793	29.2969	67.4397	29.2969	66.8993	29.2969	67.6083	29.2969	66.7262	29.2969	67.7606	29.2969	66.5644	29.2969	67.8897	29.2969	66.4174	29.2969	67.9889	29.2969	66.2884	29.2969	68.0522	29.2969	66.1797	29.2969	68.075	29.2969	66.0933	29.2969	68.055	29.2969	66.0308	29.2969	67.9925	29.2969	65.993	29.2969	67.8911	29.2969	65.9806	29.2969	67.757	29.2969	65.9936	29.2969	67.5982	29.2969	66.0316	29.2969	67.4236	29.2969	66.0939	29.2969	67.2413	29.2969	66.179	29.2969	67.0584	29.2969	66.2854	29.2969	66.8803	29.2969	66.411	29.2969	66.711	29.2969	66.5537
30.7617	68.4019	30.7617	68.2193	30.7617	68.5803	30.7617	68.0385	30.7617	68.7478	30.7617	67.8645	30.7617	68.897	30.7617	67.7015	30.7617	69.0202	30.7617	67.5529	30.7617	69.1102	30.7617	67.4215	30.7617	69.1607	30.7617	67.3092	30.7617	69.1674	30.7617	67.2176	30.7617	69.1284	30.7617	67.1477	30.7617	69.0449	30.7617	67.1003	30.7617	68.9216	30.7617	67.0757	30.7617	68.7658	30.7617	67.0739	30.7617	68.587	30.7617	67.0948	30.7617	68.3953	30.7617	67.138	30.7617	68.2005	30.7617	67.2029	30.7617	68.0107	30.7617	67.2891	30.7617	67.832	30.7617	67.3959	30.7617	67.6685	30.7617	67.5227
32.2266	69.0338	32.2266	68.8491	32.2266	69.2157	32.2266	68.6673	32.2266	69.3885	32.2266	68.4932	32.2266	69.5455	32.2266	68.3313	32.2266	69.68	32.2266	68.1849	32.2266	69.785	32.2266	68.0571	32.2266	69.8548	32.2266	67.9501	32.2266	69.8846	32.2266	67.8657	32.2266	69.8719	32.2266	67.8052	32.2266	69.8167	32.2266	67.7692	32.2266	69.7218	32.2266	67.7584	32.2266	69.5925	32.2266	67.7726	32.2266	69.436	32.2266	67.8118	32.2266	69.2603	32.2266	67.8754	32.2266	69.0736	32.2266	67.9626	32.2266	68.8834	32.2266	68.0722	32.2266	68.6964	32.2266	68.2028	32.2266	68.5179	32.2266	68.3522
33.6914	70.0192	33.6914	69.833	33.6914	70.2026	33.6914	69.6498	33.6914	70.3769	33.6914	69.4745	33.6914	70.5351	33.6914	69.3113	33.6914	70.6701	33.6914	69.1636	33.6914	70.7752	33.6914	69.0343	33.6914	70.8443	33.6914	68.9256	33.6914	70.8732	33.6914	68.8394	33.6914	70.8594	33.6914	68.7769	33.6914	70.8032	33.6914	68.7392	33.6914	70.7075	33.6914	68.7268	33.6914	70.5776	33.6914	68.7398	33.6914	70.4205	33.6914	68.7782	33.6914	70.2439	33.6914	68.8415	33.6914	70.0558	33.6914	68.9291	33.6914	69.8636	33.6914	69.0398	33.6914	69.6739	33.6914	69.1721	33.6914	69.4925	33.6914	69.324
35.1562	70.7137	35.1562	70.5387	35.1562	70.8844	35.1562	70.3648	35.1562	71.0449	35.1562	70.1966	35.1562	71.1892	35.1562	70.0384	35.1562	71.3109	35.1562	69.8936	35.1562	71.404	35.1562	69.7653	35.1562	71.4631	35.1562	69.6558	35.1562	71.4842	35.1562	69.5671	35.1562	71.4653	35.1562	69.5007	35.1562	71.4065	35.1562	69.4577	35.1562	71.3107	35.1562	69.4388	35.1562	71.1828	35.1562	69.4444	35.1562	71.0295	35.1562	69.4746	35.1562	70.8582	35.1562	69.5293	35.1562	70.6765	35.1562	69.608	35.1562	70.4915	35.1562	69.7097	35.1562	70.3096	35.1562	69.8331	35.1562	70.1364	35.1562	69.9763
36.6211	71.3758	36.6211	71.1984	36.6211	71.5498	36.6211	71.0233	36.6211	71.7147	36.6211	70.855	36.6211	71.8639	36.6211	70.6977	36.6211	71.9909	36.6211	70.5548	36.6211	72.0894	36.6211	70.4293	36.6211	72.1538	36.6211	70.3234	36.6211	72.1799	36.6211	70.239	36.6211	72.1656	36.6211	70.1775	36.6211	72.1109	36.6211	70.1398	36.6211	72.0188	36.6211	70.1267	36.6211	71.8942	36.6211	70.1382	36.6211	71.7439	36.6211	70.1743	36.6211	71.5751	36.6211	70.2346	36.6211	71.3955	36.6211	70.3182	36.6211	71.2121	36.6211	70.4243	36.6211	71.031	36.6211	70.551	36.6211	70.8576	36.6211	70.6964
38.0859	71.9937	38.0859	71.8135	38.0859	72.1724	38.0859	71.6373	38.0859	72.3433	38.0859	71.4701	38.0859	72.4995	38.0859	71.3159	38.0859	72.634	38.0859	71.1782	38.0859	72.7402	38.0859	71.0596	38.0859	72.8119	38.0859	70.9622	38.0859	72.8448	38.0859	70.8874	38.0859	72.8364	38.0859	70.8362	38.0859	72.787	38.0859	70.8091	38.0859	72.6993	38.0859	70.8061	38.0859	72.5784	38.0859	70.8271	38.0859	72.4312	38.0859	70.8714	38.0859	72.2655	38.0859	70.9381	38.0859	72.0891	38.0859	71.0261	38.0859	71.9091	38.0859	71.1341	38.0859	71.7317	38.0859	71.2607	38.0859	71.5621	38.0859	71.4041
39.5508	72.8005	39.5508	72.6196	39.5508	72.9791	39.5508	72.4422	39.5508	73.1492	39.5508	72.2734	39.5508	73.304	39.5508	72.1174	39.5508	73.4366	39.5508	71.9778	39.5508	73.5405	39.5508	71.8574	39.5508	73.61	39.5508	71.7587	39.5508	73.6411	39.5508	71.683	39.5508	73.6317	39.5508	71.6316	39.5508	73.5822	39.5508	71.6049	39.5508	73.4956	39.5508	71.603	39.5508	73.3768	39.5508	71.6255	39.5508	73.2325	39.5508	71.6716	39.5508	73.0699	39.5508	71.7405	39.5508	72.8963	39.5508	71.8308	39.5508	72.7187	39.5508	71.9412	39.5508	72.5427	39.5508	72.0698	39.5508	72.3734	39.5508	72.2147
41.0156	73.2411	41.0156	73.0592	41.0156	73.4209	41.0156	72.8813	41.0156	73.5914	41.0156	72.7129	41.0156	73.7456	41.0156	72.5589	41.0156	73.8762	41.0156	72.4233	41.0156	73.9765	41.0156	72.3092	41.0156	74.0412	41.0156	72.2192	41.0156	74.0671	41.0156	72.1548	41.0156	74.0533	41.0156	72.117	41.0156	74.0016	41.0156	72.1058	41.0156	73.9165	41.0156	72.1206	41.0156	73.8044	41.0156	72.1599	41.0156	73.6722	41.0156	72.2217	41.0156	73.5271	41.0156	72.3036	41.0156	73.3752	41.0156	72.4029	41.0156	73.2212	41.0156	72.5166	41.0156	73.0687	41.0156	72.6421	41.0156	72.92	41.0156	72.7773
42.4805	73.8992	42.4805	73.7147	42.4805	74.0788	42.4805	73.531	42.4805	74.2475	42.4805	73.3533	42.4805	74.3987	42.4805	73.1862	42.4805	74.5261	42.4805	73.0336	42.4805	74.6234	42.4805	72.8989	42.4805	74.6854	42.4805	72.785	42.4805	74.7083	42.4805	72.6941	42.4805	74.6902	42.4805	72.628	42.4805	74.6316	42.4805	72.5876	42.4805	74.5358	42.4805	72.5739	42.4805	74.4078	42.4805	72.5868	42.4805	74.2543	42.4805	72.6262	42.4805	74.0825	42.4805	72.6913	42.4805	73.8995	42.4805	72.781	42.4805	73.7121	42.4805	72.8937	42.4805	73.5263	42.4805	73.0275	42.4805	73.3473	42.4805	73.1798
43.9453	74.4123	43.9453	74.2319	43.9453	74.5876	43.9453	74.052	43.9453	74.752	43.9453	73.8775	43.9453	74.8989	43.9453	73.7129	43.9453	75.022	43.9453	73.5619	43.9453	75.1152	43.9453	73.4277	43.9453	75.173	43.9453	73.3132	43.9453	75.1917	43.9453	73.2203	43.9453	75.1692	43.9453	73.1508	43.9453	75.1062	43.9453	73.1058	43.9453	75.0058	43.9453	73.0861	43.9453	74.8731	43.9453	73.092	43.9453	74.7152	43.9453	73.1234	43.9453	74.5396	43.9453	73.1801	43.9453	74.3537	43.9453	73.2612	43.9453	74.1648	43.9453	73.3658	43.9453	73.9791	43.9453	73.4924	43.9453	73.8023	43.9453	73.6388
45.4102	75.0313	45.4102	74.8544	45.4102	75.2037	45.4102	74.6786	45.4102	75.3655	45.4102	74.5088	45.4102	75.5105	45.4102	74.3493	45.4102	75.632	45.4102	74.2038	45.4102	75.724	45.4102	74.0754	45.4102	75.7812	45.4102	73.9667	45.4102	75.8	45.4102	73.8798	45.4102	75.7788	45.4102	73.8163	45.4102	75.7183	45.4102	73.7771	45.4102	75.6219	45.4102	73.7628	45.4102	75.4949	45.4102	73.7734	45.4102	75.3443	45.4102	73.8088	45.4102	75.1772	45.4102	73.8682	45.4102	75.0009	45.4102	73.9506	45.4102	74.8219	45.4102	74.0546	45.4102	74.6457	45.4102	74.1786	45.4102	74.4772	45.4102	74.3204
46.875	75.6391	46.875	75.4659	46.875	75.8081	46.875	75.2935	46.875	75.9671	46.875	75.1264	46.875	76.1097	46.875	74.9685	46.875	76.2294	46.875	74.8229	46.875	76.3198	46.875	74.6926	46.875	76.3753	46.875	74.5799	46.875	76.3915	46.875	74.4868	46.875	76.3662	46.875	74.4149	46.875	76.2999	46.875	74.3655	46.875	76.1955	46.875	74.3394	46.875	76.0584	46.875	74.3371	46.875	75.8958	46.875	74.3589	46.875	75.7158	46.875	74.4049	46.875	75.5268	46.875	74.4749	46.875	75.3366	46.875	74.5684	46.875	75.1522	46.875	74.6847	46.875	74.9793	46.875	74.8224
48.3398	76.2541	48.3398	76.0786	48.3398	76.4242	48.3398	75.9032	48.3398	76.5829	48.3398	75.7326	48.3398	76.7239	48.3398	75.5712	48.3398	76.8407	48.3398	75.4225	48.3398	76.9273	48.3398	75.2897	48.3398	76.9783	48.3398	75.1752	48.3398	76.9903	48.3398	75.081	48.3398	76.9616	48.3398	75.0089	48.3398	76.8931	48.3398	74.9598	48.3398	76.788	48.3398	74.9344	48.3398	76.6517	48.3398	74.9332	48.3398	76.491	48.3398	74.9562	48.3398	76.3132	48.3398	75.0033	48.3398	76.1263	48.3398	75.0744	48.3398	75.9377	48.3398	75.1689	48.3398	75.7541	48.3398	75.2859	48.3398	75.5814	48.3398	75.4242
51.2695	77.173	51.2695	76.9957	51.2695	77.3453	51.2695	76.8187	51.2695	77.5063	51.2695	76.6473	51.2695	77.65	51.2695	76.4859	51.2695	77.77	51.2695	76.3383	51.2695	77.8603	51.2695	76.2078	51.2695	77.9159	51.2695	76.0971	51.2695	77.9332	51.2695	76.0081	51.2695	77.9105	51.2695	75.9423	51.2695	77.8482	51.2695	75.9004	51.2695	77.7493	51.2695	75.8829	51.2695	77.6187	51.2695	75.8896	51.2695	77.4629	51.2695	75.9202	51.2695	77.2893	51.2695	75.9741	51.2695	77.1056	51.2695	76.0508	51.2695	76.9194	51.2695	76.1494	51.2695	76.7376	51.2695	76.2691	51.2695	76.5658	51.2695	76.4086
52.7344	77.7168	52.7344	77.538	52.7344	77.8904	52.7344	77.3597	52.7344	78.0527	52.7344	77.1873	52.7344	78.1976	52.7344	77.0255	52.7344	78.3191	52.7344	76.8785	52.7344	78.4119	52.7344	76.7497	52.7344	78.4711	52.7344	76.6418	52.7344	78.4933	52.7344	76.5569	52.7344	78.4769	52.7344	76.4961	52.7344	78.4221	52.7344	76.4603	52.7344	78.3313	52.7344	76.4495	52.7344	78.2087	52.7344	76.4634	52.7344	78.0603	52.7344	76.5013	52.7344	77.8928	52.7344	76.5624	52.7344	77.7137	52.7344	76.6457	52.7344	77.5303	52.7344	76.7501	52.7344	77.3495	52.7344	76.8746	52.7344	77.1771	52.7344	77.0177
54.1992	78.2278	54.1992	78.0547	54.1992	78.3959	54.1992	77.882	54.1992	78.5531	54.1992	77.715	54.1992	78.6937	54.1992	77.5585	54.1992	78.812	54.1992	77.4166	54.1992	78.9031	54.1992	77.2928	54.1992	78.9624	54.1992	77.1899	54.1992	78.9868	54.1992	77.1096	54.1992	78.9747	54.1992	77.0534	54.1992	78.9264	54.1992	77.0218	54.1992	78.844	54.1992	77.0147	54.1992	78.7315	54.1992	77.0319	54.1992	78.5939	54.1992	77.0724	54.1992	78.4373	54.1992	77.1356	54.1992	78.268	54.1992	77.2204	54.1992	78.0928	54.1992	77.3257	54.1992	77.918	54.1992	77.4504	54.1992	77.7497	54.1992	77.5925
55.6641	78.7645	55.6641	78.5947	55.6641	78.9288	55.6641	78.4247	55.6641	79.0817	55.6641	78.2598	55.6641	79.2176	55.6641	78.1048	55.6641	79.331	55.6641	77.9641	55.6641	79.4166	55.6641	77.8411	55.6641	79.4704	55.6641	77.7388	55.6641	79.4893	55.6641	77.6594	55.6641	79.4723	55.6641	77.604	55.6641	79.4203	55.6641	77.5735	55.6641	79.3365	55.6641	77.5678	55.6641	79.2253	55.6641	77.5863	55.6641	79.0924	55.6641	77.6283	55.6641	78.9435	55.6641	77.6927	55.6641	78.7841	55.6641	77.7781	55.6641	78.6196	55.6641	77.8831	55.6641	78.455	55.6641	78.0059	55.6641	78.2951	55.6641	78.1442
58.5938	79.6701	58.5938	79.4939	58.5938	79.8385	58.5938	79.3156	58.5938	79.9934	58.5938	79.1402	58.5938	80.1287	58.5938	78.9724	58.5938	80.2383	58.5938	78.8165	58.5938	80.3166	58.5938	78.6762	58.5938	80.3591	58.5938	78.5547	58.5938	80.3628	58.5938	78.4548	58.5938	80.3266	58.5938	78.3786	58.5938	80.2524	58.5938	78.3277	58.5938	80.144	58.5938	78.303	58.5938	80.0076	58.5938	78.3049	58.5938	79.8504	58.5938	78.3332	58.5938	79.6794	58.5938	78.3872	58.5938	79.5016	58.5938	78.4654	58.5938	79.3229	58.5938	78.5663	58.5938	79.1481	58.5938	78.6877	58.5938	78.9816	58.5938	78.827
60.0586	80.1173	60.0586	79.9369	60.0586	80.2895	60.0586	79.7543	60.0586	80.4475	60.0586	79.575	60.0586	80.5852	60.0586	79.4041	60.0586	80.6967	60.0586	79.2463	60.0586	80.7763	60.0586	79.1055	60.0586	80.8195	60.0586	78.9852	60.0586	80.8233	60.0586	78.8881	60.0586	80.7869	60.0586	78.8159	60.0586	80.7122	60.0586	78.7701	60.0586	80.6034	60.0586	78.7511	60.0586	80.4668	60.0586	78.7588	60.0586	80.3099	60.0586	78.7925	60.0586	80.1401	60.0586	78.8511	60.0586	79.964	60.0586	78.9328	60.0586	79.7873	60.0586	79.0359	60.0586	79.6148	60.0586	79.1581	60.0586	79.4503	60.0586	79.2971
62.9883	80.9327	62.9883	80.7543	62.9883	81.1032	62.9883	80.5735	62.9883	81.2597	62.9883	80.3957	62.9883	81.396	62.9883	80.2255	62.9883	81.5059	62.9883	80.067	62.9883	81.5834	62.9883	79.924	62.9883	81.6236	62.9883	79.7994	62.9883	81.6229	62.9883	79.6955	62.9883	81.5802	62.9883	79.6142	62.9883	81.4966	62.9883	79.5568	62.9883	81.3763	62.9883	79.524	62.9883	81.2256	62.9883	79.5164	62.9883	81.0524	62.9883	79.5338	62.9883	80.8653	62.9883	79.576	62.9883	80.6727	62.9883	79.6425	62.9883	80.4821	62.9883	79.7324	62.9883	80.2998	62.9883	79.8447	62.9883	80.1306	62.9883	79.9781
64.4531	81.2662	64.4531	81.088	64.4531	81.4375	64.4531	80.9088	64.4531	81.596	64.4531	80.7336	64.4531	81.7353	64.4531	80.5672	64.4531	81.8489	64.4531	80.4135	64.4531	81.9308	64.4531	80.2762	64.4531	81.9757	64.4531	80.158	64.4531	81.9802	64.4531	80.0611	64.4531	81.943	64.4531	79.9872	64.4531	81.8654	64.4531	79.9371	64.4531	81.7514	64.4531	79.9116	64.4531	81.6071	64.4531	79.9106	64.4531	81.4402	64.4531	79.934	64.4531	81.2591	64.4531	79.9811	64.4531	81.0718	64.4531	80.0513	64.4531	80.8858	64.4531	80.1436	64.4531	80.7072	64.4531	80.2568	64.4531	80.5407	64.4531	80.3898
67.3828	81.8077	67.3828	81.627	67.3828	81.9823	67.3828	81.4463	67.3828	82.1446	67.3828	81.271	67.3828	82.2881	67.3828	81.1059	67.3828	82.4065	67.3828	80.9555	67.3828	82.4941	67.3828	80.8233	67.3828	82.5464	67.3828	80.7123	67.3828	82.5606	67.3828	80.6247	67.3828	82.536	67.3828	80.562	67.3828	82.4738	67.3828	80.5251	67.3828	82.3775	67.3828	80.5142	67.3828	82.2521	67.3828	80.5288	67.3828	82.1037	67.3828	80.5682	67.3828	81.9389	67.3828	80.6313	67.3828	81.7646	67.3828	80.7165	67.3828	81.5871	67.3828	80.8224	67.3828	81.4121	67.3828	80.9471	67.3828	81.2447	67.3828	81.0887
68.8477	82.0599	68.8477	81.8836	68.8477	82.2307	68.8477	81.7075	68.8477	82.39	68.8477	81.5371	68.8477	82.5315	68.8477	81.3772	68.8477	82.6493	68.8477	81.2321	68.8477	82.7378	68.8477	81.1054	68.8477	82.7927	68.8477	81.0002	68.8477	82.8113	68.8477	80.9185	68.8477	82.7927	68.8477	80.8618	68.8477	82.7381	68.8477	80.831	68.8477	82.6507	68.8477	80.8259	68.8477	82.5352	68.8477	80.8462	68.8477	82.3972	68.8477	80.8908	68.8477	82.2427	68.8477	80.9585	68.8477	82.0778	68.8477	81.0474	68.8477	81.9084	68.8477	81.1558	68.8477	81.7398	68.8477	81.2818	68.8477	81.5767	68.8477	81.4229
