"SPL Horizontal"
"On-Axis"		"10°"		"-10°"		"20°"		"-20°"		"30°"		"-30°"		"40°"		"-40°"		"50°"		"-50°"		"60°"		"-60°"		"70°"		"-70°"		"80°"		"-80°"		"90°"		"-90°"		"100°"		"-100°"		"110°"		"-110°"		"120°"		"-120°"		"130°"		"-130°"		"140°"		"-140°"		"150°"		"-150°"		"160°"		"-160°"		"170°"		"-170°"		"180°"
"Frequency / Hz"	"Sound Pressure Level / dB (re 20 µPa/V)  [2.83  V @ 1. m]"	"Frequency / Hz"	"Sound Pressure Level / dB (re 20 µPa/V)  [2.83  V @ 1. m]"	"Frequency / Hz"	"Sound Pressure Level / dB (re 20 µPa/V)  [2.83  V @ 1. m]"	"Frequency / Hz"	"Sound Pressure Level / dB (re 20 µPa/V)  [2.83  V @ 1. m]"	"Frequency / Hz"	"Sound Pressure Level / dB (re 20 µPa/V)  [2.83  V @ 1. m]"	"Frequency / Hz"	"Sound Pressure Level / dB (re 20 µPa/V)  [2.83  V @ 1. m]"	"Frequency / Hz"	"Sound Pressure Level / dB (re 20 µPa/V)  [2.83  V @ 1. m]"	"Frequency / Hz"	"Sound Pressure Level / dB (re 20 µPa/V)  [2.83  V @ 1. m]"	"Frequency / Hz"	"Sound Pressure Level / dB (re 20 µPa/V)  [2.83  V @ 1. m]"	"Frequency / Hz"	"Sound Pressure Level / dB (re 20 µPa/V)  [2.83  V @ 1. m]"	"Frequency / Hz"	"Sound Pressure Level / dB (re 20 µPa/V)  [2.83  V @ 1. m]"	"Frequency / Hz"	"Sound Pressure Level / dB (re 20 µPa/V)  [2.83  V @ 1. m]"	"Frequency / Hz"	"Sound Pressure Level / dB (re 20 µPa/V)  [2.83  V @ 1. m]"	"Frequency / Hz"	"Sound Pressure Level / dB (re 20 µPa/V)  [2.83  V @ 1. m]"	"Frequency / Hz"	"Sound Pressure Level / dB (re 20 µPa/V)  [2.83  V @ 1. m]"	"Frequency / Hz"	"Sound Pressure Level / dB (re 20 µPa/V)  [2.83  V @ 1. m]"	"Frequency / Hz"	"Sound Pressure Level / dB (re 20 µPa/V)  [2.83  V @ 1. m]"	"Frequency / Hz"	"Sound Pressure Level / dB (re 20 µPa/V)  [2.83  V @ 1. m]"	"Frequency / Hz"	"Sound Pressure Level / dB (re 20 µPa/V)  [2.83  V @ 1. m]"	"Frequency / Hz"	"Sound Pressure Level / dB (re 20 µPa/V)  [2.83  V @ 1. m]"	"Frequency / Hz"	"Sound Pressure Level / dB (re 20 µPa/V)  [2.83  V @ 1. m]"	"Frequency / Hz"	"Sound Pressure Level / dB (re 20 µPa/V)  [2.83  V @ 1. m]"	"Frequency / Hz"	"Sound Pressure Level / dB (re 20 µPa/V)  [2.83  V @ 1. m]"	"Frequency / Hz"	"Sound Pressure Level / dB (re 20 µPa/V)  [2.83  V @ 1. m]"	"Frequency / Hz"	"Sound Pressure Level / dB (re 20 µPa/V)  [2.83  V @ 1. m]"	"Frequency / Hz"	"Sound Pressure Level / dB (re 20 µPa/V)  [2.83  V @ 1. m]"	"Frequency / Hz"	"Sound Pressure Level / dB (re 20 µPa/V)  [2.83  V @ 1. m]"	"Frequency / Hz"	"Sound Pressure Level / dB (re 20 µPa/V)  [2.83  V @ 1. m]"	"Frequency / Hz"	"Sound Pressure Level / dB (re 20 µPa/V)  [2.83  V @ 1. m]"	"Frequency / Hz"	"Sound Pressure Level / dB (re 20 µPa/V)  [2.83  V @ 1. m]"	"Frequency / Hz"	"Sound Pressure Level / dB (re 20 µPa/V)  [2.83  V @ 1. m]"	"Frequency / Hz"	"Sound Pressure Level / dB (re 20 µPa/V)  [2.83  V @ 1. m]"	"Frequency / Hz"	"Sound Pressure Level / dB (re 20 µPa/V)  [2.83  V @ 1. m]"	"Frequency / Hz"	"Sound Pressure Level / dB (re 20 µPa/V)  [2.83  V @ 1. m]"	"Frequency / Hz"	"Sound Pressure Level / dB (re 20 µPa/V)  [2.83  V @ 1. m]"	"Frequency / Hz"	"Sound Pressure Level / dB (re 20 µPa/V)  [2.83  V @ 1. m]"
20.5078	61.6965	20.5078	61.7075	20.5078	61.6915	20.5078	61.7234	20.5078	61.6918	20.5078	61.7422	20.5078	61.6953	20.5078	61.7606	20.5078	61.6987	20.5078	61.7741	20.5078	61.6974	20.5078	61.7783	20.5078	61.6865	20.5078	61.7684	20.5078	61.6613	20.5078	61.7406	20.5078	61.6181	20.5078	61.6925	20.5078	61.5552	20.5078	61.6238	20.5078	61.4735	20.5078	61.5367	20.5078	61.3771	20.5078	61.4358	20.5078	61.2726	20.5078	61.3274	20.5078	61.1687	20.5078	61.2193	20.5078	61.0747	20.5078	61.1194	20.5078	60.9991	20.5078	61.0348	20.5078	60.9484	20.5078	60.9717	20.5078	60.9265	20.5078	60.9346
21.9727	62.3664	21.9727	62.3712	21.9727	62.3697	21.9727	62.383	21.9727	62.3808	21.9727	62.3995	21.9727	62.3982	21.9727	62.4171	21.9727	62.419	21.9727	62.4316	21.9727	62.4392	21.9727	62.4383	21.9727	62.4542	21.9727	62.4328	21.9727	62.4593	21.9727	62.4111	21.9727	62.45	21.9727	62.3711	21.9727	62.4234	21.9727	62.3126	21.9727	62.3781	21.9727	62.2381	21.9727	62.3154	21.9727	62.1527	21.9727	62.2386	21.9727	62.0638	21.9727	62.1532	21.9727	61.9798	21.9727	62.0659	21.9727	61.9091	21.9727	61.984	21.9727	61.8589	21.9727	61.9145	21.9727	61.8336	21.9727	61.8633	21.9727	61.8354
23.4375	63.8436	23.4375	63.8427	23.4375	63.852	23.4375	63.849	23.4375	63.8672	23.4375	63.861	23.4375	63.8873	23.4375	63.8763	23.4375	63.9095	23.4375	63.8914	23.4375	63.93	23.4375	63.9025	23.4375	63.9447	23.4375	63.9058	23.4375	63.9494	23.4375	63.8979	23.4375	63.9407	23.4375	63.8765	23.4375	63.9163	23.4375	63.8408	23.4375	63.8758	23.4375	63.7922	23.4375	63.821	23.4375	63.7337	23.4375	63.7556	23.4375	63.6702	23.4375	63.6854	23.4375	63.6074	23.4375	63.6167	23.4375	63.5512	23.4375	63.5561	23.4375	63.5068	23.4375	63.5089	23.4375	63.4785	23.4375	63.4791	23.4375	63.4688
24.9023	64.6528	24.9023	64.6558	24.9023	64.6569	24.9023	64.6653	24.9023	64.6676	24.9023	64.6794	24.9023	64.6832	24.9023	64.6954	24.9023	64.7009	24.9023	64.7098	24.9023	64.7173	24.9023	64.7183	24.9023	64.7281	24.9023	64.7171	24.9023	64.7294	24.9023	64.7027	24.9023	64.7176	24.9023	64.6731	24.9023	64.6906	24.9023	64.6279	24.9023	64.6481	24.9023	64.5689	24.9023	64.5916	24.9023	64.5003	24.9023	64.5248	24.9023	64.4275	24.9023	64.4528	24.9023	64.3572	24.9023	64.3816	24.9023	64.296	24.9023	64.3174	24.9023	64.2495	24.9023	64.2655	24.9023	64.2219	24.9023	64.2305	24.9023	64.2154
26.3672	65.5216	26.3672	65.5208	26.3672	65.5302	26.3672	65.5273	26.3672	65.546	26.3672	65.5395	26.3672	65.5671	26.3672	65.5546	26.3672	65.5905	26.3672	65.5689	26.3672	65.6124	26.3672	65.5784	26.3672	65.6285	26.3672	65.5789	26.3672	65.6344	26.3672	65.567	26.3672	65.6264	26.3672	65.5404	26.3672	65.6021	26.3672	65.4988	26.3672	65.561	26.3672	65.444	26.3672	65.5047	26.3672	65.3798	26.3672	65.4371	26.3672	65.3117	26.3672	65.3635	26.3672	65.2458	26.3672	65.2903	26.3672	65.1885	26.3672	65.2238	26.3672	65.1453	26.3672	65.1699	26.3672	65.1203	26.3672	65.1329	26.3672	65.116
27.832	66.6319	27.832	66.6321	27.832	66.6375	27.832	66.6375	27.832	66.6485	27.832	66.6464	27.832	66.6634	27.832	66.6566	27.832	66.68	27.832	66.6648	27.832	66.6951	27.832	66.6676	27.832	66.7053	27.832	66.6616	27.832	66.7068	27.832	66.644	27.832	66.6967	27.832	66.6133	27.832	66.6729	27.832	66.5695	27.832	66.6348	27.832	66.5147	27.832	66.5836	27.832	66.4527	27.832	66.5223	27.832	66.3886	27.832	66.4554	27.832	66.3281	27.832	66.3882	27.832	66.277	27.832	66.3263	27.832	66.2399	27.832	66.2749	27.832	66.2201	27.832	66.2383	27.832	66.2196
29.2969	67.4802	29.2969	67.4796	29.2969	67.4858	29.2969	67.4836	29.2969	67.4961	29.2969	67.4905	29.2969	67.5097	29.2969	67.4981	29.2969	67.5242	29.2969	67.5032	29.2969	67.5367	29.2969	67.5026	29.2969	67.5435	29.2969	67.4927	29.2969	67.541	29.2969	67.471	29.2969	67.5262	29.2969	67.436	29.2969	67.497	29.2969	67.3877	29.2969	67.453	29.2969	67.3283	29.2969	67.3956	29.2969	67.2616	29.2969	67.328	29.2969	67.1927	29.2969	67.2549	29.2969	67.1275	29.2969	67.182	29.2969	67.0715	29.2969	67.1155	29.2969	67.0301	29.2969	67.0608	29.2969	67.0069	29.2969	67.0227	29.2969	67.0042
30.7617	68.1361	30.7617	68.1385	30.7617	68.1394	30.7617	68.146	30.7617	68.1481	30.7617	68.1569	30.7617	68.1609	30.7617	68.1691	30.7617	68.1757	30.7617	68.1795	30.7617	68.1898	30.7617	68.1846	30.7617	68.1999	30.7617	68.1812	30.7617	68.2026	30.7617	68.1667	30.7617	68.195	30.7617	68.1397	30.7617	68.1753	30.7617	68.1004	30.7617	68.1431	30.7617	68.0509	30.7617	68.0996	30.7617	67.9953	30.7617	68.0479	30.7617	67.9384	30.7617	67.9917	30.7617	67.8857	30.7617	67.9357	30.7617	67.8419	30.7617	67.8845	30.7617	67.8108	30.7617	67.8419	30.7617	67.795	30.7617	67.8114	30.7617	67.7953
32.2266	69.0986	32.2266	69.1013	32.2266	69.1007	32.2266	69.1081	32.2266	69.1073	32.2266	69.1176	32.2266	69.1173	32.2266	69.1274	32.2266	69.1288	32.2266	69.1349	32.2266	69.1391	32.2266	69.1367	32.2266	69.1453	32.2266	69.1301	32.2266	69.1441	32.2266	69.1127	32.2266	69.1329	32.2266	69.0835	32.2266	69.1098	32.2266	69.0429	32.2266	69.0745	32.2266	68.9932	32.2266	69.0285	32.2266	68.938	32.2266	68.9747	32.2266	68.8817	32.2266	68.9174	32.2266	68.8291	32.2266	68.8613	32.2266	68.7847	32.2266	68.8112	32.2266	68.752	32.2266	68.7709	32.2266	68.7336	32.2266	68.7434	32.2266	68.7307
33.6914	70.0084	33.6914	70.0089	33.6914	70.0111	33.6914	70.0119	33.6914	70.0167	33.6914	70.0161	33.6914	70.0243	33.6914	70.0194	33.6914	70.0319	33.6914	70.0189	33.6914	70.0372	33.6914	70.0119	33.6914	70.0373	33.6914	69.9954	33.6914	70.0294	33.6914	69.9676	33.6914	70.0109	33.6914	69.9276	33.6914	69.9805	33.6914	69.8764	33.6914	69.9381	33.6914	69.8169	33.6914	69.8854	33.6914	69.7531	33.6914	69.8255	33.6914	69.6905	33.6914	69.7626	33.6914	69.6344	33.6914	69.7013	33.6914	69.5895	33.6914	69.6459	33.6914	69.559	33.6914	69.6	33.6914	69.5449	33.6914	69.5665	33.6914	69.5477
35.1562	70.7626	35.1562	70.7617	35.1562	70.7657	35.1562	70.7625	35.1562	70.7707	35.1562	70.7638	35.1562	70.7764	35.1562	70.7637	35.1562	70.7813	35.1562	70.7599	35.1562	70.7829	35.1562	70.7498	35.1562	70.7785	35.1562	70.731	35.1562	70.7656	35.1562	70.7018	35.1562	70.7419	35.1562	70.6615	35.1562	70.7063	35.1562	70.6111	35.1562	70.6592	35.1562	70.5529	35.1562	70.6026	35.1562	70.4907	35.1562	70.5399	35.1562	70.4289	35.1562	70.4754	35.1562	70.3723	35.1562	70.4137	35.1562	70.3253	35.1562	70.3592	35.1562	70.2912	35.1562	70.3154	35.1562	70.2726	35.1562	70.2852	35.1562	70.2706
36.6211	71.6271	36.6211	71.6241	36.6211	71.6324	36.6211	71.6228	36.6211	71.6396	36.6211	71.6221	36.6211	71.648	36.6211	71.6203	36.6211	71.6559	36.6211	71.6152	36.6211	71.6612	36.6211	71.6042	36.6211	71.6614	36.6211	71.5852	36.6211	71.6538	36.6211	71.5564	36.6211	71.6362	36.6211	71.5173	36.6211	71.6072	36.6211	71.4689	36.6211	71.5667	36.6211	71.4137	36.6211	71.516	36.6211	71.3556	36.6211	71.4581	36.6211	71.2991	36.6211	71.3967	36.6211	71.249	36.6211	71.3362	36.6211	71.2094	36.6211	71.2808	36.6211	71.1833	36.6211	71.2341	36.6211	71.1728	36.6211	71.1991	36.6211	71.1782
38.0859	72.3951	38.0859	72.3946	38.0859	72.3974	38.0859	72.3955	38.0859	72.4014	38.0859	72.3968	38.0859	72.4062	38.0859	72.3969	38.0859	72.4105	38.0859	72.3939	38.0859	72.4124	38.0859	72.3854	38.0859	72.4098	38.0859	72.3695	38.0859	72.4003	38.0859	72.3444	38.0859	72.382	38.0859	72.3098	38.0859	72.3538	38.0859	72.2663	38.0859	72.3157	38.0859	72.2161	38.0859	72.2693	38.0859	72.1628	38.0859	72.2173	38.0859	72.1104	38.0859	72.1632	38.0859	72.0632	38.0859	72.111	38.0859	72.0248	38.0859	72.0643	38.0859	71.9981	38.0859	72.0264	38.0859	71.9847	38.0859	71.9994	38.0859	71.9852
39.5508	73.2489	39.5508	73.2491	39.5508	73.2496	39.5508	73.2499	39.5508	73.2511	39.5508	73.2503	39.5508	73.2525	39.5508	73.2491	39.5508	73.2529	39.5508	73.2444	39.5508	73.2504	39.5508	73.2343	39.5508	73.2432	39.5508	73.2169	39.5508	73.2295	39.5508	73.1909	39.5508	73.2076	39.5508	73.1559	39.5508	73.1768	39.5508	73.1129	39.5508	73.1374	39.5508	73.064	39.5508	73.0912	39.5508	73.0124	39.5508	73.0408	39.5508	72.9621	39.5508	72.9898	39.5508	72.9166	39.5508	72.9419	39.5508	72.8793	39.5508	72.9003	39.5508	72.8526	39.5508	72.8676	39.5508	72.8378	39.5508	72.8456	39.5508	72.8355
41.0156	74.3062	41.0156	74.3091	41.0156	74.3034	41.0156	74.3119	41.0156	74.3004	41.0156	74.314	41.0156	74.2964	41.0156	74.3143	41.0156	74.2903	41.0156	74.3114	41.0156	74.2805	41.0156	74.3036	41.0156	74.2654	41.0156	74.2893	41.0156	74.2435	41.0156	74.2672	41.0156	74.2136	41.0156	74.2369	41.0156	74.1759	41.0156	74.1989	41.0156	74.1313	41.0156	74.1546	41.0156	74.0824	41.0156	74.1062	41.0156	74.0322	41.0156	74.0566	41.0156	73.9847	41.0156	74.0086	41.0156	73.9434	41.0156	73.965	41.0156	73.9112	41.0156	73.9285	41.0156	73.8901	41.0156	73.9013	41.0156	73.8813	41.0156	73.8852
42.4805	74.9516	42.4805	74.9437	42.4805	74.9589	42.4805	74.9348	42.4805	74.9653	42.4805	74.9243	42.4805	74.9703	42.4805	74.9111	42.4805	74.973	42.4805	74.8937	42.4805	74.972	42.4805	74.8705	42.4805	74.9657	42.4805	74.8402	42.4805	74.9522	42.4805	74.8019	42.4805	74.9302	42.4805	74.7562	42.4805	74.8987	42.4805	74.7051	42.4805	74.8581	42.4805	74.6516	42.4805	74.8098	42.4805	74.5998	42.4805	74.7563	42.4805	74.5539	42.4805	74.701	42.4805	74.5174	42.4805	74.647	42.4805	74.4926	42.4805	74.5972	42.4805	74.4806	42.4805	74.5541	42.4805	74.4815	42.4805	74.5194	42.4805	74.4948
43.9453	75.9207	43.9453	75.9156	43.9453	75.9249	43.9453	75.9096	43.9453	75.9279	43.9453	75.9023	43.9453	75.9292	43.9453	75.8929	43.9453	75.9279	43.9453	75.8803	43.9453	75.923	43.9453	75.8634	43.9453	75.913	43.9453	75.8409	43.9453	75.8966	43.9453	75.812	43.9453	75.8726	43.9453	75.7767	43.9453	75.8408	43.9453	75.7362	43.9453	75.8019	43.9453	75.6926	43.9453	75.7576	43.9453	75.649	43.9453	75.7107	43.9453	75.6085	43.9453	75.6645	43.9453	75.574	43.9453	75.6217	43.9453	75.5473	43.9453	75.585	43.9453	75.5299	43.9453	75.5559	43.9453	75.522	43.9453	75.5353	43.9453	75.5239
45.4102	76.8398	45.4102	76.836	45.4102	76.8415	45.4102	76.8302	45.4102	76.8411	45.4102	76.822	45.4102	76.8381	45.4102	76.8106	45.4102	76.8319	45.4102	76.7953	45.4102	76.8216	45.4102	76.7748	45.4102	76.806	45.4102	76.7482	45.4102	76.7841	45.4102	76.7151	45.4102	76.7551	45.4102	76.6757	45.4102	76.7192	45.4102	76.6316	45.4102	76.6772	45.4102	76.5853	45.4102	76.6314	45.4102	76.5401	45.4102	76.5845	45.4102	76.499	45.4102	76.5397	45.4102	76.4646	45.4102	76.4996	45.4102	76.4386	45.4102	76.4662	45.4102	76.4215	45.4102	76.4406	45.4102	76.4134	45.4102	76.4232	45.4102	76.4141
46.875	77.7538	46.875	77.7478	46.875	77.7571	46.875	77.7394	46.875	77.7577	46.875	77.7282	46.875	77.7552	46.875	77.714	46.875	77.7493	46.875	77.6963	46.875	77.7393	46.875	77.6743	46.875	77.7244	46.875	77.6475	46.875	77.7039	46.875	77.6156	46.875	77.6774	46.875	77.5794	46.875	77.6449	46.875	77.5402	46.875	77.6075	46.875	77.5005	46.875	77.5671	46.875	77.463	46.875	77.5262	46.875	77.4305	46.875	77.4874	46.875	77.4048	46.875	77.4529	46.875	77.3868	46.875	77.4243	46.875	77.3765	46.875	77.402	46.875	77.3733	46.875	77.3862	46.875	77.3767
48.3398	78.7165	48.3398	78.7119	48.3398	78.7171	48.3398	78.7035	48.3398	78.7137	48.3398	78.6911	48.3398	78.7063	48.3398	78.6746	48.3398	78.6946	48.3398	78.6538	48.3398	78.6784	48.3398	78.6283	48.3398	78.6574	48.3398	78.5978	48.3398	78.6313	48.3398	78.5624	48.3398	78.6	48.3398	78.5231	48.3398	78.564	48.3398	78.4816	48.3398	78.5248	48.3398	78.4404	48.3398	78.4842	48.3398	78.4025	48.3398	78.4448	48.3398	78.3702	48.3398	78.4089	48.3398	78.3454	48.3398	78.3784	48.3398	78.3283	48.3398	78.3542	48.3398	78.3186	48.3398	78.3362	48.3398	78.3151	48.3398	78.3241	48.3398	78.3171
51.2695	80.7004	51.2695	80.6886	51.2695	80.704	51.2695	80.6691	51.2695	80.6994	51.2695	80.6424	51.2695	80.6867	51.2695	80.609	51.2695	80.6661	51.2695	80.5697	51.2695	80.6378	51.2695	80.5251	51.2695	80.6024	51.2695	80.476	51.2695	80.5603	51.2695	80.4238	51.2695	80.5124	51.2695	80.37	51.2695	80.4602	51.2695	80.3173	51.2695	80.4058	51.2695	80.2683	51.2695	80.3519	51.2695	80.226	51.2695	80.3015	51.2695	80.1923	51.2695	80.2572	51.2695	80.1682	51.2695	80.2206	51.2695	80.1532	51.2695	80.1924	51.2695	80.146	51.2695	80.1719	51.2695	80.145	51.2695	80.1578	51.2695	80.149
52.7344	81.5873	52.7344	81.5761	52.7344	81.5896	52.7344	81.5562	52.7344	81.5828	52.7344	81.5285	52.7344	81.5673	52.7344	81.4939	52.7344	81.5435	52.7344	81.4534	52.7344	81.5123	52.7344	81.4081	52.7344	81.4745	52.7344	81.3592	52.7344	81.4309	52.7344	81.3084	52.7344	81.383	52.7344	81.2575	52.7344	81.3323	52.7344	81.2091	52.7344	81.2812	52.7344	81.166	52.7344	81.2324	52.7344	81.1304	52.7344	81.1886	52.7344	81.1038	52.7344	81.1521	52.7344	81.0865	52.7344	81.1241	52.7344	81.0771	52.7344	81.1041	52.7344	81.0737	52.7344	81.0909	52.7344	81.0743	52.7344	81.0826	52.7344	81.0773
54.1992	82.492	54.1992	82.4813	54.1992	82.4922	54.1992	82.4605	54.1992	82.4817	54.1992	82.4305	54.1992	82.4611	54.1992	82.3928	54.1992	82.4312	54.1992	82.3486	54.1992	82.3933	54.1992	82.2997	54.1992	82.3488	54.1992	82.2478	54.1992	82.299	54.1992	82.1949	54.1992	82.2459	54.1992	82.1432	54.1992	82.1917	54.1992	82.0954	54.1992	82.139	54.1992	82.0541	54.1992	82.0909	54.1992	82.0215	54.1992	82.0502	54.1992	81.9984	54.1992	82.0188	54.1992	81.9844	54.1992	81.9973	54.1992	81.9776	54.1992	81.9846	54.1992	81.9754	54.1992	81.9785	54.1992	81.9753	54.1992	81.9763	54.1992	81.9756
55.6641	83.3944	55.6641	83.3826	55.6641	83.3933	55.6641	83.3586	55.6641	83.3795	55.6641	83.3237	55.6641	83.3534	55.6641	83.2794	55.6641	83.3163	55.6641	83.2277	55.6641	83.2698	55.6641	83.1706	55.6641	83.2157	55.6641	83.1105	55.6641	83.1558	55.6641	83.0495	55.6641	83.0927	55.6641	82.9903	55.6641	83.0288	55.6641	82.9358	55.6641	82.9674	55.6641	82.8885	55.6641	82.9118	55.6641	82.8504	55.6641	82.865	55.6641	82.8223	55.6641	82.829	55.6641	82.8037	55.6641	82.8044	55.6641	82.7927	55.6641	82.7899	55.6641	82.7868	55.6641	82.7831	55.6641	82.7836	55.6641	82.7812	55.6641	82.7818
58.5938	84.7673	58.5938	84.7476	58.5938	84.7713	58.5938	84.7133	58.5938	84.7597	58.5938	84.6661	58.5938	84.7336	58.5938	84.6088	58.5938	84.6948	58.5938	84.5446	58.5938	84.6457	58.5938	84.4769	58.5938	84.5894	58.5938	84.4095	58.5938	84.529	58.5938	84.3461	58.5938	84.4678	58.5938	84.2905	58.5938	84.4094	58.5938	84.2461	58.5938	84.3572	58.5938	84.2157	58.5938	84.3146	58.5938	84.2002	58.5938	84.2838	58.5938	84.1989	58.5938	84.2655	58.5938	84.2087	58.5938	84.2585	58.5938	84.2249	58.5938	84.2594	58.5938	84.2425	58.5938	84.2638	58.5938	84.2569	58.5938	84.2669	58.5938	84.2652
60.0586	85.276	60.0586	85.2539	60.0586	85.2804	60.0586	85.2152	60.0586	85.2671	60.0586	85.162	60.0586	85.2374	60.0586	85.0975	60.0586	85.1936	60.0586	85.0254	60.0586	85.1385	60.0586	84.9499	60.0586	85.0758	60.0586	84.8753	60.0586	85.0092	60.0586	84.806	60.0586	84.9428	60.0586	84.7463	60.0586	84.8805	60.0586	84.7	60.0586	84.8262	60.0586	84.6698	60.0586	84.7834	60.0586	84.6569	60.0586	84.7541	60.0586	84.6598	60.0586	84.7388	60.0586	84.675	60.0586	84.7354	60.0586	84.6971	60.0586	84.74	60.0586	84.72	60.0586	84.7471	60.0586	84.7385	60.0586	84.7515	60.0586	84.7493
62.9883	85.6989	62.9883	85.6707	62.9883	85.7042	62.9883	85.6208	62.9883	85.6867	62.9883	85.5523	62.9883	85.648	62.9883	85.4694	62.9883	85.5913	62.9883	85.3771	62.9883	85.5208	62.9883	85.2813	62.9883	85.4413	62.9883	85.1882	62.9883	85.3582	62.9883	85.1038	62.9883	85.2771	62.9883	85.0339	62.9883	85.2035	62.9883	84.9834	62.9883	85.1423	62.9883	84.9553	62.9883	85.0976	62.9883	84.9502	62.9883	85.0714	62.9883	84.9653	62.9883	85.0632	62.9883	84.995	62.9883	85.0695	62.9883	85.0316	62.9883	85.0842	62.9883	85.067	62.9883	85.1001	62.9883	85.0943	62.9883	85.1101	62.9883	85.109
64.4531	85.6615	64.4531	85.6301	64.4531	85.6672	64.4531	85.5744	64.4531	85.6472	64.4531	85.4979	64.4531	85.6037	64.4531	85.4052	64.4531	85.5402	64.4531	85.3023	64.4531	85.4613	64.4531	85.1958	64.4531	85.3729	64.4531	85.0928	64.4531	85.2811	64.4531	85.0003	64.4531	85.1923	64.4531	84.9247	64.4531	85.1127	64.4531	84.8713	64.4531	85.0478	64.4531	84.8434	64.4531	85.0017	64.4531	84.8411	64.4531	84.9765	64.4531	84.8611	64.4531	84.971	64.4531	84.8969	64.4531	84.9809	64.4531	84.9398	64.4531	84.9995	64.4531	84.9807	64.4531	85.0186	64.4531	85.0121	64.4531	85.0303	64.4531	85.029
67.3828	85.23	67.3828	85.1909	67.3828	85.2374	67.3828	85.1219	67.3828	85.2135	67.3828	85.0271	67.3828	85.1606	67.3828	84.9126	67.3828	85.0835	67.3828	84.7859	67.3828	84.9883	67.3828	84.6557	67.3828	84.8826	67.3828	84.5313	67.3828	84.7745	67.3828	84.4218	67.3828	84.6725	67.3828	84.3358	67.3828	84.5844	67.3828	84.2797	67.3828	84.5169	67.3828	84.257	67.3828	84.4742	67.3828	84.2673	67.3828	84.4575	67.3828	84.3054	67.3828	84.4642	67.3828	84.3621	67.3828	84.4877	67.3828	84.4262	67.3828	84.5185	67.3828	84.486	67.3828	84.5463	67.3828	84.5319	67.3828	84.5616	67.3828	84.5577
