"SPL Horizontal"
"On-Axis"		"10°"		"-10°"		"20°"		"-20°"		"30°"		"-30°"		"40°"		"-40°"		"50°"		"-50°"		"60°"		"-60°"		"70°"		"-70°"		"80°"		"-80°"		"90°"		"-90°"		"100°"		"-100°"		"110°"		"-110°"		"120°"		"-120°"		"130°"		"-130°"		"140°"		"-140°"		"150°"		"-150°"		"160°"		"-160°"		"170°"		"-170°"		"180°"
"Frequency / Hz"	"Sound Pressure Level / dB (re 20 µPa/V)  [2.83V at 1m]"	"Frequency / Hz"	"Sound Pressure Level / dB (re 20 µPa/V)  [2.83V at 1m]"	"Frequency / Hz"	"Sound Pressure Level / dB (re 20 µPa/V)  [2.83V at 1m]"	"Frequency / Hz"	"Sound Pressure Level / dB (re 20 µPa/V)  [2.83V at 1m]"	"Frequency / Hz"	"Sound Pressure Level / dB (re 20 µPa/V)  [2.83V at 1m]"	"Frequency / Hz"	"Sound Pressure Level / dB (re 20 µPa/V)  [2.83V at 1m]"	"Frequency / Hz"	"Sound Pressure Level / dB (re 20 µPa/V)  [2.83V at 1m]"	"Frequency / Hz"	"Sound Pressure Level / dB (re 20 µPa/V)  [2.83V at 1m]"	"Frequency / Hz"	"Sound Pressure Level / dB (re 20 µPa/V)  [2.83V at 1m]"	"Frequency / Hz"	"Sound Pressure Level / dB (re 20 µPa/V)  [2.83V at 1m]"	"Frequency / Hz"	"Sound Pressure Level / dB (re 20 µPa/V)  [2.83V at 1m]"	"Frequency / Hz"	"Sound Pressure Level / dB (re 20 µPa/V)  [2.83V at 1m]"	"Frequency / Hz"	"Sound Pressure Level / dB (re 20 µPa/V)  [2.83V at 1m]"	"Frequency / Hz"	"Sound Pressure Level / dB (re 20 µPa/V)  [2.83V at 1m]"	"Frequency / Hz"	"Sound Pressure Level / dB (re 20 µPa/V)  [2.83V at 1m]"	"Frequency / Hz"	"Sound Pressure Level / dB (re 20 µPa/V)  [2.83V at 1m]"	"Frequency / Hz"	"Sound Pressure Level / dB (re 20 µPa/V)  [2.83V at 1m]"	"Frequency / Hz"	"Sound Pressure Level / dB (re 20 µPa/V)  [2.83V at 1m]"	"Frequency / Hz"	"Sound Pressure Level / dB (re 20 µPa/V)  [2.83V at 1m]"	"Frequency / Hz"	"Sound Pressure Level / dB (re 20 µPa/V)  [2.83V at 1m]"	"Frequency / Hz"	"Sound Pressure Level / dB (re 20 µPa/V)  [2.83V at 1m]"	"Frequency / Hz"	"Sound Pressure Level / dB (re 20 µPa/V)  [2.83V at 1m]"	"Frequency / Hz"	"Sound Pressure Level / dB (re 20 µPa/V)  [2.83V at 1m]"	"Frequency / Hz"	"Sound Pressure Level / dB (re 20 µPa/V)  [2.83V at 1m]"	"Frequency / Hz"	"Sound Pressure Level / dB (re 20 µPa/V)  [2.83V at 1m]"	"Frequency / Hz"	"Sound Pressure Level / dB (re 20 µPa/V)  [2.83V at 1m]"	"Frequency / Hz"	"Sound Pressure Level / dB (re 20 µPa/V)  [2.83V at 1m]"	"Frequency / Hz"	"Sound Pressure Level / dB (re 20 µPa/V)  [2.83V at 1m]"	"Frequency / Hz"	"Sound Pressure Level / dB (re 20 µPa/V)  [2.83V at 1m]"	"Frequency / Hz"	"Sound Pressure Level / dB (re 20 µPa/V)  [2.83V at 1m]"	"Frequency / Hz"	"Sound Pressure Level / dB (re 20 µPa/V)  [2.83V at 1m]"	"Frequency / Hz"	"Sound Pressure Level / dB (re 20 µPa/V)  [2.83V at 1m]"	"Frequency / Hz"	"Sound Pressure Level / dB (re 20 µPa/V)  [2.83V at 1m]"	"Frequency / Hz"	"Sound Pressure Level / dB (re 20 µPa/V)  [2.83V at 1m]"	"Frequency / Hz"	"Sound Pressure Level / dB (re 20 µPa/V)  [2.83V at 1m]"	"Frequency / Hz"	"Sound Pressure Level / dB (re 20 µPa/V)  [2.83V at 1m]"
20.5078	52.3424	20.5078	52.3751	20.5078	52.6179	20.5078	52.6764	20.5078	53.2219	20.5078	53.2177	20.5078	54.1214	20.5078	53.9809	20.5078	55.2328	20.5078	54.9384	20.5078	56.4569	20.5078	56.041	20.5078	57.7098	20.5078	57.2245	20.5078	58.9336	20.5078	58.4251	20.5078	60.0916	20.5078	59.5912	20.5078	61.1614	20.5078	60.6867	20.5078	62.1287	20.5078	61.6881	20.5078	62.9838	20.5078	62.5819	20.5078	63.7192	20.5078	63.3602	20.5078	64.3297	20.5078	64.019	20.5078	64.8115	20.5078	64.5566	20.5078	65.1623	20.5078	64.9717	20.5078	65.3816	20.5078	65.2634	20.5078	65.4703	20.5078	65.4302
21.9727	54.1236	21.9727	54.0664	21.9727	54.3065	21.9727	54.1398	21.9727	54.6532	21.9727	54.3959	21.9727	55.2139	21.9727	54.905	21.9727	56.0094	21.9727	55.7013	21.9727	57.0083	21.9727	56.7473	21.9727	58.1395	21.9727	57.9497	21.9727	59.3227	21.9727	59.2059	21.9727	60.4913	21.9727	60.4356	21.9727	61.5986	21.9727	61.5872	21.9727	62.6149	21.9727	62.6315	21.9727	63.5223	21.9727	63.5533	21.9727	64.3101	21.9727	64.3456	21.9727	64.9721	21.9727	65.0056	21.9727	65.5048	21.9727	65.5324	21.9727	65.9062	21.9727	65.9262	21.9727	66.1753	21.9727	66.1872	21.9727	66.3118	21.9727	66.3158
23.4375	55.9003	23.4375	55.9624	23.4375	56.0672	23.4375	56.2506	23.4375	56.4741	23.4375	56.7694	23.4375	57.1222	23.4375	57.5133	23.4375	57.9842	23.4375	58.4491	23.4375	59.0038	23.4375	59.5178	23.4375	60.1119	23.4375	60.6505	23.4375	61.2442	23.4375	61.7855	23.4375	62.3507	23.4375	62.8764	23.4375	63.3961	23.4375	63.8917	23.4375	64.3571	23.4375	64.8116	23.4375	65.2186	23.4375	65.6241	23.4375	65.9712	23.4375	66.322	23.4375	66.6091	23.4375	66.901	23.4375	67.1288	23.4375	67.3588	23.4375	67.5281	23.4375	67.6941	23.4375	67.8061	23.4375	67.9063	23.4375	67.9621	23.4375	67.9956
24.9023	57.5304	24.9023	57.6093	24.9023	57.6774	24.9023	57.9067	24.9023	58.0581	24.9023	58.4159	24.9023	58.6687	24.9023	59.1204	24.9023	59.4809	24.9023	59.9859	24.9023	60.4423	24.9023	60.9622	24.9023	61.4893	24.9023	61.9939	24.9023	62.5621	24.9023	63.0312	24.9023	63.6131	24.9023	64.035	24.9023	64.6081	24.9023	64.9773	24.9023	65.5239	24.9023	65.8391	24.9023	66.3454	24.9023	66.6077	24.9023	67.0627	24.9023	67.275	24.9023	67.6693	24.9023	67.8353	24.9023	68.161	24.9023	68.2846	24.9023	68.5352	24.9023	68.6203	24.9023	68.7904	24.9023	68.84	24.9023	68.9261	24.9023	68.9424
26.3672	61.5662	26.3672	61.6841	26.3672	61.5714	26.3672	61.9226	26.3672	61.7086	26.3672	62.2841	26.3672	61.9894	26.3672	62.7688	26.3672	62.4197	26.3672	63.3685	26.3672	62.9918	26.3672	64.0632	26.3672	63.6818	26.3672	64.8236	26.3672	64.4539	26.3672	65.616	26.3672	65.2681	26.3672	66.4075	26.3672	66.0869	26.3672	67.1696	26.3672	66.8788	26.3672	67.8791	26.3672	67.6194	26.3672	68.5179	26.3672	68.2903	26.3672	69.0723	26.3672	68.8783	26.3672	69.5326	26.3672	69.3738	26.3672	69.8915	26.3672	69.77	26.3672	70.1444	26.3672	70.0621	26.3672	70.2886	26.3672	70.2471	26.3672	70.3229
27.832	60.1592	27.832	60.2446	27.832	60.282	27.832	60.5293	27.832	60.6143	27.832	60.998	27.832	61.1451	27.832	61.627	27.832	61.8466	27.832	62.3827	27.832	62.6764	27.832	63.2251	27.832	63.5854	27.832	64.1127	27.832	64.526	27.832	65.0085	27.832	65.458	27.832	65.8818	27.832	66.3501	27.832	66.7092	27.832	67.1794	27.832	67.4734	27.832	67.9291	27.832	68.1618	27.832	68.5877	27.832	68.7651	27.832	69.1468	27.832	69.2765	27.832	69.6006	27.832	69.6907	27.832	69.9454	27.832	70.0034	27.832	70.1791	27.832	70.2111	27.832	70.3008	27.832	70.311
29.2969	63.5777	29.2969	63.6728	29.2969	63.6423	29.2969	63.9188	29.2969	63.8668	29.2969	64.3003	29.2969	64.242	29.2969	64.7964	29.2969	64.7494	29.2969	65.3825	29.2969	65.3624	29.2969	66.0319	29.2969	66.0499	29.2969	66.7183	29.2969	66.7796	29.2969	67.4172	29.2969	67.5214	29.2969	68.107	29.2969	68.249	29.2969	68.7692	29.2969	68.9404	29.2969	69.3884	29.2969	69.5781	29.2969	69.9522	29.2969	70.1481	29.2969	70.4503	29.2969	70.6398	29.2969	70.8745	29.2969	71.0449	29.2969	71.2182	29.2969	71.3579	29.2969	71.4759	29.2969	71.5751	29.2969	71.6433	29.2969	71.6949	29.2969	71.7172
30.7617	66.182	30.7617	66.2629	30.7617	66.2186	30.7617	66.4557	30.7617	66.3744	30.7617	66.7511	30.7617	66.6455	30.7617	67.1366	30.7617	67.0223	30.7617	67.5969	30.7617	67.4887	30.7617	68.1145	30.7617	68.0244	30.7617	68.6706	30.7617	68.6062	30.7617	69.2461	30.7617	69.2105	30.7617	69.8229	30.7617	69.8152	30.7617	70.3842	30.7617	70.4007	30.7617	70.9151	30.7617	70.9501	30.7617	71.4025	30.7617	71.4493	30.7617	71.8353	30.7617	71.8869	30.7617	72.2039	30.7617	72.2539	30.7617	72.5008	30.7617	72.5434	30.7617	72.7198	30.7617	72.7507	30.7617	72.8565	30.7617	72.8727	30.7617	72.9079
32.2266	67.8897	32.2266	67.9559	32.2266	67.9257	32.2266	68.1196	32.2266	68.0643	32.2266	68.3725	32.2266	68.3012	32.2266	68.7035	32.2266	68.6271	32.2266	69.0994	32.2266	69.0286	32.2266	69.5454	32.2266	69.4889	32.2266	70.0259	32.2266	69.9896	32.2266	70.5255	32.2266	70.512	32.2266	71.0291	32.2266	71.0381	32.2266	71.5223	32.2266	71.5515	32.2266	71.9923	32.2266	72.0372	32.2266	72.427	32.2266	72.4822	32.2266	72.8159	32.2266	72.8753	32.2266	73.1498	32.2266	73.2069	32.2266	73.4207	32.2266	73.4697	32.2266	73.6222	32.2266	73.658	32.2266	73.7494	32.2266	73.7682	32.2266	73.7986
33.6914	69.858	33.6914	69.9147	33.6914	69.8845	33.6914	70.0509	33.6914	69.9945	33.6914	70.2598	33.6914	70.1845	33.6914	70.5325	33.6914	70.4474	33.6914	70.8586	33.6914	70.773	33.6914	71.2264	33.6914	71.1489	33.6914	71.6242	33.6914	71.561	33.6914	72.0396	33.6914	71.995	33.6914	72.4608	33.6914	72.4364	33.6914	72.876	33.6914	72.8714	33.6914	73.2741	33.6914	73.2869	33.6914	73.6447	33.6914	73.6709	33.6914	73.9782	33.6914	74.0128	33.6914	74.2659	33.6914	74.3033	33.6914	74.5003	33.6914	74.5347	33.6914	74.6752	33.6914	74.7014	33.6914	74.7854	33.6914	74.7996	33.6914	74.8275
35.1562	71.6494	35.1562	71.6951	35.1562	71.6674	35.1562	71.8019	35.1562	71.7499	35.1562	71.9652	35.1562	71.8951	35.1562	72.179	35.1562	72.0989	35.1562	72.4364	35.1562	72.3547	35.1562	72.7294	35.1562	72.654	35.1562	73.0495	35.1562	72.9866	35.1562	73.3873	35.1562	73.3413	35.1562	73.7332	35.1562	73.7064	35.1562	74.0776	35.1562	74.0701	35.1562	74.4107	35.1562	74.4207	35.1562	74.723	35.1562	74.747	35.1562	75.0058	35.1562	75.0388	35.1562	75.2509	35.1562	75.2874	35.1562	75.4514	35.1562	75.4854	35.1562	75.6016	35.1562	75.6277	35.1562	75.6968	35.1562	75.711	35.1562	75.7339
36.6211	73.5491	36.6211	73.5814	36.6211	73.5537	36.6211	73.6492	36.6211	73.5962	36.6211	73.7506	36.6211	73.6771	36.6211	73.8834	36.6211	73.7959	36.6211	74.0447	36.6211	73.9511	36.6211	74.231	36.6211	74.1398	36.6211	74.4381	36.6211	74.3572	36.6211	74.6609	36.6211	74.5969	36.6211	74.8936	36.6211	74.8511	36.6211	75.1298	36.6211	75.1104	36.6211	75.3625	36.6211	75.3652	36.6211	75.5844	36.6211	75.6055	36.6211	75.7884	36.6211	75.8222	36.6211	75.9678	36.6211	76.0072	36.6211	76.1166	36.6211	76.1542	36.6211	76.2297	36.6211	76.2589	36.6211	76.3029	36.6211	76.3189	36.6211	76.3333
38.0859	74.3047	38.0859	74.3459	38.0859	74.3128	38.0859	74.4345	38.0859	74.3717	38.0859	74.5679	38.0859	74.4814	38.0859	74.7428	38.0859	74.6404	38.0859	74.9551	38.0859	74.8451	38.0859	75.1996	38.0859	75.0897	38.0859	75.4701	38.0859	75.3664	38.0859	75.7595	38.0859	75.6664	38.0859	76.06	38.0859	75.9798	38.0859	76.363	38.0859	76.2967	38.0859	76.6599	38.0859	76.6071	38.0859	76.9416	38.0859	76.9013	38.0859	77.1995	38.0859	77.17	38.0859	77.4248	38.0859	77.4043	38.0859	77.6097	38.0859	77.5964	38.0859	77.7471	38.0859	77.7393	38.0859	77.8314	38.0859	77.8279	38.0859	77.8589
39.5508	75.7577	39.5508	75.7994	39.5508	75.7592	39.5508	75.8821	39.5508	75.8045	39.5508	76.002	39.5508	75.8925	39.5508	76.1548	39.5508	76.0201	39.5508	76.3359	39.5508	76.1832	39.5508	76.5405	39.5508	76.3764	39.5508	76.7634	39.5508	76.5939	39.5508	76.9994	39.5508	76.8294	39.5508	77.2426	39.5508	77.0764	39.5508	77.4867	39.5508	77.3277	39.5508	77.7248	39.5508	77.5764	39.5508	77.9495	39.5508	77.8149	39.5508	78.1535	39.5508	78.0358	39.5508	78.3297	39.5508	78.2316	39.5508	78.4714	39.5508	78.3955	39.5508	78.5731	39.5508	78.5213	39.5508	78.6305	39.5508	78.6043	39.5508	78.6411
41.0156	76.855	41.0156	76.8725	41.0156	76.8736	41.0156	76.9259	41.0156	76.9273	41.0156	77.0135	41.0156	77.0143	41.0156	77.1326	41.0156	77.1314	41.0156	77.2794	41.0156	77.2749	41.0156	77.4493	41.0156	77.4408	41.0156	77.6372	41.0156	77.6243	41.0156	77.8376	41.0156	77.8205	41.0156	78.0449	41.0156	78.0244	41.0156	78.2532	41.0156	78.2304	41.0156	78.4565	41.0156	78.4327	41.0156	78.6488	41.0156	78.6255	41.0156	78.8242	41.0156	78.8025	41.0156	78.9767	41.0156	78.9579	41.0156	79.101	41.0156	79.0861	41.0156	79.1926	41.0156	79.1822	41.0156	79.2479	41.0156	79.2426	41.0156	79.2648
42.4805	78.0314	42.4805	78.0499	42.4805	78.0411	42.4805	78.0961	42.4805	78.0787	42.4805	78.1683	42.4805	78.1431	42.4805	78.2644	42.4805	78.2321	42.4805	78.3813	42.4805	78.3431	42.4805	78.5156	42.4805	78.4728	42.4805	78.6634	42.4805	78.6174	42.4805	78.8206	42.4805	78.7729	42.4805	78.9829	42.4805	78.935	42.4805	79.1458	42.4805	79.0993	42.4805	79.3046	42.4805	79.261	42.4805	79.4548	42.4805	79.4154	42.4805	79.5914	42.4805	79.5573	42.4805	79.7101	42.4805	79.682	42.4805	79.8065	42.4805	79.785	42.4805	79.8771	42.4805	79.8625	42.4805	79.9191	42.4805	79.9118	42.4805	79.9308
43.9453	78.9707	43.9453	78.9841	43.9453	78.98	43.9453	79.02	43.9453	79.0118	43.9453	79.0773	43.9453	79.065	43.9453	79.1544	43.9453	79.1378	43.9453	79.2489	43.9453	79.2282	43.9453	79.3583	43.9453	79.3337	43.9453	79.4793	43.9453	79.4512	43.9453	79.6087	43.9453	79.5779	43.9453	79.7429	43.9453	79.7103	43.9453	79.8784	43.9453	79.8451	43.9453	80.0113	43.9453	79.9786	43.9453	80.1376	43.9453	80.1068	43.9453	80.2533	43.9453	80.2256	43.9453	80.3543	43.9453	80.3308	43.9453	80.4368	43.9453	80.4184	43.9453	80.4974	43.9453	80.4848	43.9453	80.5336	43.9453	80.5272	43.9453	80.5437
45.4102	79.8159	45.4102	79.8255	45.4102	79.8257	45.4102	79.8545	45.4102	79.8545	45.4102	79.9018	45.4102	79.9009	45.4102	79.966	45.4102	79.9631	45.4102	80.0448	45.4102	80.039	45.4102	80.1356	45.4102	80.1263	45.4102	80.2357	45.4102	80.2225	45.4102	80.3421	45.4102	80.325	45.4102	80.4519	45.4102	80.4313	45.4102	80.5621	45.4102	80.5387	45.4102	80.6697	45.4102	80.6447	45.4102	80.7716	45.4102	80.7462	45.4102	80.8647	45.4102	80.8404	45.4102	80.9457	45.4102	80.924	45.4102	81.0117	45.4102	80.9939	45.4102	81.0599	45.4102	81.0473	45.4102	81.0883	45.4102	81.0818	45.4102	81.0957
46.875	80.5266	46.875	80.5383	46.875	80.5311	46.875	80.566	46.875	80.5516	46.875	80.6086	46.875	80.5872	46.875	80.6644	46.875	80.6366	46.875	80.7314	46.875	80.6978	46.875	80.8072	46.875	80.7689	46.875	80.8893	46.875	80.8475	46.875	80.9751	46.875	80.9315	46.875	81.0623	46.875	81.0183	46.875	81.1486	46.875	81.1059	46.875	81.2319	46.875	81.1918	46.875	81.3099	46.875	81.2737	46.875	81.3805	46.875	81.3493	46.875	81.4415	46.875	81.4161	46.875	81.491	46.875	81.4716	46.875	81.5269	46.875	81.5139	46.875	81.5478	46.875	81.5413	46.875	81.5527
48.3398	81.2704	48.3398	81.2786	48.3398	81.272	48.3398	81.2966	48.3398	81.283	48.3398	81.3239	48.3398	81.3029	48.3398	81.3595	48.3398	81.3307	48.3398	81.4022	48.3398	81.3654	48.3398	81.4505	48.3398	81.4057	48.3398	81.5028	48.3398	81.4503	48.3398	81.5572	48.3398	81.4979	48.3398	81.6122	48.3398	81.5475	48.3398	81.6661	48.3398	81.5979	48.3398	81.7176	48.3398	81.6482	48.3398	81.7651	48.3398	81.6972	48.3398	81.8073	48.3398	81.744	48.3398	81.8427	48.3398	81.7872	48.3398	81.8699	48.3398	81.8252	48.3398	81.8878	48.3398	81.8564	48.3398	81.8955	48.3398	81.8793	48.3398	81.8926
51.2695	81.8654	51.2695	81.8724	51.2695	81.8672	51.2695	81.8883	51.2695	81.8773	51.2695	81.9124	51.2695	81.8948	51.2695	81.9435	51.2695	81.9182	51.2695	81.9802	51.2695	81.9462	51.2695	82.0205	51.2695	81.9774	51.2695	82.0628	51.2695	82.0104	51.2695	82.1052	51.2695	82.0443	51.2695	82.1462	51.2695	82.0783	51.2695	82.1846	51.2695	82.1121	51.2695	82.2195	51.2695	82.1453	51.2695	82.2502	51.2695	82.1778	51.2695	82.2761	51.2695	82.2091	51.2695	82.2968	51.2695	82.2387	51.2695	82.3117	51.2695	82.2655	51.2695	82.3204	51.2695	82.2884	51.2695	82.3225	51.2695	82.3061	51.2695	82.3176
52.7344	82.089	52.7344	82.0974	52.7344	82.089	52.7344	82.1137	52.7344	82.0973	52.7344	82.1371	52.7344	82.1131	52.7344	82.166	52.7344	82.1354	52.7344	82.199	52.7344	82.1625	52.7344	82.2342	52.7344	82.1929	52.7344	82.2699	52.7344	82.2248	52.7344	82.3045	52.7344	82.2568	52.7344	82.3366	52.7344	82.2877	52.7344	82.3655	52.7344	82.3168	52.7344	82.3907	52.7344	82.3437	52.7344	82.412	52.7344	82.3684	52.7344	82.4294	52.7344	82.3907	52.7344	82.443	52.7344	82.4107	52.7344	82.4529	52.7344	82.4279	52.7344	82.459	52.7344	82.442	52.7344	82.461	52.7344	82.4524	52.7344	82.4588
54.1992	82.3314	54.1992	82.3388	54.1992	82.3289	54.1992	82.3508	54.1992	82.3314	54.1992	82.3665	54.1992	82.3384	54.1992	82.3848	54.1992	82.3492	54.1992	82.4044	54.1992	82.3626	54.1992	82.4239	54.1992	82.3773	54.1992	82.4418	54.1992	82.3921	54.1992	82.4569	54.1992	82.4058	54.1992	82.4685	54.1992	82.4174	54.1992	82.4762	54.1992	82.4266	54.1992	82.48	54.1992	82.4333	54.1992	82.4806	54.1992	82.4381	54.1992	82.4787	54.1992	82.4415	54.1992	82.475	54.1992	82.4443	54.1992	82.4705	54.1992	82.4469	54.1992	82.4658	54.1992	82.4498	54.1992	82.4611	54.1992	82.4531	54.1992	82.4569
55.6641	82.5687	55.6641	82.574	55.6641	82.564	55.6641	82.5798	55.6641	82.56	55.6641	82.5853	55.6641	82.5565	55.6641	82.5898	55.6641	82.5531	55.6641	82.5924	55.6641	82.5491	55.6641	82.592	55.6641	82.5438	55.6641	82.5878	55.6641	82.5362	55.6641	82.579	55.6641	82.5258	55.6641	82.5654	55.6641	82.5121	55.6641	82.5471	55.6641	82.4954	55.6641	82.5248	55.6641	82.4763	55.6641	82.5	55.6641	82.4559	55.6641	82.4741	55.6641	82.4356	55.6641	82.449	55.6641	82.4172	55.6641	82.4265	55.6641	82.4021	55.6641	82.4081	55.6641	82.3916	55.6641	82.3949	55.6641	82.3866	55.6641	82.3876
58.5938	82.7322	58.5938	82.7342	58.5938	82.7276	58.5938	82.7333	58.5938	82.7199	58.5938	82.7295	58.5938	82.709	58.5938	82.7221	58.5938	82.6944	58.5938	82.7106	58.5938	82.6757	58.5938	82.694	58.5938	82.6522	58.5938	82.6717	58.5938	82.6236	58.5938	82.6429	58.5938	82.5897	58.5938	82.6077	58.5938	82.5506	58.5938	82.5664	58.5938	82.5073	58.5938	82.5203	58.5938	82.461	58.5938	82.4712	58.5938	82.414	58.5938	82.4216	58.5938	82.3688	58.5938	82.3742	58.5938	82.3283	58.5938	82.332	58.5938	82.2952	58.5938	82.2976	58.5938	82.2719	58.5938	82.2733	58.5938	82.26	58.5938	82.2605
60.0586	82.7549	60.0586	82.7541	60.0586	82.7515	60.0586	82.7492	60.0586	82.7438	60.0586	82.7397	60.0586	82.7317	60.0586	82.7254	60.0586	82.7146	60.0586	82.7055	60.0586	82.6922	60.0586	82.6796	60.0586	82.664	60.0586	82.647	60.0586	82.6297	60.0586	82.6074	60.0586	82.5889	60.0586	82.5611	60.0586	82.542	60.0586	82.5088	60.0586	82.4899	60.0586	82.4522	60.0586	82.4341	60.0586	82.3936	60.0586	82.3768	60.0586	82.3358	60.0586	82.3209	60.0586	82.2821	60.0586	82.2697	60.0586	82.2359	60.0586	82.2263	60.0586	82.2001	60.0586	82.1936	60.0586	82.1769	60.0586	82.1737	60.0586	82.168
62.9883	82.9216	62.9883	82.9085	62.9883	82.9251	62.9883	82.8855	62.9883	82.9187	62.9883	82.8528	62.9883	82.9021	62.9883	82.8101	62.9883	82.875	62.9883	82.7573	62.9883	82.8367	62.9883	82.6945	62.9883	82.7867	62.9883	82.6217	62.9883	82.7244	62.9883	82.5396	62.9883	82.6498	62.9883	82.4493	62.9883	82.5637	62.9883	82.3528	62.9883	82.4674	62.9883	82.2529	62.9883	82.3638	62.9883	82.1534	62.9883	82.2565	62.9883	82.0588	62.9883	82.1505	62.9883	81.9741	62.9883	82.0512	62.9883	81.9043	62.9883	81.9642	62.9883	81.8539	62.9883	81.8948	62.9883	81.8264	62.9883	81.8471	62.9883	81.8239
64.4531	83.028	64.4531	83.0258	64.4531	83.018	64.4531	83.0111	64.4531	82.9961	64.4531	82.9835	64.4531	82.9624	64.4531	82.9425	64.4531	82.9167	64.4531	82.888	64.4531	82.8587	64.4531	82.8197	64.4531	82.7878	64.4531	82.7378	64.4531	82.7039	64.4531	82.6427	64.4531	82.607	64.4531	82.5357	64.4531	82.4982	64.4531	82.4189	64.4531	82.3795	64.4531	82.2953	64.4531	82.2543	64.4531	82.1692	64.4531	82.1274	64.4531	82.046	64.4531	82.0048	64.4531	81.9316	64.4531	81.8933	64.4531	81.8323	64.4531	81.7997	64.4531	81.754	64.4531	81.7302	64.4531	81.7019	64.4531	81.6893	64.4531	81.6798
67.3828	82.9469	67.3828	82.9501	67.3828	82.9322	67.3828	82.9419	67.3828	82.9062	67.3828	82.9221	67.3828	82.8687	67.3828	82.8901	67.3828	82.8195	67.3828	82.8454	67.3828	82.7583	67.3828	82.7873	67.3828	82.685	67.3828	82.7153	67.3828	82.5995	67.3828	82.6291	67.3828	82.5022	67.3828	82.5295	67.3828	82.3944	67.3828	82.4179	67.3828	82.2782	67.3828	82.2972	67.3828	82.157	67.3828	82.1714	67.3828	82.0358	67.3828	82.0459	67.3828	81.9202	67.3828	81.9269	67.3828	81.817	67.3828	81.8211	67.3828	81.7326	67.3828	81.7348	67.3828	81.6728	67.3828	81.6738	67.3828	81.6418	67.3828	81.6421
