"SPL Vertical"
"On-Axis"		"10°"		"-10°"		"20°"		"-20°"		"30°"		"-30°"		"40°"		"-40°"		"50°"		"-50°"		"60°"		"-60°"		"70°"		"-70°"		"80°"		"-80°"		"90°"		"-90°"		"100°"		"-100°"		"110°"		"-110°"		"120°"		"-120°"		"130°"		"-130°"		"140°"		"-140°"		"150°"		"-150°"		"160°"		"-160°"		"170°"		"-170°"		"180°"
"Frequency / Hz"	"Sound Pressure Level / dB (re 20 µPa/V)  [2.83V at 1m]"	"Frequency / Hz"	"Sound Pressure Level / dB (re 20 µPa/V)  [2.83V at 1m]"	"Frequency / Hz"	"Sound Pressure Level / dB (re 20 µPa/V)  [2.83V at 1m]"	"Frequency / Hz"	"Sound Pressure Level / dB (re 20 µPa/V)  [2.83V at 1m]"	"Frequency / Hz"	"Sound Pressure Level / dB (re 20 µPa/V)  [2.83V at 1m]"	"Frequency / Hz"	"Sound Pressure Level / dB (re 20 µPa/V)  [2.83V at 1m]"	"Frequency / Hz"	"Sound Pressure Level / dB (re 20 µPa/V)  [2.83V at 1m]"	"Frequency / Hz"	"Sound Pressure Level / dB (re 20 µPa/V)  [2.83V at 1m]"	"Frequency / Hz"	"Sound Pressure Level / dB (re 20 µPa/V)  [2.83V at 1m]"	"Frequency / Hz"	"Sound Pressure Level / dB (re 20 µPa/V)  [2.83V at 1m]"	"Frequency / Hz"	"Sound Pressure Level / dB (re 20 µPa/V)  [2.83V at 1m]"	"Frequency / Hz"	"Sound Pressure Level / dB (re 20 µPa/V)  [2.83V at 1m]"	"Frequency / Hz"	"Sound Pressure Level / dB (re 20 µPa/V)  [2.83V at 1m]"	"Frequency / Hz"	"Sound Pressure Level / dB (re 20 µPa/V)  [2.83V at 1m]"	"Frequency / Hz"	"Sound Pressure Level / dB (re 20 µPa/V)  [2.83V at 1m]"	"Frequency / Hz"	"Sound Pressure Level / dB (re 20 µPa/V)  [2.83V at 1m]"	"Frequency / Hz"	"Sound Pressure Level / dB (re 20 µPa/V)  [2.83V at 1m]"	"Frequency / Hz"	"Sound Pressure Level / dB (re 20 µPa/V)  [2.83V at 1m]"	"Frequency / Hz"	"Sound Pressure Level / dB (re 20 µPa/V)  [2.83V at 1m]"	"Frequency / Hz"	"Sound Pressure Level / dB (re 20 µPa/V)  [2.83V at 1m]"	"Frequency / Hz"	"Sound Pressure Level / dB (re 20 µPa/V)  [2.83V at 1m]"	"Frequency / Hz"	"Sound Pressure Level / dB (re 20 µPa/V)  [2.83V at 1m]"	"Frequency / Hz"	"Sound Pressure Level / dB (re 20 µPa/V)  [2.83V at 1m]"	"Frequency / Hz"	"Sound Pressure Level / dB (re 20 µPa/V)  [2.83V at 1m]"	"Frequency / Hz"	"Sound Pressure Level / dB (re 20 µPa/V)  [2.83V at 1m]"	"Frequency / Hz"	"Sound Pressure Level / dB (re 20 µPa/V)  [2.83V at 1m]"	"Frequency / Hz"	"Sound Pressure Level / dB (re 20 µPa/V)  [2.83V at 1m]"	"Frequency / Hz"	"Sound Pressure Level / dB (re 20 µPa/V)  [2.83V at 1m]"	"Frequency / Hz"	"Sound Pressure Level / dB (re 20 µPa/V)  [2.83V at 1m]"	"Frequency / Hz"	"Sound Pressure Level / dB (re 20 µPa/V)  [2.83V at 1m]"	"Frequency / Hz"	"Sound Pressure Level / dB (re 20 µPa/V)  [2.83V at 1m]"	"Frequency / Hz"	"Sound Pressure Level / dB (re 20 µPa/V)  [2.83V at 1m]"	"Frequency / Hz"	"Sound Pressure Level / dB (re 20 µPa/V)  [2.83V at 1m]"	"Frequency / Hz"	"Sound Pressure Level / dB (re 20 µPa/V)  [2.83V at 1m]"	"Frequency / Hz"	"Sound Pressure Level / dB (re 20 µPa/V)  [2.83V at 1m]"	"Frequency / Hz"	"Sound Pressure Level / dB (re 20 µPa/V)  [2.83V at 1m]"
20.5078	52.3424	20.5078	52.4514	20.5078	52.7445	20.5078	52.7973	20.5078	53.8941	20.5078	53.2203	20.5078	55.7381	20.5078	53.6623	20.5078	57.9734	20.5078	54.1197	20.5078	60.3051	20.5078	54.6111	20.5078	62.5504	20.5078	55.1602	20.5078	64.6046	20.5078	55.7869	20.5078	66.3918	20.5078	56.502	20.5078	67.8412	20.5078	57.306	20.5078	68.8894	20.5078	58.1906	20.5078	69.4993	20.5078	59.1423	20.5078	69.6785	20.5078	60.1453	20.5078	69.4791	20.5078	61.1841	20.5078	68.9804	20.5078	62.2447	20.5078	68.2649	20.5078	63.3143	20.5078	67.4026	20.5078	64.3806	20.5078	66.4457	20.5078	65.4302
21.9727	54.1236	21.9727	54.1769	21.9727	54.3481	21.9727	54.3104	21.9727	55.1411	21.9727	54.4449	21.9727	56.6702	21.9727	54.5743	21.9727	58.7769	21.9727	54.7299	21.9727	61.1295	21.9727	54.9597	21.9727	63.4599	21.9727	55.3138	21.9727	65.6075	21.9727	55.8293	21.9727	67.4705	21.9727	56.5194	21.9727	68.9689	21.9727	57.3709	21.9727	70.0387	21.9727	58.3522	21.9727	70.6473	21.9727	59.4254	21.9727	70.8091	21.9727	60.5556	21.9727	70.5831	21.9727	61.7154	21.9727	70.0524	21.9727	62.8849	21.9727	69.3003	21.9727	64.0494	21.9727	68.396	21.9727	65.1971	21.9727	67.3897	21.9727	66.3158
23.4375	55.9003	23.4375	55.6994	23.4375	56.475	23.4375	55.7227	23.4375	57.5531	23.4375	55.8719	23.4375	59.1355	23.4375	56.1067	23.4375	61.0767	23.4375	56.4244	23.4375	63.1798	23.4375	56.8399	23.4375	65.2775	23.4375	57.3695	23.4375	67.2458	23.4375	58.0209	23.4375	68.9859	23.4375	58.7894	23.4375	70.4095	23.4375	59.6594	23.4375	71.4419	23.4375	60.6094	23.4375	72.0409	23.4375	61.617	23.4375	72.2132	23.4375	62.6624	23.4375	72.0119	23.4375	63.7299	23.4375	71.5161	23.4375	64.8069	23.4375	70.8071	23.4375	65.8836	23.4375	69.953	23.4375	66.9502	23.4375	69.0042	23.4375	67.9956
24.9023	57.5304	24.9023	57.2252	24.9023	58.156	24.9023	57.144	24.9023	59.1855	24.9023	57.2204	24.9023	60.6271	24.9023	57.4228	24.9023	62.3892	24.9023	57.7439	24.9023	64.3237	24.9023	58.1854	24.9023	66.282	24.9023	58.748	24.9023	68.1401	24.9023	59.4251	24.9023	69.795	24.9023	60.2023	24.9023	71.1567	24.9023	61.0606	24.9023	72.1502	24.9023	61.9799	24.9023	72.7317	24.9023	62.9418	24.9023	72.905	24.9023	63.9312	24.9023	72.7205	24.9023	64.9364	24.9023	72.2551	24.9023	65.9482	24.9023	71.5875	24.9023	66.9588	24.9023	70.7834	24.9023	67.9602	24.9023	69.8907	24.9023	68.9424
26.3672	61.5662	26.3672	61.416	26.3672	61.8898	26.3672	61.381	26.3672	62.4625	26.3672	61.4275	26.3672	63.3496	26.3672	61.5419	26.3672	64.5631	26.3672	61.7236	26.3672	66.0404	26.3672	61.9782	26.3672	67.6644	26.3672	62.3128	26.3672	69.3021	26.3672	62.7326	26.3672	70.8272	26.3672	63.2385	26.3672	72.1247	26.3672	63.8271	26.3672	73.0985	26.3672	64.491	26.3672	73.6895	26.3672	65.22	26.3672	73.8915	26.3672	66.0029	26.3672	73.7486	26.3672	66.828	26.3672	73.3346	26.3672	67.684	26.3672	72.7275	26.3672	68.5598	26.3672	71.9931	26.3672	69.4438	26.3672	71.1804	26.3672	70.3229
27.832	60.1592	27.832	59.802	27.832	60.7913	27.832	59.6642	27.832	61.7388	27.832	59.6979	27.832	62.9994	27.832	59.8712	27.832	64.5177	27.832	60.1661	27.832	66.1999	27.832	60.5725	27.832	67.9384	27.832	61.0821	27.832	69.6274	27.832	61.6857	27.832	71.1651	27.832	62.3719	27.832	72.4525	27.832	63.1274	27.832	73.4025	27.832	63.9389	27.832	73.9611	27.832	64.7938	27.832	74.1256	27.832	65.681	27.832	73.9432	27.832	66.5914	27.832	73.4892	27.832	67.5172	27.832	72.8419	27.832	68.4513	27.832	72.0667	27.832	69.3859	27.832	71.2119	27.832	70.311
29.2969	63.5777	29.2969	63.2325	29.2969	64.1253	29.2969	63.0604	29.2969	64.8972	29.2969	63.0338	29.2969	65.8968	29.2969	63.1308	29.2969	67.1001	29.2969	63.335	29.2969	68.4551	29.2969	63.6347	29.2969	69.8885	29.2969	64.0205	29.2969	71.3139	29.2969	64.484	29.2969	72.6377	29.2969	65.0172	29.2969	73.7632	29.2969	65.612	29.2969	74.602	29.2969	66.2607	29.2969	75.0948	29.2969	66.9556	29.2969	75.2321	29.2969	67.6899	29.2969	75.0534	29.2969	68.4569	29.2969	74.6274	29.2969	69.2504	29.2969	74.0267	29.2969	70.0638	29.2969	73.3129	29.2969	70.8895	29.2969	72.5323	29.2969	71.7172
30.7617	66.182	30.7617	65.8589	30.7617	66.6596	30.7617	65.6701	30.7617	67.3095	30.7617	65.5975	30.7617	68.1396	30.7617	65.6268	30.7617	69.1409	30.7617	65.7474	30.7617	70.2817	30.7617	65.9513	30.7617	71.5078	30.7617	66.2328	30.7617	72.7462	30.7617	66.5864	30.7617	73.9121	30.7617	67.0071	30.7617	74.9144	30.7617	67.4899	30.7617	75.6675	30.7617	68.0293	30.7617	76.1107	30.7617	68.62	30.7617	76.2286	30.7617	69.2564	30.7617	76.0536	30.7617	69.9329	30.7617	75.6473	30.7617	70.6437	30.7617	75.0776	30.7617	71.3822	30.7617	74.4034	30.7617	72.1405	30.7617	73.6695	30.7617	72.9079
32.2266	67.8897	32.2266	67.5621	32.2266	68.352	32.2266	67.3548	32.2266	68.9606	32.2266	67.2543	32.2266	69.7204	32.2266	67.2491	32.2266	70.6234	32.2266	67.3299	32.2266	71.6445	32.2266	67.4897	32.2266	72.7403	32.2266	67.7226	32.2266	73.8515	32.2266	68.0237	32.2266	74.9048	32.2266	68.3886	32.2266	75.8166	32.2266	68.813	32.2266	76.5024	32.2266	69.2929	32.2266	76.9002	32.2266	69.8238	32.2266	76.9929	32.2266	70.4015	32.2266	76.8108	32.2266	71.0212	32.2266	76.413	32.2266	71.6778	32.2266	75.8636	32.2266	72.3651	32.2266	75.2185	32.2266	73.0755	32.2266	74.52	32.2266	73.7986
33.6914	69.858	33.6914	69.5363	33.6914	70.2937	33.6914	69.3178	33.6914	70.852	33.6914	69.1923	33.6914	71.5357	33.6914	69.1508	33.6914	72.3378	33.6914	69.1861	33.6914	73.2386	33.6914	69.2925	33.6914	74.2039	33.6914	69.4653	33.6914	75.1861	33.6914	69.7009	33.6914	76.1226	33.6914	69.9961	33.6914	76.9363	33.6914	70.3481	33.6914	77.5459	33.6914	70.7541	33.6914	77.8889	33.6914	71.2114	33.6914	77.9465	33.6914	71.7173	33.6914	77.7468	33.6914	72.2684	33.6914	77.3462	33.6914	72.861	33.6914	76.8066	33.6914	73.49	33.6914	76.1816	33.6914	74.1488	33.6914	75.512	33.6914	74.8275
35.1562	71.6494	35.1562	71.3176	35.1562	72.0745	35.1562	71.0741	35.1562	72.5962	35.1562	70.9131	35.1562	73.2139	35.1562	70.8289	35.1562	73.9219	35.1562	70.8164	35.1562	74.7068	35.1562	70.8711	35.1562	75.5452	35.1562	70.9893	35.1562	76.4007	35.1562	71.1679	35.1562	77.2206	35.1562	71.4045	35.1562	77.9352	35.1562	71.6967	35.1562	78.4675	35.1562	72.0424	35.1562	78.7556	35.1562	72.4395	35.1562	78.7784	35.1562	72.8858	35.1562	78.5605	35.1562	73.3788	35.1562	78.1559	35.1562	73.9152	35.1562	77.6248	35.1562	74.4909	35.1562	77.0197	35.1562	75.1	35.1562	76.3801	35.1562	75.7339
36.6211	73.5491	36.6211	73.2002	36.6211	73.9661	36.6211	72.9182	36.6211	74.4504	36.6211	72.7015	36.6211	74.9993	36.6211	72.5478	36.6211	75.6067	36.6211	72.4553	36.6211	76.2627	36.6211	72.4221	36.6211	76.9515	36.6211	72.4469	36.6211	77.6481	36.6211	72.5288	36.6211	78.313	36.6211	72.6671	36.6211	78.8887	36.6211	72.8614	36.6211	79.3054	36.6211	73.1114	36.6211	79.5026	36.6211	73.4169	36.6211	79.4563	36.6211	73.7773	36.6211	79.1876	36.6211	74.1916	36.6211	78.7482	36.6211	74.6583	36.6211	78.1975	36.6211	75.1744	36.6211	77.5872	36.6211	75.7352	36.6211	76.9567	36.6211	76.3333
38.0859	74.3047	38.0859	74.0127	38.0859	74.6694	38.0859	73.7901	38.0859	75.1106	38.0859	73.6338	38.0859	75.6312	38.0859	73.5413	38.0859	76.2316	38.0859	73.5104	38.0859	76.9064	38.0859	73.5391	38.0859	77.6396	38.0859	73.6256	38.0859	78.4006	38.0859	73.7682	38.0859	79.1411	38.0859	73.9654	38.0859	79.796	38.0859	74.2156	38.0859	80.2919	38.0859	74.5172	38.0859	80.5694	38.0859	74.8683	38.0859	80.6059	38.0859	75.2671	38.0859	80.4212	38.0859	75.7112	38.0859	80.0627	38.0859	76.1975	38.0859	79.5844	38.0859	76.7219	38.0859	79.0345	38.0859	77.2785	38.0859	78.4504	38.0859	77.8589
39.5508	75.7577	39.5508	75.4466	39.5508	76.1362	39.5508	75.202	39.5508	76.5818	39.5508	75.0221	39.5508	77.0923	39.5508	74.9044	39.5508	77.6625	39.5508	74.8465	39.5508	78.2828	39.5508	74.8459	39.5508	78.937	39.5508	74.9004	39.5508	79.5992	39.5508	75.0078	39.5508	80.2305	39.5508	75.1664	39.5508	80.7777	39.5508	75.3745	39.5508	81.1786	39.5508	75.6308	39.5508	81.3808	39.5508	75.9341	39.5508	81.3638	39.5508	76.2833	39.5508	81.1462	39.5508	76.6769	39.5508	80.7728	39.5508	77.1131	39.5508	80.2952	39.5508	77.5891	39.5508	79.7591	39.5508	78.1007	39.5508	79.1994	39.5508	78.6411
41.0156	76.855	41.0156	76.5314	41.0156	77.2405	41.0156	76.2707	41.0156	77.6857	41.0156	76.0722	41.0156	78.186	41.0156	75.9348	41.0156	78.7342	41.0156	75.8563	41.0156	79.3189	41.0156	75.8345	41.0156	79.9229	41.0156	75.8669	41.0156	80.5212	41.0156	75.9512	41.0156	81.0788	41.0156	76.0851	41.0156	81.5492	41.0156	76.2667	41.0156	81.8783	41.0156	76.4944	41.0156	82.0204	41.0156	76.7669	41.0156	81.9587	41.0156	77.0832	41.0156	81.7131	41.0156	77.4421	41.0156	81.3277	41.0156	77.8423	41.0156	80.8524	41.0156	78.282	41.0156	80.3303	41.0156	78.7579	41.0156	79.7937	41.0156	79.2648
42.4805	78.0314	42.4805	77.6934	42.4805	78.4239	42.4805	77.4123	42.4805	78.8663	42.4805	77.1894	42.4805	79.3519	42.4805	77.0245	42.4805	79.8714	42.4805	76.9165	42.4805	80.4122	42.4805	76.8639	42.4805	80.9576	42.4805	76.8646	42.4805	81.4863	42.4805	76.9167	42.4805	81.9691	42.4805	77.018	42.4805	82.3669	42.4805	77.1669	42.4805	82.6326	42.4805	77.3618	42.4805	82.7248	42.4805	77.6017	42.4805	82.6277	42.4805	77.8857	42.4805	82.3598	42.4805	78.2132	42.4805	81.9628	42.4805	78.5833	42.4805	81.4849	42.4805	78.9949	42.4805	80.9677	42.4805	79.4456	42.4805	80.4426	42.4805	79.9308
43.9453	78.9707	43.9453	78.6341	43.9453	79.3552	43.9453	78.3491	43.9453	79.7821	43.9453	78.118	43.9453	80.2439	43.9453	77.9415	43.9453	80.7307	43.9453	77.8193	43.9453	81.2306	43.9453	77.7504	43.9453	81.7285	43.9453	77.7333	43.9453	82.2052	43.9453	77.7661	43.9453	82.6353	43.9453	77.8471	43.9453	82.9841	43.9453	77.9746	43.9453	83.2092	43.9453	78.1472	43.9453	83.2728	43.9453	78.3639	43.9453	83.1604	43.9453	78.6239	43.9453	82.8892	43.9453	78.9267	43.9453	82.4986	43.9453	79.2717	43.9453	82.0341	43.9453	79.6579	43.9453	81.5354	43.9453	80.0832	43.9453	81.0319	43.9453	80.5437
45.4102	79.8159	45.4102	79.4793	45.4102	80.1966	45.4102	79.1911	45.4102	80.6149	45.4102	78.9541	45.4102	81.0625	45.4102	78.7695	45.4102	81.5286	45.4102	78.6373	45.4102	82.0002	45.4102	78.5567	45.4102	82.4622	45.4102	78.5263	45.4102	82.896	45.4102	78.5442	45.4102	83.2786	45.4102	78.6087	45.4102	83.5793	45.4102	78.718	45.4102	83.7611	45.4102	78.8709	45.4102	83.7908	45.4102	79.0661	45.4102	83.6564	45.4102	79.3031	45.4102	83.3749	45.4102	79.5815	45.4102	82.9844	45.4102	79.901	45.4102	82.5284	45.4102	80.2611	45.4102	82.0446	45.4102	80.6604	45.4102	81.5609	45.4102	81.0957
46.875	80.5266	46.875	80.1875	46.875	80.9061	46.875	79.8939	46.875	81.3189	46.875	79.6493	46.875	81.7557	46.875	79.4554	46.875	82.2051	46.875	79.3125	46.875	82.6534	46.875	79.2203	46.875	83.0851	46.875	79.1773	46.875	83.4822	46.875	79.182	46.875	83.8232	46.875	79.2324	46.875	84.0812	46.875	79.327	46.875	84.2239	46.875	79.4641	46.875	84.2226	46.875	79.6425	46.875	84.0676	46.875	79.8616	46.875	83.7762	46.875	80.1211	46.875	83.3852	46.875	80.4206	46.875	82.9363	46.875	80.7599	46.875	82.4653	46.875	81.1381	46.875	81.9984	46.875	81.5527
48.3398	81.2704	48.3398	80.9283	48.3398	81.6467	48.3398	80.6266	48.3398	82.0489	48.3398	80.3696	48.3398	82.4666	48.3398	80.1597	48.3398	82.8872	48.3398	79.998	48.3398	83.2968	48.3398	79.8845	48.3398	83.6801	48.3398	79.8184	48.3398	84.0208	48.3398	79.7984	48.3398	84.3009	48.3398	79.8229	48.3398	84.4985	48.3398	79.8904	48.3398	84.5874	48.3398	79.9996	48.3398	84.5441	48.3398	80.1497	48.3398	84.3613	48.3398	80.34	48.3398	84.0558	48.3398	80.5704	48.3398	83.6625	48.3398	80.8411	48.3398	83.2204	48.3398	81.1522	48.3398	82.7633	48.3398	81.5033	48.3398	82.3155	48.3398	81.8926
51.2695	81.8654	51.2695	81.5367	51.2695	82.225	51.2695	81.2455	51.2695	82.6067	51.2695	80.9965	51.2695	82.9995	51.2695	80.7922	51.2695	83.3905	51.2695	80.6339	51.2695	83.7654	51.2695	80.5215	51.2695	84.1092	51.2695	80.4541	51.2695	84.4069	51.2695	80.4303	51.2695	84.643	51.2695	80.4483	51.2695	84.7998	51.2695	80.5066	51.2695	84.8571	51.2695	80.6035	51.2695	84.7961	51.2695	80.738	51.2695	84.6115	51.2695	80.9094	51.2695	84.3185	51.2695	81.1175	51.2695	83.9487	51.2695	81.3624	51.2695	83.5376	51.2695	81.6443	51.2695	83.1155	51.2695	81.9631	51.2695	82.7043	51.2695	82.3176
52.7344	82.089	52.7344	81.7617	52.7344	82.4468	52.7344	81.4716	52.7344	82.8256	52.7344	81.2237	52.7344	83.2139	52.7344	81.0209	52.7344	83.5982	52.7344	80.8642	52.7344	83.9633	52.7344	80.7536	52.7344	84.2934	52.7344	80.6879	52.7344	84.5724	52.7344	80.6653	52.7344	84.7847	52.7344	80.6838	52.7344	84.9145	52.7344	80.7412	52.7344	84.945	52.7344	80.8356	52.7344	84.8625	52.7344	80.9654	52.7344	84.6658	52.7344	81.1296	52.7344	84.3716	52.7344	81.3276	52.7344	84.0102	52.7344	81.5594	52.7344	83.6146	52.7344	81.8252	52.7344	83.2124	52.7344	82.1253	52.7344	82.8233	52.7344	82.4588
54.1992	82.3314	54.1992	82.002	54.1992	82.688	54.1992	81.7075	54.1992	83.0617	54.1992	81.4532	54.1992	83.4401	54.1992	81.2424	54.1992	83.8089	54.1992	81.0768	54.1992	84.152	54.1992	80.9564	54.1992	84.4531	54.1992	80.8802	54.1992	84.6964	54.1992	80.8464	54.1992	84.8674	54.1992	80.8528	54.1992	84.953	54.1992	80.8972	54.1992	84.941	54.1992	80.9775	54.1992	84.823	54.1992	81.0918	54.1992	84.6015	54.1992	81.2388	54.1992	84.2952	54.1992	81.4179	54.1992	83.9339	54.1992	81.6289	54.1992	83.5485	54.1992	81.8721	54.1992	83.164	54.1992	82.1481	54.1992	82.797	54.1992	82.4569
55.6641	82.5687	55.6641	82.237	55.6641	82.9233	55.6641	81.9366	55.6641	83.2901	55.6641	81.6734	55.6641	83.6563	55.6641	81.4512	55.6641	84.0067	55.6641	81.2721	55.6641	84.3251	55.6641	81.1366	55.6641	84.5947	55.6641	81.044	55.6641	84.7999	55.6641	80.9927	55.6641	84.9274	55.6641	80.9808	55.6641	84.9667	55.6641	81.006	55.6641	84.9099	55.6641	81.0662	55.6641	84.7532	55.6641	81.1596	55.6641	84.5032	55.6641	81.2849	55.6641	84.1799	55.6641	81.4414	55.6641	83.8126	55.6641	81.6292	55.6641	83.4308	55.6641	81.8489	55.6641	83.0576	55.6641	82.1014	55.6641	82.7073	55.6641	82.3876
58.5938	82.7322	58.5938	82.4065	58.5938	83.077	58.5938	82.1085	58.5938	83.4296	58.5938	81.8446	58.5938	83.7764	58.5938	81.6189	58.5938	84.1017	58.5938	81.4336	58.5938	84.3885	58.5938	81.2894	58.5938	84.6194	58.5938	81.1859	58.5938	84.779	58.5938	81.1215	58.5938	84.8549	58.5938	81.0943	58.5938	84.84	58.5938	81.102	58.5938	84.7321	58.5938	81.1424	58.5938	84.5349	58.5938	81.2137	58.5938	84.2601	58.5938	81.3145	58.5938	83.9295	58.5938	81.4439	58.5938	83.5705	58.5938	81.6022	58.5938	83.2087	58.5938	81.7901	58.5938	82.8633	58.5938	82.0089	58.5938	82.5456	58.5938	82.2605
60.0586	82.7549	60.0586	82.4309	60.0586	83.0963	60.0586	82.1335	60.0586	83.4435	60.0586	81.8692	60.0586	83.7823	60.0586	81.6424	60.0586	84.0966	60.0586	81.4557	60.0586	84.3687	60.0586	81.3097	60.0586	84.5812	60.0586	81.2038	60.0586	84.7182	60.0586	81.1367	60.0586	84.768	60.0586	81.1059	60.0586	84.725	60.0586	81.1092	60.0586	84.5901	60.0586	81.1441	60.0586	84.3711	60.0586	81.2083	60.0586	84.0836	60.0586	81.3001	60.0586	83.7509	60.0586	81.4187	60.0586	83.3995	60.0586	81.5637	60.0586	83.053	60.0586	81.7359	60.0586	82.7275	60.0586	81.9367	60.0586	82.4315	60.0586	82.168
62.9883	82.9216	62.9883	82.5905	62.9883	83.2646	62.9883	82.2812	62.9883	83.6066	62.9883	82.0013	62.9883	83.9321	62.9883	81.7559	62.9883	84.2233	62.9883	81.548	62.9883	84.4609	62.9883	81.379	62.9883	84.6258	62.9883	81.2484	62.9883	84.7016	62.9883	81.1551	62.9883	84.6773	62.9883	81.0968	62.9883	84.5509	62.9883	81.071	62.9883	84.3305	62.9883	81.0751	62.9883	84.0338	62.9883	81.1065	62.9883	83.6856	62.9883	81.1633	62.9883	83.3147	62.9883	81.2444	62.9883	82.949	62.9883	81.3493	62.9883	82.6094	62.9883	81.4793	62.9883	82.3075	62.9883	81.6363	62.9883	82.0463	62.9883	81.8239
64.4531	83.028	64.4531	82.6908	64.4531	83.375	64.4531	82.3739	64.4531	83.7185	64.4531	82.0849	64.4531	84.0426	64.4531	81.8291	64.4531	84.3286	64.4531	81.6098	64.4531	84.5566	64.4531	81.4283	64.4531	84.7068	64.4531	81.2844	64.4531	84.7619	64.4531	81.1768	64.4531	84.7111	64.4531	81.1033	64.4531	84.5533	64.4531	81.0616	64.4531	84.2993	64.4531	81.049	64.4531	83.9699	64.4531	81.063	64.4531	83.5924	64.4531	81.1018	64.4531	83.1969	64.4531	81.1645	64.4531	82.8123	64.4531	81.2513	64.4531	82.4603	64.4531	81.3637	64.4531	82.1532	64.4531	81.505	64.4531	81.894	64.4531	81.6798
67.3828	82.9469	67.3828	82.6128	67.3828	83.2919	67.3828	82.2999	67.3828	83.6348	67.3828	82.0156	67.3828	83.9598	67.3828	81.7648	67.3828	84.2483	67.3828	81.5504	67.3828	84.4796	67.3828	81.3735	67.3828	84.6328	67.3828	81.2337	67.3828	84.6889	67.3828	81.1296	67.3828	84.6352	67.3828	81.059	67.3828	84.4703	67.3828	81.0195	67.3828	84.2072	67.3828	81.0085	67.3828	83.8716	67.3828	81.0237	67.3828	83.495	67.3828	81.0635	67.3828	83.1085	67.3828	81.1271	67.3828	82.7377	67.3828	81.2146	67.3828	82.4	67.3828	81.3276	67.3828	82.1043	67.3828	81.4687	67.3828	81.8525	67.3828	81.6421
