"SPL Horizontal"
"On-Axis"		"10°"		"-10°"		"20°"		"-20°"		"30°"		"-30°"		"40°"		"-40°"		"50°"		"-50°"		"60°"		"-60°"		"70°"		"-70°"		"80°"		"-80°"		"90°"		"-90°"		"100°"		"-100°"		"110°"		"-110°"		"120°"		"-120°"		"130°"		"-130°"		"140°"		"-140°"		"150°"		"-150°"		"160°"		"-160°"		"170°"		"-170°"		"180°"
"Frequency / Hz"	"Sound Pressure Level / dB (re 20 µPa/V)  [2.83  V @ 1. m]"	"Frequency / Hz"	"Sound Pressure Level / dB (re 20 µPa/V)  [2.83  V @ 1. m]"	"Frequency / Hz"	"Sound Pressure Level / dB (re 20 µPa/V)  [2.83  V @ 1. m]"	"Frequency / Hz"	"Sound Pressure Level / dB (re 20 µPa/V)  [2.83  V @ 1. m]"	"Frequency / Hz"	"Sound Pressure Level / dB (re 20 µPa/V)  [2.83  V @ 1. m]"	"Frequency / Hz"	"Sound Pressure Level / dB (re 20 µPa/V)  [2.83  V @ 1. m]"	"Frequency / Hz"	"Sound Pressure Level / dB (re 20 µPa/V)  [2.83  V @ 1. m]"	"Frequency / Hz"	"Sound Pressure Level / dB (re 20 µPa/V)  [2.83  V @ 1. m]"	"Frequency / Hz"	"Sound Pressure Level / dB (re 20 µPa/V)  [2.83  V @ 1. m]"	"Frequency / Hz"	"Sound Pressure Level / dB (re 20 µPa/V)  [2.83  V @ 1. m]"	"Frequency / Hz"	"Sound Pressure Level / dB (re 20 µPa/V)  [2.83  V @ 1. m]"	"Frequency / Hz"	"Sound Pressure Level / dB (re 20 µPa/V)  [2.83  V @ 1. m]"	"Frequency / Hz"	"Sound Pressure Level / dB (re 20 µPa/V)  [2.83  V @ 1. m]"	"Frequency / Hz"	"Sound Pressure Level / dB (re 20 µPa/V)  [2.83  V @ 1. m]"	"Frequency / Hz"	"Sound Pressure Level / dB (re 20 µPa/V)  [2.83  V @ 1. m]"	"Frequency / Hz"	"Sound Pressure Level / dB (re 20 µPa/V)  [2.83  V @ 1. m]"	"Frequency / Hz"	"Sound Pressure Level / dB (re 20 µPa/V)  [2.83  V @ 1. m]"	"Frequency / Hz"	"Sound Pressure Level / dB (re 20 µPa/V)  [2.83  V @ 1. m]"	"Frequency / Hz"	"Sound Pressure Level / dB (re 20 µPa/V)  [2.83  V @ 1. m]"	"Frequency / Hz"	"Sound Pressure Level / dB (re 20 µPa/V)  [2.83  V @ 1. m]"	"Frequency / Hz"	"Sound Pressure Level / dB (re 20 µPa/V)  [2.83  V @ 1. m]"	"Frequency / Hz"	"Sound Pressure Level / dB (re 20 µPa/V)  [2.83  V @ 1. m]"	"Frequency / Hz"	"Sound Pressure Level / dB (re 20 µPa/V)  [2.83  V @ 1. m]"	"Frequency / Hz"	"Sound Pressure Level / dB (re 20 µPa/V)  [2.83  V @ 1. m]"	"Frequency / Hz"	"Sound Pressure Level / dB (re 20 µPa/V)  [2.83  V @ 1. m]"	"Frequency / Hz"	"Sound Pressure Level / dB (re 20 µPa/V)  [2.83  V @ 1. m]"	"Frequency / Hz"	"Sound Pressure Level / dB (re 20 µPa/V)  [2.83  V @ 1. m]"	"Frequency / Hz"	"Sound Pressure Level / dB (re 20 µPa/V)  [2.83  V @ 1. m]"	"Frequency / Hz"	"Sound Pressure Level / dB (re 20 µPa/V)  [2.83  V @ 1. m]"	"Frequency / Hz"	"Sound Pressure Level / dB (re 20 µPa/V)  [2.83  V @ 1. m]"	"Frequency / Hz"	"Sound Pressure Level / dB (re 20 µPa/V)  [2.83  V @ 1. m]"	"Frequency / Hz"	"Sound Pressure Level / dB (re 20 µPa/V)  [2.83  V @ 1. m]"	"Frequency / Hz"	"Sound Pressure Level / dB (re 20 µPa/V)  [2.83  V @ 1. m]"	"Frequency / Hz"	"Sound Pressure Level / dB (re 20 µPa/V)  [2.83  V @ 1. m]"	"Frequency / Hz"	"Sound Pressure Level / dB (re 20 µPa/V)  [2.83  V @ 1. m]"	"Frequency / Hz"	"Sound Pressure Level / dB (re 20 µPa/V)  [2.83  V @ 1. m]"
20.5078	60.4297	20.5078	60.3839	20.5078	60.4695	20.5078	60.3331	20.5078	60.5001	20.5078	60.2743	20.5078	60.5172	20.5078	60.2007	20.5078	60.5163	20.5078	60.1016	20.5078	60.4924	20.5078	59.9642	20.5078	60.4398	20.5078	59.7763	20.5078	60.3511	20.5078	59.5292	20.5078	60.2176	20.5078	59.2213	20.5078	60.0303	20.5078	58.8622	20.5078	59.7834	20.5078	58.4772	20.5078	59.4804	20.5078	58.1107	20.5078	59.1402	20.5078	57.8193	20.5078	58.7976	20.5078	57.6509	20.5078	58.495	20.5078	57.6166	20.5078	58.2635	20.5078	57.682	20.5078	58.106	20.5078	57.7905	20.5078	57.9966	20.5078	57.8988
21.9727	65.3547	21.9727	65.2925	21.9727	65.427	21.9727	65.2411	21.9727	65.5082	21.9727	65.2005	21.9727	65.5961	21.9727	65.1706	21.9727	65.6879	21.9727	65.1513	21.9727	65.7803	21.9727	65.1433	21.9727	65.8701	21.9727	65.1489	21.9727	65.9548	21.9727	65.1718	21.9727	66.033	21.9727	65.2172	21.9727	66.1048	21.9727	65.2909	21.9727	66.1714	21.9727	65.3967	21.9727	66.2345	21.9727	65.5348	21.9727	66.2953	21.9727	65.6994	21.9727	66.3533	21.9727	65.8785	21.9727	66.406	21.9727	66.0557	21.9727	66.4476	21.9727	66.2137	21.9727	66.4703	21.9727	66.3385	21.9727	66.4647	21.9727	66.4225
23.4375	68.2274	23.4375	68.2003	23.4375	68.2602	23.4375	68.1796	23.4375	68.2971	23.4375	68.1657	23.4375	68.3367	23.4375	68.1581	23.4375	68.3775	23.4375	68.1559	23.4375	68.4181	23.4375	68.1581	23.4375	68.4574	23.4375	68.1638	23.4375	68.4941	23.4375	68.1729	23.4375	68.527	23.4375	68.1856	23.4375	68.5547	23.4375	68.2026	23.4375	68.5762	23.4375	68.2247	23.4375	68.5908	23.4375	68.2522	23.4375	68.5981	23.4375	68.2852	23.4375	68.5984	23.4375	68.3236	23.4375	68.5919	23.4375	68.3661	23.4375	68.5788	23.4375	68.411	23.4375	68.5586	23.4375	68.4553	23.4375	68.531	23.4375	68.4962
24.9023	70.4949	24.9023	70.4872	24.9023	70.5067	24.9023	70.484	24.9023	70.5218	24.9023	70.4854	24.9023	70.5392	24.9023	70.4908	24.9023	70.558	24.9023	70.4988	24.9023	70.5773	24.9023	70.5081	24.9023	70.5965	24.9023	70.5169	24.9023	70.6145	24.9023	70.5234	24.9023	70.6301	24.9023	70.5263	24.9023	70.6414	24.9023	70.5243	24.9023	70.646	24.9023	70.5169	24.9023	70.6418	24.9023	70.5044	24.9023	70.6275	24.9023	70.4881	24.9023	70.6035	24.9023	70.4706	24.9023	70.5723	24.9023	70.4554	24.9023	70.5375	24.9023	70.4461	24.9023	70.5038	24.9023	70.4456	24.9023	70.4754	24.9023	70.4554
26.3672	72.6528	26.3672	72.6603	26.3672	72.6446	26.3672	72.667	26.3672	72.6356	26.3672	72.6726	26.3672	72.6255	26.3672	72.6764	26.3672	72.6141	26.3672	72.6771	26.3672	72.6014	26.3672	72.6735	26.3672	72.5872	26.3672	72.6644	26.3672	72.5715	26.3672	72.6488	26.3672	72.5538	26.3672	72.6263	26.3672	72.5334	26.3672	72.5967	26.3672	72.5097	26.3672	72.5608	26.3672	72.4823	26.3672	72.52	26.3672	72.4517	26.3672	72.4768	26.3672	72.4193	26.3672	72.434	26.3672	72.3878	26.3672	72.3952	26.3672	72.3604	26.3672	72.3633	26.3672	72.3401	26.3672	72.3409	26.3672	72.3293	26.3672	72.3294
27.832	74.2301	27.832	74.2271	27.832	74.2322	27.832	74.2234	27.832	74.233	27.832	74.2187	27.832	74.2321	27.832	74.2128	27.832	74.229	27.832	74.2049	27.832	74.2232	27.832	74.1939	27.832	74.2143	27.832	74.1789	27.832	74.2014	27.832	74.1587	27.832	74.1838	27.832	74.1323	27.832	74.1604	27.832	74.0993	27.832	74.1305	27.832	74.06	27.832	74.0938	27.832	74.0156	27.832	74.0509	27.832	73.9687	27.832	74.0041	27.832	73.9229	27.832	73.9563	27.832	73.8828	27.832	73.9116	27.832	73.8526	27.832	73.8741	27.832	73.8358	27.832	73.8473	27.832	73.834
29.2969	75.4473	29.2969	75.4365	29.2969	75.4521	29.2969	75.4197	29.2969	75.451	29.2969	75.3964	29.2969	75.4441	29.2969	75.3665	29.2969	75.4313	29.2969	75.3295	29.2969	75.4124	29.2969	75.2851	29.2969	75.3874	29.2969	75.2335	29.2969	75.356	29.2969	75.175	29.2969	75.318	29.2969	75.1104	29.2969	75.2732	29.2969	75.0414	29.2969	75.2213	29.2969	74.9703	29.2969	75.1627	29.2969	74.9007	29.2969	75.0985	29.2969	74.837	29.2969	75.0306	29.2969	74.7842	29.2969	74.962	29.2969	74.7468	29.2969	74.896	29.2969	74.728	29.2969	74.8361	29.2969	74.7291	29.2969	74.7861	29.2969	74.7493
30.7617	77.7407	30.7617	77.7427	30.7617	77.7346	30.7617	77.7407	30.7617	77.7247	30.7617	77.7344	30.7617	77.711	30.7617	77.7237	30.7617	77.6935	30.7617	77.7085	30.7617	77.6724	30.7617	77.6887	30.7617	77.6478	30.7617	77.6642	30.7617	77.6197	30.7617	77.6352	30.7617	77.588	30.7617	77.6019	30.7617	77.5528	30.7617	77.5645	30.7617	77.5144	30.7617	77.5237	30.7617	77.4734	30.7617	77.4804	30.7617	77.4313	30.7617	77.4363	30.7617	77.3903	30.7617	77.3935	30.7617	77.353	30.7617	77.3548	30.7617	77.3221	30.7617	77.323	30.7617	77.3002	30.7617	77.3004	30.7617	77.2887	30.7617	77.2887
32.2266	79.0443	32.2266	79.0384	32.2266	79.0463	32.2266	79.0288	32.2266	79.0444	32.2266	79.0156	32.2266	79.0385	32.2266	78.999	32.2266	79.0286	32.2266	78.979	32.2266	79.0147	32.2266	78.9558	32.2266	78.9969	32.2266	78.9297	32.2266	78.9753	32.2266	78.9012	32.2266	78.95	32.2266	78.8706	32.2266	78.9209	32.2266	78.8386	32.2266	78.8883	32.2266	78.8058	32.2266	78.8526	32.2266	78.7728	32.2266	78.8148	32.2266	78.741	32.2266	78.7767	32.2266	78.7116	32.2266	78.7404	32.2266	78.6865	32.2266	78.7082	32.2266	78.6678	32.2266	78.6823	32.2266	78.6572	32.2266	78.6645	32.2266	78.656
33.6914	80.4148	33.6914	80.4081	33.6914	80.4156	33.6914	80.3954	33.6914	80.4102	33.6914	80.377	33.6914	80.3988	33.6914	80.3531	33.6914	80.3814	33.6914	80.3241	33.6914	80.3583	33.6914	80.2902	33.6914	80.3297	33.6914	80.252	33.6914	80.296	33.6914	80.21	33.6914	80.2574	33.6914	80.1652	33.6914	80.2144	33.6914	80.1182	33.6914	80.1675	33.6914	80.07	33.6914	80.1176	33.6914	80.0219	33.6914	80.0662	33.6914	79.9757	33.6914	80.0153	33.6914	79.9334	33.6914	79.9673	33.6914	79.8978	33.6914	79.9249	33.6914	79.8716	33.6914	79.8907	33.6914	79.857	33.6914	79.867	33.6914	79.8554
35.1562	81.9556	35.1562	81.952	35.1562	81.9545	35.1562	81.9438	35.1562	81.9487	35.1562	81.931	35.1562	81.9383	35.1562	81.9138	35.1562	81.9235	35.1562	81.8923	35.1562	81.9044	35.1562	81.8668	35.1562	81.8812	35.1562	81.8377	35.1562	81.8543	35.1562	81.8056	35.1562	81.824	35.1562	81.7711	35.1562	81.7909	35.1562	81.7351	35.1562	81.7553	35.1562	81.6988	35.1562	81.7183	35.1562	81.6633	35.1562	81.681	35.1562	81.6299	35.1562	81.645	35.1562	81.6	35.1562	81.612	35.1562	81.5752	35.1562	81.584	35.1562	81.5567	35.1562	81.5624	35.1562	81.5456	35.1562	81.5485	35.1562	81.5428
36.6211	83.004	36.6211	82.9978	36.6211	83.0038	36.6211	82.9856	36.6211	82.9973	36.6211	82.9674	36.6211	82.9846	36.6211	82.9438	36.6211	82.9659	36.6211	82.9153	36.6211	82.9418	36.6211	82.8827	36.6211	82.9129	36.6211	82.8469	36.6211	82.8799	36.6211	82.809	36.6211	82.8441	36.6211	82.7704	36.6211	82.8064	36.6211	82.7322	36.6211	82.7683	36.6211	82.6959	36.6211	82.731	36.6211	82.6626	36.6211	82.6956	36.6211	82.6336	36.6211	82.6632	36.6211	82.6095	36.6211	82.6346	36.6211	82.5912	36.6211	82.6107	36.6211	82.5788	36.6211	82.5922	36.6211	82.5727	36.6211	82.5795	36.6211	82.5729
38.0859	83.1923	38.0859	83.183	38.0859	83.1952	38.0859	83.1677	38.0859	83.1915	38.0859	83.1468	38.0859	83.1812	38.0859	83.1208	38.0859	83.1646	38.0859	83.0906	38.0859	83.1418	38.0859	83.0571	38.0859	83.1135	38.0859	83.0213	38.0859	83.0804	38.0859	82.9843	38.0859	83.0436	38.0859	82.9475	38.0859	83.0043	38.0859	82.9118	38.0859	82.9641	38.0859	82.8785	38.0859	82.9245	38.0859	82.8483	38.0859	82.8871	38.0859	82.8222	38.0859	82.8535	38.0859	82.8009	38.0859	82.8248	38.0859	82.7847	38.0859	82.8018	38.0859	82.7738	38.0859	82.7846	38.0859	82.7683	38.0859	82.7735	38.0859	82.7682
39.5508	83.6962	39.5508	83.6842	39.5508	83.6999	39.5508	83.6643	39.5508	83.6953	39.5508	83.6368	39.5508	83.6824	39.5508	83.6024	39.5508	83.6615	39.5508	83.5618	39.5508	83.6328	39.5508	83.5162	39.5508	83.597	39.5508	83.4668	39.5508	83.5546	39.5508	83.4149	39.5508	83.5065	39.5508	83.3622	39.5508	83.454	39.5508	83.31	39.5508	83.3985	39.5508	83.2599	39.5508	83.3419	39.5508	83.2134	39.5508	83.2863	39.5508	83.172	39.5508	83.234	39.5508	83.1371	39.5508	83.187	39.5508	83.11	39.5508	83.1472	39.5508	83.0917	39.5508	83.1163	39.5508	83.0828	39.5508	83.095	39.5508	83.0838
41.0156	84.5388	41.0156	84.5297	41.0156	84.5399	41.0156	84.5127	41.0156	84.5328	41.0156	84.4882	41.0156	84.5178	41.0156	84.4569	41.0156	84.4952	41.0156	84.4197	41.0156	84.4658	41.0156	84.3775	41.0156	84.4302	41.0156	84.3317	41.0156	84.3893	41.0156	84.2837	41.0156	84.3443	41.0156	84.235	41.0156	84.2964	41.0156	84.1871	41.0156	84.247	41.0156	84.1414	41.0156	84.1976	41.0156	84.0992	41.0156	84.1498	41.0156	84.0617	41.0156	84.1052	41.0156	84.03	41.0156	84.0651	41.0156	84.005	41.0156	84.0312	41.0156	83.9875	41.0156	84.0048	41.0156	83.9783	41.0156	83.9869	41.0156	83.978
42.4805	84.902	42.4805	84.8927	42.4805	84.902	42.4805	84.8744	42.4805	84.8927	42.4805	84.8476	42.4805	84.8744	42.4805	84.8128	42.4805	84.8473	42.4805	84.7708	42.4805	84.812	42.4805	84.7228	42.4805	84.7693	42.4805	84.67	42.4805	84.7201	42.4805	84.6137	42.4805	84.6655	42.4805	84.5555	42.4805	84.6071	42.4805	84.4971	42.4805	84.5464	42.4805	84.4402	42.4805	84.4856	42.4805	84.3865	42.4805	84.4266	42.4805	84.3378	42.4805	84.3718	42.4805	84.2958	42.4805	84.3232	42.4805	84.262	42.4805	84.2825	42.4805	84.2377	42.4805	84.2514	42.4805	84.224	42.4805	84.2308	42.4805	84.2216
43.9453	85.1646	43.9453	85.1575	43.9453	85.1644	43.9453	85.1432	43.9453	85.157	43.9453	85.1221	43.9453	85.1427	43.9453	85.0949	43.9453	85.1222	43.9453	85.0625	43.9453	85.0962	43.9453	85.0259	43.9453	85.0658	43.9453	84.9864	43.9453	85.0321	43.9453	84.9456	43.9453	84.9966	43.9453	84.905	43.9453	84.9604	43.9453	84.8664	43.9453	84.925	43.9453	84.8314	43.9453	84.8915	43.9453	84.8012	43.9453	84.8607	43.9453	84.7768	43.9453	84.8331	43.9453	84.7586	43.9453	84.8088	43.9453	84.7466	43.9453	84.7878	43.9453	84.7408	43.9453	84.7701	43.9453	84.7408	43.9453	84.7561	43.9453	84.7461
45.4102	85.3346	45.4102	85.3266	45.4102	85.3324	45.4102	85.309	45.4102	85.32	45.4102	85.2822	45.4102	85.2974	45.4102	85.2472	45.4102	85.2651	45.4102	85.2049	45.4102	85.2236	45.4102	85.1565	45.4102	85.1741	45.4102	85.1033	45.4102	85.1178	45.4102	85.0467	45.4102	85.0564	45.4102	84.9884	45.4102	84.9921	45.4102	84.9296	45.4102	84.927	45.4102	84.872	45.4102	84.8634	45.4102	84.8168	45.4102	84.8036	45.4102	84.7655	45.4102	84.7495	45.4102	84.7195	45.4102	84.703	45.4102	84.6804	45.4102	84.6657	45.4102	84.6499	45.4102	84.6389	45.4102	84.6295	45.4102	84.6236	45.4102	84.6205
46.875	85.5997	46.875	85.5879	46.875	85.6006	46.875	85.5655	46.875	85.5902	46.875	85.5331	46.875	85.5684	46.875	85.4915	46.875	85.5352	46.875	85.4415	46.875	85.491	46.875	85.3841	46.875	85.4364	46.875	85.3204	46.875	85.3724	46.875	85.2519	46.875	85.3004	46.875	85.1799	46.875	85.2221	46.875	85.1059	46.875	85.1397	46.875	85.0318	46.875	85.0559	46.875	84.9593	46.875	84.9737	46.875	84.8906	46.875	84.8965	46.875	84.8283	46.875	84.8278	46.875	84.775	46.875	84.7709	46.875	84.7336	46.875	84.7288	46.875	84.7066	46.875	84.7035	46.875	84.6962
48.3398	85.6314	48.3398	85.6129	48.3398	85.6418	48.3398	85.5867	48.3398	85.6438	48.3398	85.5538	48.3398	85.6374	48.3398	85.5151	48.3398	85.6231	48.3398	85.4723	48.3398	85.6014	48.3398	85.427	48.3398	85.5734	48.3398	85.381	48.3398	85.5403	48.3398	85.3363	48.3398	85.5034	48.3398	85.2947	48.3398	85.4644	48.3398	85.2578	48.3398	85.4247	48.3398	85.2268	48.3398	85.3858	48.3398	85.2027	48.3398	85.3487	48.3398	85.1857	48.3398	85.3143	48.3398	85.1759	48.3398	85.2833	48.3398	85.1729	48.3398	85.256	48.3398	85.1759	48.3398	85.2324	48.3398	85.184	48.3398	85.2126	48.3398	85.1964
51.2695	85.5993	51.2695	85.5977	51.2695	85.5946	51.2695	85.5901	51.2695	85.5835	51.2695	85.5771	51.2695	85.5668	51.2695	85.5598	51.2695	85.5452	51.2695	85.5394	51.2695	85.52	51.2695	85.5174	51.2695	85.493	51.2695	85.4952	51.2695	85.4661	51.2695	85.4744	51.2695	85.4413	51.2695	85.4562	51.2695	85.4206	51.2695	85.4418	51.2695	85.4057	51.2695	85.432	51.2695	85.3975	51.2695	85.427	51.2695	85.3961	51.2695	85.4266	51.2695	85.4005	51.2695	85.4298	51.2695	85.4091	51.2695	85.435	51.2695	85.4196	51.2695	85.4401	51.2695	85.4299	51.2695	85.4431	51.2695	85.438	51.2695	85.4425
52.7344	85.8782	52.7344	85.8895	52.7344	85.8569	52.7344	85.8912	52.7344	85.826	52.7344	85.884	52.7344	85.7865	52.7344	85.8691	52.7344	85.74	52.7344	85.8481	52.7344	85.6885	52.7344	85.8229	52.7344	85.6349	52.7344	85.7954	52.7344	85.5823	52.7344	85.7679	52.7344	85.5341	52.7344	85.7421	52.7344	85.4937	52.7344	85.7195	52.7344	85.4641	52.7344	85.7011	52.7344	85.4474	52.7344	85.6867	52.7344	85.4445	52.7344	85.6754	52.7344	85.4546	52.7344	85.6652	52.7344	85.4754	52.7344	85.654	52.7344	85.5035	52.7344	85.6395	52.7344	85.535	52.7344	85.6202	52.7344	85.5667	52.7344	85.5956
54.1992	86.5007	54.1992	86.5115	54.1992	86.4683	54.1992	86.5005	54.1992	86.4149	54.1992	86.4688	54.1992	86.3421	54.1992	86.418	54.1992	86.2522	54.1992	86.3508	54.1992	86.1482	54.1992	86.2706	54.1992	86.034	54.1992	86.1818	54.1992	85.9143	54.1992	86.089	54.1992	85.7942	54.1992	85.997	54.1992	85.6793	54.1992	85.9098	54.1992	85.5755	54.1992	85.8307	54.1992	85.4883	54.1992	85.7609	54.1992	85.4221	54.1992	85.7001	54.1992	85.3796	54.1992	85.6464	54.1992	85.3609	54.1992	85.5972	54.1992	85.3638	54.1992	85.5499	54.1992	85.3842	54.1992	85.5034	54.1992	85.4174	54.1992	85.4584
55.6641	86.354	55.6641	86.3234	55.6641	86.3569	55.6641	86.2666	55.6641	86.3315	55.6641	86.1856	55.6641	86.278	55.6641	86.0832	55.6641	86.1974	55.6641	85.9627	55.6641	86.0917	55.6641	85.8281	55.6641	85.9637	55.6641	85.6837	55.6641	85.8171	55.6641	85.5342	55.6641	85.6563	55.6641	85.3844	55.6641	85.4868	55.6641	85.2388	55.6641	85.3149	55.6641	85.1014	55.6641	85.1474	55.6641	84.9757	55.6641	84.9919	55.6641	84.8641	55.6641	84.8551	55.6641	84.7686	55.6641	84.7427	55.6641	84.6904	55.6641	84.658	55.6641	84.6303	55.6641	84.6019	55.6641	84.5897	55.6641	84.5732	55.6641	84.5699
58.5938	86.0672	58.5938	86.0349	58.5938	86.0886	58.5938	85.9924	58.5938	86.0986	58.5938	85.9402	58.5938	86.0969	58.5938	85.879	58.5938	86.0832	58.5938	85.8097	58.5938	86.0572	58.5938	85.7331	58.5938	86.019	58.5938	85.6504	58.5938	85.969	58.5938	85.5629	58.5938	85.9082	58.5938	85.4725	58.5938	85.8376	58.5938	85.3817	58.5938	85.759	58.5938	85.2936	58.5938	85.6743	58.5938	85.2124	58.5938	85.5855	58.5938	85.1429	58.5938	85.495	58.5938	85.0902	58.5938	85.4047	58.5938	85.0585	58.5938	85.3174	58.5938	85.0508	58.5938	85.2359	58.5938	85.0674	58.5938	85.1641	58.5938	85.1064
60.0586	86.1901	60.0586	86.1804	60.0586	86.1899	60.0586	86.1612	60.0586	86.1799	60.0586	86.1327	60.0586	86.1603	60.0586	86.0955	60.0586	86.1315	60.0586	86.0503	60.0586	86.0942	60.0586	85.9982	60.0586	86.0493	60.0586	85.9404	60.0586	85.9981	60.0586	85.8784	60.0586	85.9422	60.0586	85.814	60.0586	85.8832	60.0586	85.7498	60.0586	85.8234	60.0586	85.6881	60.0586	85.7646	60.0586	85.6317	60.0586	85.7087	60.0586	85.5828	60.0586	85.6571	60.0586	85.5433	60.0586	85.6108	60.0586	85.5145	60.0586	85.5706	60.0586	85.4971	60.0586	85.5374	60.0586	85.4912	60.0586	85.5123	60.0586	85.4965
62.9883	86.2223	62.9883	86.1966	62.9883	86.2336	62.9883	86.1573	62.9883	86.2303	62.9883	86.1057	62.9883	86.2127	62.9883	86.0434	62.9883	86.1814	62.9883	85.9728	62.9883	86.1379	62.9883	85.8967	62.9883	86.0837	62.9883	85.818	62.9883	86.021	62.9883	85.74	62.9883	85.9522	62.9883	85.666	62.9883	85.8799	62.9883	85.5988	62.9883	85.8071	62.9883	85.5408	62.9883	85.7362	62.9883	85.4935	62.9883	85.6696	62.9883	85.4577	62.9883	85.6091	62.9883	85.4332	62.9883	85.5561	62.9883	85.419	62.9883	85.5115	62.9883	85.4142	62.9883	85.4755	62.9883	85.4177	62.9883	85.4481	62.9883	85.429
64.4531	86.2453	64.4531	86.2278	64.4531	86.2498	64.4531	86.198	64.4531	86.2412	64.4531	86.1571	64.4531	86.2198	64.4531	86.1065	64.4531	86.1863	64.4531	86.0483	64.4531	86.142	64.4531	85.9848	64.4531	86.0885	64.4531	85.9184	64.4531	86.028	64.4531	85.852	64.4531	85.9629	64.4531	85.7881	64.4531	85.8957	64.4531	85.729	64.4531	85.8291	64.4531	85.6768	64.4531	85.7657	64.4531	85.6326	64.4531	85.7077	64.4531	85.5972	64.4531	85.6571	64.4531	85.5704	64.4531	85.615	64.4531	85.5516	64.4531	85.582	64.4531	85.5398	64.4531	85.5582	64.4531	85.5344	64.4531	85.5429	64.4531	85.5353
67.3828	86.4665	67.3828	86.4476	67.3828	86.4726	67.3828	86.4169	67.3828	86.4659	67.3828	86.3756	67.3828	86.4465	67.3828	86.3255	67.3828	86.4153	67.3828	86.2688	67.3828	86.3737	67.3828	86.2079	67.3828	86.3237	67.3828	86.1453	67.3828	86.2673	67.3828	86.0837	67.3828	86.2072	67.3828	86.0254	67.3828	86.1459	67.3828	85.9723	67.3828	86.086	67.3828	85.926	67.3828	86.0299	67.3828	85.8876	67.3828	85.9794	67.3828	85.8577	67.3828	85.9358	67.3828	85.8364	67.3828	85.8998	67.3828	85.8233	67.3828	85.8714	67.3828	85.8175	67.3828	85.8499	67.3828	85.818	67.3828	85.8343	67.3828	85.8237
