"SPL Vertical"
"On-Axis"		"10°"		"-10°"		"20°"		"-20°"		"30°"		"-30°"		"40°"		"-40°"		"50°"		"-50°"		"60°"		"-60°"		"70°"		"-70°"		"80°"		"-80°"		"90°"		"-90°"		"100°"		"-100°"		"110°"		"-110°"		"120°"		"-120°"		"130°"		"-130°"		"140°"		"-140°"		"150°"		"-150°"		"160°"		"-160°"		"170°"		"-170°"		"180°"
"Frequency [Hz]"	"Sound Pessure Level [dB]   [2.83V at 1m]"	"Frequency [Hz]"	"Sound Pessure Level [dB]   [2.83V at 1m]"	"Frequency [Hz]"	"Sound Pessure Level [dB]   [2.83V at 1m]"	"Frequency [Hz]"	"Sound Pessure Level [dB]   [2.83V at 1m]"	"Frequency [Hz]"	"Sound Pessure Level [dB]   [2.83V at 1m]"	"Frequency [Hz]"	"Sound Pessure Level [dB]   [2.83V at 1m]"	"Frequency [Hz]"	"Sound Pessure Level [dB]   [2.83V at 1m]"	"Frequency [Hz]"	"Sound Pessure Level [dB]   [2.83V at 1m]"	"Frequency [Hz]"	"Sound Pessure Level [dB]   [2.83V at 1m]"	"Frequency [Hz]"	"Sound Pessure Level [dB]   [2.83V at 1m]"	"Frequency [Hz]"	"Sound Pessure Level [dB]   [2.83V at 1m]"	"Frequency [Hz]"	"Sound Pessure Level [dB]   [2.83V at 1m]"	"Frequency [Hz]"	"Sound Pessure Level [dB]   [2.83V at 1m]"	"Frequency [Hz]"	"Sound Pessure Level [dB]   [2.83V at 1m]"	"Frequency [Hz]"	"Sound Pessure Level [dB]   [2.83V at 1m]"	"Frequency [Hz]"	"Sound Pessure Level [dB]   [2.83V at 1m]"	"Frequency [Hz]"	"Sound Pessure Level [dB]   [2.83V at 1m]"	"Frequency [Hz]"	"Sound Pessure Level [dB]   [2.83V at 1m]"	"Frequency [Hz]"	"Sound Pessure Level [dB]   [2.83V at 1m]"	"Frequency [Hz]"	"Sound Pessure Level [dB]   [2.83V at 1m]"	"Frequency [Hz]"	"Sound Pessure Level [dB]   [2.83V at 1m]"	"Frequency [Hz]"	"Sound Pessure Level [dB]   [2.83V at 1m]"	"Frequency [Hz]"	"Sound Pessure Level [dB]   [2.83V at 1m]"	"Frequency [Hz]"	"Sound Pessure Level [dB]   [2.83V at 1m]"	"Frequency [Hz]"	"Sound Pessure Level [dB]   [2.83V at 1m]"	"Frequency [Hz]"	"Sound Pessure Level [dB]   [2.83V at 1m]"	"Frequency [Hz]"	"Sound Pessure Level [dB]   [2.83V at 1m]"	"Frequency [Hz]"	"Sound Pessure Level [dB]   [2.83V at 1m]"	"Frequency [Hz]"	"Sound Pessure Level [dB]   [2.83V at 1m]"	"Frequency [Hz]"	"Sound Pessure Level [dB]   [2.83V at 1m]"	"Frequency [Hz]"	"Sound Pessure Level [dB]   [2.83V at 1m]"	"Frequency [Hz]"	"Sound Pessure Level [dB]   [2.83V at 1m]"	"Frequency [Hz]"	"Sound Pessure Level [dB]   [2.83V at 1m]"	"Frequency [Hz]"	"Sound Pessure Level [dB]   [2.83V at 1m]"	"Frequency [Hz]"	"Sound Pessure Level [dB]   [2.83V at 1m]"	"Frequency [Hz]"	"Sound Pessure Level [dB]   [2.83V at 1m]"
20.5078	68.6251	20.5078	68.6227	20.5078	68.7058	20.5078	68.7077	20.5078	68.8656	20.5078	68.8925	20.5078	69.1246	20.5078	69.1883	20.5078	69.5352	20.5078	69.6012	20.5078	70.1912	20.5078	70.1305	20.5078	71.2138	20.5078	70.769	20.5078	72.6833	20.5078	71.5045	20.5078	74.5528	20.5078	72.322	20.5078	76.6396	20.5078	73.2063	20.5078	78.704	20.5078	74.1429	20.5078	80.5219	20.5078	75.119	20.5078	81.9228	20.5078	76.1228	20.5078	82.8126	20.5078	77.1434	20.5078	83.1839	20.5078	78.1695	20.5078	83.0992	20.5078	79.1879	20.5078	82.6593	20.5078	80.1811	20.5078	81.9704	20.5078	81.1226
21.9727	71.3284	21.9727	71.2715	21.9727	71.456	21.9727	71.2884	21.9727	71.6611	21.9727	71.3866	21.9727	71.9673	21.9727	71.5748	21.9727	72.423	21.9727	71.8599	21.9727	73.1034	21.9727	72.2452	21.9727	74.0933	21.9727	72.7297	21.9727	75.4374	21.9727	73.3082	21.9727	77.0866	21.9727	73.9724	21.9727	78.8946	21.9727	74.7125	21.9727	80.6668	21.9727	75.5178	21.9727	82.2125	21.9727	76.3778	21.9727	83.3794	21.9727	77.2823	21.9727	84.0801	21.9727	78.2211	21.9727	84.307	21.9727	79.1831	21.9727	84.121	21.9727	80.1548	21.9727	83.6189	21.9727	81.1182	21.9727	82.9001	21.9727	82.0467
23.4375	73.8727	23.4375	73.7788	23.4375	73.9844	23.4375	73.7089	23.4375	74.1127	23.4375	73.6724	23.4375	74.2656	23.4375	73.6808	23.4375	74.4666	23.4375	73.7465	23.4375	74.7631	23.4375	73.8823	23.4375	75.2336	23.4375	74.1	23.4375	75.977	23.4375	74.4094	23.4375	77.0662	23.4375	74.8172	23.4375	78.4756	23.4375	75.3257	23.4375	80.051	23.4375	75.9325	23.4375	81.5584	23.4375	76.6305	23.4375	82.7729	23.4375	77.4083	23.4375	83.5525	23.4375	78.2512	23.4375	83.8644	23.4375	79.1412	23.4375	83.7595	23.4375	80.0576	23.4375	83.328	23.4375	80.975	23.4375	82.6664	23.4375	81.8602
24.9023	74.4111	24.9023	74.2347	24.9023	74.6193	24.9023	74.0966	24.9023	74.8589	24.9023	74.0072	24.9023	75.1382	24.9023	73.9797	24.9023	75.4802	24.9023	74.0284	24.9023	75.9295	24.9023	74.1675	24.9023	76.5577	24.9023	74.4088	24.9023	77.4497	24.9023	74.7597	24.9023	78.6521	24.9023	75.2223	24.9023	80.1058	24.9023	75.7926	24.9023	81.6367	24.9023	76.4616	24.9023	83.0266	24.9023	77.2167	24.9023	84.0949	24.9023	78.0437	24.9023	84.7392	24.9023	78.9274	24.9023	84.9397	24.9023	79.852	24.9023	84.7447	24.9023	80.8002	24.9023	84.241	24.9023	81.7504	24.9023	83.5232	24.9023	82.6725
26.3672	76.1653	26.3672	76.0108	26.3672	76.3533	26.3672	75.8924	26.3672	76.5772	26.3672	75.8152	26.3672	76.8462	26.3672	75.7865	26.3672	77.1799	26.3672	75.8146	26.3672	77.6114	26.3672	75.9079	26.3672	78.1877	26.3672	76.0747	26.3672	78.9571	26.3672	76.3218	26.3672	79.9404	26.3672	76.6541	26.3672	81.0947	26.3672	77.0742	26.3672	82.303	26.3672	77.5817	26.3672	83.4066	26.3672	78.1734	26.3672	84.2576	26.3672	78.843	26.3672	84.763	26.3672	79.5806	26.3672	84.9	26.3672	80.3727	26.3672	84.7059	26.3672	81.2007	26.3672	84.2512	26.3672	82.0397	26.3672	83.6126	26.3672	82.8575
27.832	77.7369	27.832	77.5514	27.832	77.965	27.832	77.4087	27.832	78.2384	27.832	77.3114	27.832	78.5641	27.832	77.2637	27.832	78.9545	27.832	77.2709	27.832	79.429	27.832	77.3389	27.832	80.0128	27.832	77.4741	27.832	80.7315	27.832	77.6821	27.832	81.5954	27.832	77.9679	27.832	82.578	27.832	78.335	27.832	83.6006	27.832	78.7852	27.832	84.5425	27.832	79.3177	27.832	85.278	27.832	79.9294	27.832	85.7162	27.832	80.6136	27.832	85.8231	27.832	81.3596	27.832	85.619	27.832	82.1514	27.832	85.1611	27.832	82.9659	27.832	84.5218	27.832	83.7708
29.2969	78.6913	29.2969	78.4857	29.2969	78.9459	29.2969	78.3291	29.2969	79.2519	29.2969	78.2223	29.2969	79.6131	29.2969	78.1676	29.2969	80.0363	29.2969	78.168	29.2969	80.5305	29.2969	78.2272	29.2969	81.107	29.2969	78.3491	29.2969	81.7764	29.2969	78.5374	29.2969	82.5414	29.2969	78.7956	29.2969	83.3837	29.2969	79.1265	29.2969	84.2489	29.2969	79.5319	29.2969	85.0447	29.2969	80.0121	29.2969	85.6637	29.2969	80.5655	29.2969	86.0211	29.2969	81.1875	29.2969	86.0816	29.2969	81.87	29.2969	85.8625	29.2969	82.5992	29.2969	85.4167	29.2969	83.3541	29.2969	84.8098	29.2969	84.1047
30.7617	79.9747	30.7617	79.7507	30.7617	80.2462	30.7617	79.5744	30.7617	80.5655	30.7617	79.4465	30.7617	80.9339	30.7617	79.3683	30.7617	81.3535	30.7617	79.3417	30.7617	81.8276	30.7617	79.3687	30.7617	82.3609	30.7617	79.452	30.7617	82.9584	30.7617	79.5945	30.7617	83.6208	30.7617	79.7991	30.7617	84.3349	30.7617	80.0688	30.7617	85.0602	30.7617	80.4064	30.7617	85.7222	30.7617	80.8138	30.7617	86.2282	30.7617	81.2917	30.7617	86.4997	30.7617	81.8387	30.7617	86.5017	30.7617	82.4496	30.7617	86.2499	30.7617	83.1138	30.7617	85.7945	30.7617	83.8135	30.7617	85.1982	30.7617	84.5212
32.2266	80.9071	32.2266	80.6806	32.2266	81.1785	32.2266	80.4993	32.2266	81.495	32.2266	80.3638	32.2266	81.8566	32.2266	80.275	32.2266	82.2638	32.2266	80.2342	32.2266	82.7171	32.2266	80.2431	32.2266	83.2171	32.2266	80.3037	32.2266	83.7641	32.2266	80.4185	32.2266	84.3557	32.2266	80.5902	32.2266	84.981	32.2266	80.8216	32.2266	85.6089	32.2266	81.1158	32.2266	86.1794	32.2266	81.4753	32.2266	86.6113	32.2266	81.9018	32.2266	86.8316	32.2266	82.3954	32.2266	86.8053	32.2266	82.9525	32.2266	86.5456	32.2266	83.5649	32.2266	86.0993	32.2266	84.2166	32.2266	85.5259	32.2266	84.8824
33.6914	81.7188	33.6914	81.4826	33.6914	82.0004	33.6914	81.2923	33.6914	82.3266	33.6914	81.1485	33.6914	82.6961	33.6914	81.0514	33.6914	83.107	33.6914	81.0017	33.6914	83.5568	33.6914	81.0004	33.6914	84.0424	33.6914	81.0486	33.6914	84.5603	33.6914	81.1479	33.6914	85.105	33.6914	81.3003	33.6914	85.6652	33.6914	81.5081	33.6914	86.2145	33.6914	81.7738	33.6914	86.7025	33.6914	82.0999	33.6914	87.0599	33.6914	82.4885	33.6914	87.2222	33.6914	82.9401	33.6914	87.158	33.6914	83.4528	33.6914	86.88	33.6914	84.0203	33.6914	86.4333	33.6914	84.6296	33.6914	85.8748	33.6914	85.2588
35.1562	82.5232	35.1562	82.2767	35.1562	82.8156	35.1562	82.0768	35.1562	83.1523	35.1562	81.9237	35.1562	83.531	35.1562	81.8178	35.1562	83.9482	35.1562	81.759	35.1562	84.3991	35.1562	81.7477	35.1562	84.8775	35.1562	81.7842	35.1562	85.3764	35.1562	81.8696	35.1562	85.8873	35.1562	82.0049	35.1562	86.3984	35.1562	82.1918	35.1562	86.8868	35.1562	82.4327	35.1562	87.3107	35.1562	82.7298	35.1562	87.6094	35.1562	83.0858	35.1562	87.7239	35.1562	83.5022	35.1562	87.6242	35.1562	83.979	35.1562	87.3226	35.1562	84.5123	35.1562	86.8637	35.1562	85.0923	35.1562	86.3047	35.1562	85.6999
36.6211	83.3779	36.6211	83.1153	36.6211	83.685	36.6211	82.8985	36.6211	84.0342	36.6211	82.7281	36.6211	84.4224	36.6211	82.6044	36.6211	84.8445	36.6211	82.5276	36.6211	85.2939	36.6211	82.4977	36.6211	85.7624	36.6211	82.5151	36.6211	86.24	36.6211	82.5803	36.6211	86.7158	36.6211	82.6945	36.6211	87.1768	36.6211	82.8592	36.6211	87.604	36.6211	83.0767	36.6211	87.9631	36.6211	83.3494	36.6211	88.2025	36.6211	83.6801	36.6211	88.2689	36.6211	84.0712	36.6211	88.1344	36.6211	84.5231	36.6211	87.8108	36.6211	85.0332	36.6211	87.3414	36.6211	85.5931	36.6211	86.7821	36.6211	86.1855
38.0859	83.9438	38.0859	83.6786	38.0859	84.253	38.0859	83.4593	38.0859	84.6033	38.0859	83.2866	38.0859	84.9907	38.0859	83.1609	38.0859	85.4093	38.0859	83.0824	38.0859	85.8516	38.0859	83.0507	38.0859	86.3082	38.0859	83.0658	38.0859	86.7684	38.0859	83.1278	38.0859	87.221	38.0859	83.237	38.0859	87.6535	38.0859	83.3946	38.0859	88.0478	38.0859	83.6018	38.0859	88.3728	38.0859	83.8608	38.0859	88.5807	38.0859	84.174	38.0859	88.6223	38.0859	84.5436	38.0859	88.4716	38.0859	84.9707	38.0859	88.1415	38.0859	85.4537	38.0859	87.6756	38.0859	85.986	38.0859	87.1292	38.0859	86.5531
39.5508	84.5328	39.5508	84.263	39.5508	84.8467	39.5508	84.0393	39.5508	85.2014	39.5508	83.8626	39.5508	85.5922	39.5508	83.7332	39.5508	86.0123	39.5508	83.651	39.5508	86.4527	39.5508	83.6155	39.5508	86.9025	39.5508	83.6261	39.5508	87.3487	39.5508	83.6825	39.5508	87.7782	39.5508	83.7847	39.5508	88.1774	39.5508	83.933	39.5508	88.5301	39.5508	84.1284	39.5508	88.81	39.5508	84.3727	39.5508	88.9766	39.5508	84.6678	39.5508	88.9862	39.5508	85.0162	39.5508	88.8159	39.5508	85.4194	39.5508	88.4784	39.5508	85.8767	39.5508	88.0163	39.5508	86.3831	39.5508	87.4827	39.5508	86.9262
41.0156	85.0824	41.0156	84.8063	41.0156	85.4018	41.0156	84.5758	41.0156	85.7606	41.0156	84.3923	41.0156	86.153	41.0156	84.2563	41.0156	86.5716	41.0156	84.1675	41.0156	87.0064	41.0156	84.1253	41.0156	87.4451	41.0156	84.129	41.0156	87.8736	41.0156	84.1777	41.0156	88.2774	41.0156	84.2709	41.0156	88.6421	41.0156	84.4085	41.0156	88.9525	41.0156	84.5909	41.0156	89.1862	41.0156	84.8194	41.0156	89.3088	41.0156	85.0957	41.0156	89.283	41.0156	85.4221	41.0156	89.0898	41.0156	85.8004	41.0156	88.7433	41.0156	86.2309	41.0156	88.2844	41.0156	86.7102	41.0156	87.7641	41.0156	87.2281
42.4805	85.7054	42.4805	85.4152	42.4805	86.0365	42.4805	85.169	42.4805	86.4039	42.4805	84.9687	42.4805	86.8011	42.4805	84.815	42.4805	87.2196	42.4805	84.708	42.4805	87.6483	42.4805	84.6471	42.4805	88.0734	42.4805	84.6316	42.4805	88.4791	42.4805	84.6604	42.4805	88.849	42.4805	84.7328	42.4805	89.1681	42.4805	84.8486	42.4805	89.4224	42.4805	85.008	42.4805	89.5943	42.4805	85.2121	42.4805	89.657	42.4805	85.4629	42.4805	89.581	42.4805	85.763	42.4805	89.3521	42.4805	86.115	42.4805	88.9849	42.4805	86.5205	42.4805	88.5186	42.4805	86.9774	42.4805	88.0016	42.4805	87.4773
43.9453	86.1727	43.9453	85.877	43.9453	86.5065	43.9453	85.6229	43.9453	86.8736	43.9453	85.4124	43.9453	87.2672	43.9453	85.2466	43.9453	87.6781	43.9453	85.1258	43.9453	88.0945	43.9453	85.0497	43.9453	88.5016	43.9453	85.0175	43.9453	88.8821	43.9453	85.0285	43.9453	89.2187	43.9453	85.082	43.9453	89.4962	43.9453	85.1777	43.9453	89.7029	43.9453	85.3157	43.9453	89.8257	43.9453	85.4973	43.9453	89.8438	43.9453	85.7243	43.9453	89.7328	43.9453	85.9997	43.9453	89.4808	43.9453	86.3265	43.9453	89.1026	43.9453	86.7069	43.9453	88.6361	43.9453	87.1401	43.9453	88.1278	43.9453	87.6194
45.4102	86.5534	45.4102	86.2612	45.4102	86.8839	45.4102	86.011	45.4102	87.2479	45.4102	85.8048	45.4102	87.6382	45.4102	85.6436	45.4102	88.0455	45.4102	85.5276	45.4102	88.4577	45.4102	85.4562	45.4102	88.8596	45.4102	85.4286	45.4102	89.2338	45.4102	85.4436	45.4102	89.5627	45.4102	85.5001	45.4102	89.8317	45.4102	85.5976	45.4102	90.0296	45.4102	85.7359	45.4102	90.1446	45.4102	85.9158	45.4102	90.1571	45.4102	86.1388	45.4102	90.0436	45.4102	86.4076	45.4102	89.793	45.4102	86.7249	45.4102	89.4203	45.4102	87.0931	45.4102	88.9634	45.4102	87.5117	45.4102	88.4682	45.4102	87.9751
46.875	87.0634	46.875	86.7679	46.875	87.3976	46.875	86.5149	46.875	87.765	46.875	86.3069	46.875	88.1578	46.875	86.1448	46.875	88.566	46.875	86.0287	46.875	88.9768	46.875	85.9579	46.875	89.3745	46.875	85.931	46.875	89.7409	46.875	85.9465	46.875	90.0576	46.875	86.0028	46.875	90.309	46.875	86.0988	46.875	90.4836	46.875	86.2337	46.875	90.5706	46.875	86.408	46.875	90.5545	46.875	86.6228	46.875	90.4174	46.875	86.8803	46.875	90.153	46.875	87.1833	46.875	89.7784	46.875	87.5344	46.875	89.33	46.875	87.9339	46.875	88.8507	46.875	88.3771
48.3398	87.3459	48.3398	87.0553	48.3398	87.6741	48.3398	86.8064	48.3398	88.0343	48.3398	86.6016	48.3398	88.4189	48.3398	86.4423	48.3398	88.8178	48.3398	86.3284	48.3398	89.2185	48.3398	86.2594	48.3398	89.6052	48.3398	86.2339	48.3398	89.9599	48.3398	86.2503	48.3398	90.2643	48.3398	86.3069	48.3398	90.5027	48.3398	86.4021	48.3398	90.6642	48.3398	86.5352	48.3398	90.7395	48.3398	86.706	48.3398	90.7148	48.3398	86.9151	48.3398	90.5739	48.3398	87.1645	48.3398	90.3117	48.3398	87.4563	48.3398	89.9454	48.3398	87.7927	48.3398	89.5114	48.3398	88.1744	48.3398	89.0507	48.3398	88.5975
51.2695	88.1023	51.2695	87.8049	51.2695	88.4361	51.2695	87.5489	51.2695	88.8	51.2695	87.3373	51.2695	89.1853	51.2695	87.1717	51.2695	89.581	51.2695	87.0525	51.2695	89.9734	51.2695	86.9789	51.2695	90.3454	51.2695	86.9491	51.2695	90.6779	51.2695	86.961	51.2695	90.951	51.2695	87.0121	51.2695	91.1483	51.2695	87.1001	51.2695	91.2593	51.2695	87.223	51.2695	91.2774	51.2695	87.3798	51.2695	91.1947	51.2695	87.5702	51.2695	91.0043	51.2695	87.7951	51.2695	90.7103	51.2695	88.0562	51.2695	90.3357	51.2695	88.3559	51.2695	89.916	51.2695	88.6958	51.2695	89.4868	51.2695	89.0749
52.7344	88.4218	52.7344	88.1187	52.7344	88.7601	52.7344	87.8562	52.7344	89.1268	52.7344	87.6377	52.7344	89.5129	52.7344	87.4652	52.7344	89.9071	52.7344	87.3394	52.7344	90.2954	52.7344	87.2595	52.7344	90.6604	52.7344	87.2239	52.7344	90.9823	52.7344	87.2303	52.7344	91.2409	52.7344	87.2758	52.7344	91.4191	52.7344	87.358	52.7344	91.5064	52.7344	87.4745	52.7344	91.4974	52.7344	87.6238	52.7344	91.3874	52.7344	87.8053	52.7344	91.174	52.7344	88.0195	52.7344	90.8648	52.7344	88.2682	52.7344	90.484	52.7344	88.5541	52.7344	90.066	52.7344	88.8794	52.7344	89.6446	52.7344	89.2445
54.1992	88.6771	54.1992	88.3682	54.1992	89.0202	54.1992	88.0991	54.1992	89.3899	54.1992	87.8739	54.1992	89.7768	54.1992	87.6948	54.1992	90.1693	54.1992	87.5629	54.1992	90.553	54.1992	87.4775	54.1992	90.9102	54.1992	87.4369	54.1992	91.2207	54.1992	87.4385	54.1992	91.4638	54.1992	87.4794	54.1992	91.6221	54.1992	87.5566	54.1992	91.6851	54.1992	87.6672	54.1992	91.6483	54.1992	87.8093	54.1992	91.5098	54.1992	87.982	54.1992	91.2718	54.1992	88.1856	54.1992	90.9468	54.1992	88.4218	54.1992	90.5609	54.1992	88.6931	54.1992	90.1472	54.1992	89.0026	54.1992	89.7369	54.1992	89.3516
55.6641	88.9586	55.6641	88.6366	55.6641	89.3119	55.6641	88.3524	55.6641	89.6885	55.6641	88.1107	55.6641	90.0784	55.6641	87.9146	55.6641	90.4693	55.6641	87.7654	55.6641	90.8465	55.6641	87.663	55.6641	91.1922	55.6641	87.606	55.6641	91.4856	55.6641	87.5918	55.6641	91.7056	55.6641	87.6173	55.6641	91.8342	55.6641	87.6793	55.6641	91.8605	55.6641	87.7748	55.6641	91.781	55.6641	87.9014	55.6641	91.5977	55.6641	88.0579	55.6641	91.3185	55.6641	88.2444	55.6641	90.961	55.6641	88.4628	55.6641	90.5539	55.6641	88.7163	55.6641	90.1307	55.6641	89.009	55.6641	89.7209	55.6641	89.3441
58.5938	89.3969	58.5938	89.0675	58.5938	89.7552	58.5938	88.7738	58.5938	90.1339	58.5938	88.5209	58.5938	90.5228	58.5938	88.3124	58.5938	90.9095	58.5938	88.1501	58.5938	91.2792	58.5938	88.0341	58.5938	91.6136	58.5938	87.9632	58.5938	91.8919	58.5938	87.9349	58.5938	92.0923	58.5938	87.9463	58.5938	92.196	58.5938	87.9939	58.5938	92.1911	58.5938	88.0746	58.5938	92.0746	58.5938	88.1859	58.5938	91.8513	58.5938	88.3266	58.5938	91.5351	58.5938	88.4967	58.5938	91.1498	58.5938	88.6983	58.5938	90.7273	58.5938	88.9348	58.5938	90.3005	58.5938	89.211	58.5938	89.8963	58.5938	89.5311
60.0586	89.5582	60.0586	89.227	60.0586	89.917	60.0586	88.9305	60.0586	90.2947	60.0586	88.6744	60.0586	90.6809	60.0586	88.4623	60.0586	91.0632	60.0586	88.2965	60.0586	91.4266	60.0586	88.1772	60.0586	91.7532	60.0586	88.1034	60.0586	92.0222	60.0586	88.0725	60.0586	92.212	60.0586	88.0814	60.0586	92.3038	60.0586	88.1264	60.0586	92.2856	60.0586	88.2042	60.0586	92.1541	60.0586	88.3118	60.0586	91.9149	60.0586	88.4474	60.0586	91.584	60.0586	88.6109	60.0586	91.1888	60.0586	88.8036	60.0586	90.7639	60.0586	89.029	60.0586	90.3425	60.0586	89.2921	60.0586	89.9493	60.0586	89.5979
62.9883	89.7906	62.9883	89.4525	62.9883	90.1526	62.9883	89.1459	62.9883	90.5293	62.9883	88.877	62.9883	90.9101	62.9883	88.6503	62.9883	91.2822	62.9883	88.4685	62.9883	91.6303	62.9883	88.3327	62.9883	91.9364	62.9883	88.2421	62.9883	92.179	62.9883	88.1946	62.9883	92.3359	62.9883	88.1867	62.9883	92.3876	62.9883	88.2148	62.9883	92.3224	62.9883	88.2748	62.9883	92.1399	62.9883	88.3634	62.9883	91.8516	62.9883	88.4781	62.9883	91.4802	62.9883	88.6184	62.9883	91.0579	62.9883	88.7855	62.9883	90.621	62.9883	88.9834	62.9883	90.2024	62.9883	89.218	62.9883	89.8244	62.9883	89.4964
64.4531	90.0556	64.4531	89.7114	64.4531	90.421	64.4531	89.3964	64.4531	90.7986	64.4531	89.1168	64.4531	91.1772	64.4531	88.8773	64.4531	91.544	64.4531	88.6806	64.4531	91.8832	64.4531	88.5282	64.4531	92.176	64.4531	88.4194	64.4531	92.4006	64.4531	88.3525	64.4531	92.5337	64.4531	88.3244	64.4531	92.5554	64.4531	88.3316	64.4531	92.4542	64.4531	88.3704	64.4531	92.2313	64.4531	88.4377	64.4531	91.9017	64.4531	88.5313	64.4531	91.4926	64.4531	88.6507	64.4531	91.0403	64.4531	88.7977	64.4531	90.5835	64.4531	88.9767	64.4531	90.1562	64.4531	89.1945	64.4531	89.7792	64.4531	89.4595
67.3828	90.3007	67.3828	89.9569	67.3828	90.668	67.3828	89.6445	67.3828	91.0493	67.3828	89.3695	67.3828	91.4334	67.3828	89.1361	67.3828	91.8071	67.3828	88.9465	67.3828	92.1545	67.3828	88.801	67.3828	92.4565	67.3828	88.6984	67.3828	92.6908	67.3828	88.6359	67.3828	92.8329	67.3828	88.61	67.3828	92.8596	67.3828	88.6166	67.3828	92.7552	67.3828	88.6521	67.3828	92.5173	67.3828	88.7132	67.3828	92.1627	67.3828	88.7982	67.3828	91.7266	67.3828	88.9074	67.3828	91.2537	67.3828	89.0433	67.3828	90.7867	67.3828	89.2111	67.3828	90.358	67.3828	89.4182	67.3828	89.9855	67.3828	89.6737
68.8477	90.3004	68.8477	89.9603	68.8477	90.6645	68.8477	89.6525	68.8477	91.0431	68.8477	89.3832	68.8477	91.4245	68.8477	89.1568	68.8477	91.7957	68.8477	88.9755	68.8477	92.1408	68.8477	88.8394	68.8477	92.4412	68.8477	88.747	68.8477	92.6752	68.8477	88.695	68.8477	92.8194	68.8477	88.6795	68.8477	92.8516	68.8477	88.696	68.8477	92.756	68.8477	88.7403	68.8477	92.5292	68.8477	88.8088	68.8477	92.1871	68.8477	88.8996	68.8477	91.7643	68.8477	89.0124	68.8477	91.305	68.8477	89.1496	68.8477	90.8511	68.8477	89.3162	68.8477	90.4343	68.8477	89.5196	68.8477	90.0721	68.8477	89.7687
