"SPL Horizontal"
"On-Axis"		"10°"		"-10°"		"20°"		"-20°"		"30°"		"-30°"		"40°"		"-40°"		"50°"		"-50°"		"60°"		"-60°"		"70°"		"-70°"		"80°"		"-80°"		"90°"		"-90°"		"100°"		"-100°"		"110°"		"-110°"		"120°"		"-120°"		"130°"		"-130°"		"140°"		"-140°"		"150°"		"-150°"		"160°"		"-160°"		"170°"		"-170°"		"180°"
"Frequency / Hz"	"Sound Pressure Level / dB (re 20 µPa/V)  [2.83  V @ 1. m]"	"Frequency / Hz"	"Sound Pressure Level / dB (re 20 µPa/V)  [2.83  V @ 1. m]"	"Frequency / Hz"	"Sound Pressure Level / dB (re 20 µPa/V)  [2.83  V @ 1. m]"	"Frequency / Hz"	"Sound Pressure Level / dB (re 20 µPa/V)  [2.83  V @ 1. m]"	"Frequency / Hz"	"Sound Pressure Level / dB (re 20 µPa/V)  [2.83  V @ 1. m]"	"Frequency / Hz"	"Sound Pressure Level / dB (re 20 µPa/V)  [2.83  V @ 1. m]"	"Frequency / Hz"	"Sound Pressure Level / dB (re 20 µPa/V)  [2.83  V @ 1. m]"	"Frequency / Hz"	"Sound Pressure Level / dB (re 20 µPa/V)  [2.83  V @ 1. m]"	"Frequency / Hz"	"Sound Pressure Level / dB (re 20 µPa/V)  [2.83  V @ 1. m]"	"Frequency / Hz"	"Sound Pressure Level / dB (re 20 µPa/V)  [2.83  V @ 1. m]"	"Frequency / Hz"	"Sound Pressure Level / dB (re 20 µPa/V)  [2.83  V @ 1. m]"	"Frequency / Hz"	"Sound Pressure Level / dB (re 20 µPa/V)  [2.83  V @ 1. m]"	"Frequency / Hz"	"Sound Pressure Level / dB (re 20 µPa/V)  [2.83  V @ 1. m]"	"Frequency / Hz"	"Sound Pressure Level / dB (re 20 µPa/V)  [2.83  V @ 1. m]"	"Frequency / Hz"	"Sound Pressure Level / dB (re 20 µPa/V)  [2.83  V @ 1. m]"	"Frequency / Hz"	"Sound Pressure Level / dB (re 20 µPa/V)  [2.83  V @ 1. m]"	"Frequency / Hz"	"Sound Pressure Level / dB (re 20 µPa/V)  [2.83  V @ 1. m]"	"Frequency / Hz"	"Sound Pressure Level / dB (re 20 µPa/V)  [2.83  V @ 1. m]"	"Frequency / Hz"	"Sound Pressure Level / dB (re 20 µPa/V)  [2.83  V @ 1. m]"	"Frequency / Hz"	"Sound Pressure Level / dB (re 20 µPa/V)  [2.83  V @ 1. m]"	"Frequency / Hz"	"Sound Pressure Level / dB (re 20 µPa/V)  [2.83  V @ 1. m]"	"Frequency / Hz"	"Sound Pressure Level / dB (re 20 µPa/V)  [2.83  V @ 1. m]"	"Frequency / Hz"	"Sound Pressure Level / dB (re 20 µPa/V)  [2.83  V @ 1. m]"	"Frequency / Hz"	"Sound Pressure Level / dB (re 20 µPa/V)  [2.83  V @ 1. m]"	"Frequency / Hz"	"Sound Pressure Level / dB (re 20 µPa/V)  [2.83  V @ 1. m]"	"Frequency / Hz"	"Sound Pressure Level / dB (re 20 µPa/V)  [2.83  V @ 1. m]"	"Frequency / Hz"	"Sound Pressure Level / dB (re 20 µPa/V)  [2.83  V @ 1. m]"	"Frequency / Hz"	"Sound Pressure Level / dB (re 20 µPa/V)  [2.83  V @ 1. m]"	"Frequency / Hz"	"Sound Pressure Level / dB (re 20 µPa/V)  [2.83  V @ 1. m]"	"Frequency / Hz"	"Sound Pressure Level / dB (re 20 µPa/V)  [2.83  V @ 1. m]"	"Frequency / Hz"	"Sound Pressure Level / dB (re 20 µPa/V)  [2.83  V @ 1. m]"	"Frequency / Hz"	"Sound Pressure Level / dB (re 20 µPa/V)  [2.83  V @ 1. m]"	"Frequency / Hz"	"Sound Pressure Level / dB (re 20 µPa/V)  [2.83  V @ 1. m]"	"Frequency / Hz"	"Sound Pressure Level / dB (re 20 µPa/V)  [2.83  V @ 1. m]"	"Frequency / Hz"	"Sound Pressure Level / dB (re 20 µPa/V)  [2.83  V @ 1. m]"	"Frequency / Hz"	"Sound Pressure Level / dB (re 20 µPa/V)  [2.83  V @ 1. m]"
20.5078	56.3042	20.5078	56.0486	20.5078	56.5379	20.5078	55.7768	20.5078	56.7448	20.5078	55.4971	20.5078	56.9195	20.5078	55.221	20.5078	57.056	20.5078	54.9633	20.5078	57.1482	20.5078	54.7405	20.5078	57.1914	20.5078	54.5676	20.5078	57.1833	20.5078	54.4551	20.5078	57.1253	20.5078	54.4061	20.5078	57.0227	20.5078	54.4167	20.5078	56.8847	20.5078	54.4781	20.5078	56.7222	20.5078	54.5788	20.5078	56.5466	20.5078	54.7079	20.5078	56.367	20.5078	54.8559	20.5078	56.1895	20.5078	55.0154	20.5078	56.0165	20.5078	55.1806	20.5078	55.8477	20.5078	55.3478	20.5078	55.6811	20.5078	55.5148
21.9727	58.3874	21.9727	58.326	21.9727	58.4355	21.9727	58.2534	21.9727	58.4677	21.9727	58.1721	21.9727	58.4798	21.9727	58.085	21.9727	58.4668	21.9727	57.9963	21.9727	58.4229	21.9727	57.9102	21.9727	58.3435	21.9727	57.8304	21.9727	58.2265	21.9727	57.7589	21.9727	58.0733	21.9727	57.6951	21.9727	57.8903	21.9727	57.6365	21.9727	57.6885	21.9727	57.5791	21.9727	57.4829	21.9727	57.5182	21.9727	57.2908	21.9727	57.45	21.9727	57.1286	21.9727	57.3722	21.9727	57.0095	21.9727	57.2848	21.9727	56.941	21.9727	57.1909	21.9727	56.9236	21.9727	57.0971	21.9727	56.9511	21.9727	57.0132
23.4375	56.7288	23.4375	56.5895	23.4375	56.8721	23.4375	56.458	23.4375	57.0136	23.4375	56.3356	23.4375	57.1461	23.4375	56.2202	23.4375	57.2611	23.4375	56.1069	23.4375	57.3491	23.4375	55.9881	23.4375	57.4004	23.4375	55.8563	23.4375	57.4059	23.4375	55.7056	23.4375	57.3582	23.4375	55.5344	23.4375	57.2535	23.4375	55.3468	23.4375	57.0914	23.4375	55.1528	23.4375	56.8761	23.4375	54.9675	23.4375	56.6159	23.4375	54.8091	23.4375	56.3228	23.4375	54.6962	23.4375	56.0112	23.4375	54.6439	23.4375	55.6976	23.4375	54.6618	23.4375	55.3991	23.4375	54.7526	23.4375	55.1323	23.4375	54.9125
24.9023	60.3639	24.9023	60.3413	24.9023	60.3691	24.9023	60.3003	24.9023	60.3576	24.9023	60.2402	24.9023	60.3299	24.9023	60.1608	24.9023	60.2854	24.9023	60.062	24.9023	60.2233	24.9023	59.9445	24.9023	60.1422	24.9023	59.8091	24.9023	60.0409	24.9023	59.6576	24.9023	59.9187	24.9023	59.4923	24.9023	59.776	24.9023	59.3168	24.9023	59.6139	24.9023	59.1357	24.9023	59.435	24.9023	58.9552	24.9023	59.2436	24.9023	58.7831	24.9023	59.0465	24.9023	58.6283	24.9023	58.8533	24.9023	58.5004	24.9023	58.6764	24.9023	58.4089	24.9023	58.529	24.9023	58.3622	24.9023	58.4229	24.9023	58.3662
26.3672	60.2081	26.3672	60.2476	26.3672	60.1442	26.3672	60.2597	26.3672	60.0581	26.3672	60.2414	26.3672	59.9514	26.3672	60.1896	26.3672	59.825	26.3672	60.1017	26.3672	59.6785	26.3672	59.9756	26.3672	59.5118	26.3672	59.8108	26.3672	59.3247	26.3672	59.6082	26.3672	59.1184	26.3672	59.3718	26.3672	58.896	26.3672	59.1082	26.3672	58.6627	26.3672	58.8277	26.3672	58.4262	26.3672	58.5435	26.3672	58.1958	26.3672	58.2707	26.3672	57.9823	26.3672	58.0244	26.3672	57.7967	26.3672	57.8171	26.3672	57.6491	26.3672	57.6576	26.3672	57.5469	26.3672	57.55	26.3672	57.4951	26.3672	57.4958
27.832	59.4355	27.832	59.4475	27.832	59.4218	27.832	59.4566	27.832	59.408	27.832	59.462	27.832	59.3956	27.832	59.4628	27.832	59.386	27.832	59.458	27.832	59.3793	27.832	59.4468	27.832	59.3743	27.832	59.4286	27.832	59.3689	27.832	59.4036	27.832	59.3603	27.832	59.373	27.832	59.3465	27.832	59.3388	27.832	59.3264	27.832	59.3038	27.832	59.3007	27.832	59.2704	27.832	59.2712	27.832	59.241	27.832	59.2411	27.832	59.2166	27.832	59.2136	27.832	59.1976	27.832	59.1916	27.832	59.1836	27.832	59.1769	27.832	59.1741	27.832	59.1696	27.832	59.1691
29.2969	59.1043	29.2969	59.1158	29.2969	59.0714	29.2969	59.1044	29.2969	59.0166	29.2969	59.0675	29.2969	58.9364	29.2969	59.0019	29.2969	58.825	29.2969	58.9046	29.2969	58.6747	29.2969	58.7718	29.2969	58.4784	29.2969	58.5989	29.2969	58.2307	29.2969	58.3802	29.2969	57.9298	29.2969	58.1099	29.2969	57.5781	29.2969	57.7832	29.2969	57.1822	29.2969	57.3991	29.2969	56.753	29.2969	56.9626	29.2969	56.3057	29.2969	56.4881	29.2969	55.8605	29.2969	56.0002	29.2969	55.4428	29.2969	55.5343	29.2969	55.0835	29.2969	55.1324	29.2969	54.8166	29.2969	54.8366	29.2969	54.6742	29.2969	54.6789
30.7617	62.8226	30.7617	62.8491	30.7617	62.7876	30.7617	62.8669	30.7617	62.7449	30.7617	62.8769	30.7617	62.6958	30.7617	62.8803	30.7617	62.6422	30.7617	62.8786	30.7617	62.586	30.7617	62.8731	30.7617	62.5291	30.7617	62.8643	30.7617	62.4731	30.7617	62.852	30.7617	62.4194	30.7617	62.8348	30.7617	62.3692	30.7617	62.8108	30.7617	62.3234	30.7617	62.7781	30.7617	62.2831	30.7617	62.7354	30.7617	62.2501	30.7617	62.6823	30.7617	62.2269	30.7617	62.6198	30.7617	62.2167	30.7617	62.5504	30.7617	62.2222	30.7617	62.4777	30.7617	62.2452	30.7617	62.4061	30.7617	62.2854	30.7617	62.3404
32.2266	65.688	32.2266	65.6987	32.2266	65.6576	32.2266	65.6904	32.2266	65.6072	32.2266	65.6637	32.2266	65.5368	32.2266	65.6193	32.2266	65.4471	32.2266	65.5573	32.2266	65.3395	32.2266	65.4776	32.2266	65.216	32.2266	65.38	32.2266	65.0792	32.2266	65.2651	32.2266	64.9325	32.2266	65.134	32.2266	64.7796	32.2266	64.9892	32.2266	64.6247	32.2266	64.8345	32.2266	64.4726	32.2266	64.6751	32.2266	64.3289	32.2266	64.5169	32.2266	64.1996	32.2266	64.3667	32.2266	64.0914	32.2266	64.231	32.2266	64.0103	32.2266	64.1162	32.2266	63.9615	32.2266	64.0279	32.2266	63.9481	32.2266	63.9707
33.6914	67.0359	33.6914	67.0214	33.6914	67.0339	33.6914	66.991	33.6914	67.0149	33.6914	66.945	33.6914	66.9793	33.6914	66.8836	33.6914	66.9274	33.6914	66.8067	33.6914	66.8604	33.6914	66.7138	33.6914	66.7792	33.6914	66.6048	33.6914	66.685	33.6914	66.4806	33.6914	66.5786	33.6914	66.3433	33.6914	66.4608	33.6914	66.1967	33.6914	66.3327	33.6914	66.046	33.6914	66.196	33.6914	65.8975	33.6914	66.0538	33.6914	65.7584	33.6914	65.9107	33.6914	65.6359	33.6914	65.7732	33.6914	65.537	33.6914	65.6491	33.6914	65.4677	33.6914	65.5467	33.6914	65.4327	33.6914	65.4734	33.6914	65.4345
35.1562	69.0062	35.1562	68.9857	35.1562	69.011	35.1562	68.9499	35.1562	69.0001	35.1562	68.8996	35.1562	68.9743	35.1562	68.836	35.1562	68.9346	35.1562	68.7606	35.1562	68.8824	35.1562	68.6752	35.1562	68.8191	35.1562	68.5821	35.1562	68.7463	35.1562	68.4841	35.1562	68.6655	35.1562	68.3845	35.1562	68.578	35.1562	68.2869	35.1562	68.4856	35.1562	68.195	35.1562	68.3903	35.1562	68.112	35.1562	68.2947	35.1562	68.0407	35.1562	68.2021	35.1562	67.9831	35.1562	68.1165	35.1562	67.9406	35.1562	68.0418	35.1562	67.9142	35.1562	67.9815	35.1562	67.9045	35.1562	67.9379	35.1562	67.9122
36.6211	70.5081	36.6211	70.4987	36.6211	70.4991	36.6211	70.4707	36.6211	70.4725	36.6211	70.4246	36.6211	70.4299	36.6211	70.3617	36.6211	70.3731	36.6211	70.2839	36.6211	70.3046	36.6211	70.1936	36.6211	70.2269	36.6211	70.0942	36.6211	70.1429	36.6211	69.9895	36.6211	70.0555	36.6211	69.8838	36.6211	69.9674	36.6211	69.7815	36.6211	69.8805	36.6211	69.6869	36.6211	69.7968	36.6211	69.6036	36.6211	69.7175	36.6211	69.5342	36.6211	69.6441	36.6211	69.4803	36.6211	69.5783	36.6211	69.4425	36.6211	69.5215	36.6211	69.4205	36.6211	69.4756	36.6211	69.4135	36.6211	69.4417	36.6211	69.4208
38.0859	72.2886	38.0859	72.2731	38.0859	72.2848	38.0859	72.2379	38.0859	72.2623	38.0859	72.1835	38.0859	72.2223	38.0859	72.1107	38.0859	72.166	38.0859	72.0208	38.0859	72.0952	38.0859	71.9158	38.0859	72.0117	38.0859	71.7983	38.0859	71.9173	38.0859	71.672	38.0859	71.814	38.0859	71.5411	38.0859	71.7041	38.0859	71.4105	38.0859	71.5897	38.0859	71.2855	38.0859	71.4736	38.0859	71.171	38.0859	71.3588	38.0859	71.0717	38.0859	71.2486	38.0859	70.9913	38.0859	71.1469	38.0859	70.9325	38.0859	71.0575	38.0859	70.8966	38.0859	70.984	38.0859	70.8844	38.0859	70.9293	38.0859	70.8956
39.5508	73.8726	39.5508	73.8669	39.5508	73.8599	39.5508	73.8424	39.5508	73.8296	39.5508	73.799	39.5508	73.7828	39.5508	73.7374	39.5508	73.7208	39.5508	73.6586	39.5508	73.6452	39.5508	73.5644	39.5508	73.5577	39.5508	73.4573	39.5508	73.4601	39.5508	73.3408	39.5508	73.3546	39.5508	73.2189	39.5508	73.2438	39.5508	73.0963	39.5508	73.1305	39.5508	72.9775	39.5508	73.018	39.5508	72.8671	39.5508	72.9098	39.5508	72.7689	39.5508	72.8097	39.5508	72.6859	39.5508	72.7214	39.5508	72.6204	39.5508	72.6482	39.5508	72.574	39.5508	72.5928	39.5508	72.5476	39.5508	72.557	39.5508	72.5419
41.0156	75.8007	41.0156	75.8173	41.0156	75.7652	41.0156	75.8148	41.0156	75.7113	41.0156	75.7939	41.0156	75.6405	41.0156	75.7556	41.0156	75.5548	41.0156	75.701	41.0156	75.4574	41.0156	75.632	41.0156	75.3518	41.0156	75.5505	41.0156	75.2421	41.0156	75.459	41.0156	75.1326	41.0156	75.3601	41.0156	75.0273	41.0156	75.2574	41.0156	74.9303	41.0156	75.1543	41.0156	74.8449	41.0156	75.0546	41.0156	74.7736	41.0156	74.9618	41.0156	74.718	41.0156	74.8788	41.0156	74.6787	41.0156	74.8076	41.0156	74.6553	41.0156	74.7492	41.0156	74.6469	41.0156	74.704	41.0156	74.6527	41.0156	74.6718
42.4805	77.4538	42.4805	77.4694	42.4805	77.4192	42.4805	77.4658	42.4805	77.3657	42.4805	77.4437	42.4805	77.2944	42.4805	77.4039	42.4805	77.2068	42.4805	77.3475	42.4805	77.1052	42.4805	77.276	42.4805	76.9922	42.4805	77.1907	42.4805	76.8714	42.4805	77.0936	42.4805	76.7468	42.4805	76.9868	42.4805	76.6229	42.4805	76.8733	42.4805	76.5045	42.4805	76.7564	42.4805	76.3961	42.4805	76.64	42.4805	76.3022	42.4805	76.5284	42.4805	76.2259	42.4805	76.4252	42.4805	76.1696	42.4805	76.3338	42.4805	76.1343	42.4805	76.2567	42.4805	76.1201	42.4805	76.1955	42.4805	76.1262	42.4805	76.1516
43.9453	78.354	43.9453	78.3555	43.9453	78.3371	43.9453	78.342	43.9453	78.305	43.9453	78.3143	43.9453	78.2587	43.9453	78.2737	43.9453	78.1993	43.9453	78.2222	43.9453	78.1291	43.9453	78.162	43.9453	78.0504	43.9453	78.0958	43.9453	77.9666	43.9453	78.026	43.9453	77.8811	43.9453	77.955	43.9453	77.7976	43.9453	77.8849	43.9453	77.7197	43.9453	77.8176	43.9453	77.6504	43.9453	77.7543	43.9453	77.5922	43.9453	77.6963	43.9453	77.5466	43.9453	77.6442	43.9453	77.5143	43.9453	77.5987	43.9453	77.495	43.9453	77.5603	43.9453	77.4881	43.9453	77.5294	43.9453	77.4923	43.9453	77.5064
45.4102	79.696	45.4102	79.6976	45.4102	79.6783	45.4102	79.6832	45.4102	79.6448	45.4102	79.6535	45.4102	79.5965	45.4102	79.6099	45.4102	79.5351	45.4102	79.5543	45.4102	79.4628	45.4102	79.489	45.4102	79.3825	45.4102	79.4167	45.4102	79.2972	45.4102	79.3405	45.4102	79.2104	45.4102	79.2633	45.4102	79.1256	45.4102	79.188	45.4102	79.0461	45.4102	79.117	45.4102	78.9748	45.4102	79.0521	45.4102	78.9142	45.4102	78.9942	45.4102	78.8661	45.4102	78.944	45.4102	78.8313	45.4102	78.9013	45.4102	78.81	45.4102	78.8658	45.4102	78.8014	45.4102	78.8374	45.4102	78.8041	45.4102	78.8166
46.875	80.9454	46.875	80.9545	46.875	80.9187	46.875	80.9462	46.875	80.8747	46.875	80.9213	46.875	80.8142	46.875	80.8812	46.875	80.7388	46.875	80.8274	46.875	80.651	46.875	80.7619	46.875	80.5538	46.875	80.6872	46.875	80.451	46.875	80.6059	46.875	80.3467	46.875	80.5209	46.875	80.2452	46.875	80.4349	46.875	80.1505	46.875	80.3506	46.875	80.0664	46.875	80.27	46.875	79.996	46.875	80.1946	46.875	79.9414	46.875	80.1254	46.875	79.9041	46.875	80.0628	46.875	79.8844	46.875	80.0073	46.875	79.8819	46.875	79.9598	46.875	79.895	46.875	79.9217
48.3398	81.9696	48.3398	81.9744	48.3398	81.9478	48.3398	81.9629	48.3398	81.909	48.3398	81.9361	48.3398	81.8534	48.3398	81.8955	48.3398	81.7823	48.3398	81.8428	48.3398	81.6975	48.3398	81.7799	48.3398	81.6015	48.3398	81.7086	48.3398	81.4978	48.3398	81.6311	48.3398	81.3905	48.3398	81.5492	48.3398	81.284	48.3398	81.4652	48.3398	81.1831	48.3398	81.381	48.3398	81.0921	48.3398	81.2985	48.3398	81.0149	48.3398	81.2196	48.3398	80.9544	48.3398	81.1457	48.3398	80.9124	48.3398	81.0779	48.3398	80.8893	48.3398	81.0176	48.3398	80.8849	48.3398	80.9661	48.3398	80.8976	48.3398	80.9254
51.2695	83.6385	51.2695	83.6294	51.2695	83.6299	51.2695	83.6032	51.2695	83.6037	51.2695	83.561	51.2695	83.5604	51.2695	83.5045	51.2695	83.5015	51.2695	83.4358	51.2695	83.4285	51.2695	83.3577	51.2695	83.3438	51.2695	83.273	51.2695	83.2505	51.2695	83.1849	51.2695	83.1518	51.2695	83.0965	51.2695	83.0515	51.2695	83.0106	51.2695	82.9535	51.2695	82.9296	51.2695	82.8615	51.2695	82.8553	51.2695	82.7793	51.2695	82.789	51.2695	82.7098	51.2695	82.7313	51.2695	82.6552	51.2695	82.6826	51.2695	82.6167	51.2695	82.643	51.2695	82.5943	51.2695	82.6132	51.2695	82.5873	51.2695	82.5942
52.7344	84.1819	52.7344	84.186	52.7344	84.1614	52.7344	84.1739	52.7344	84.1251	52.7344	84.1464	52.7344	84.0741	52.7344	84.1048	52.7344	84.01	52.7344	84.0512	52.7344	83.9354	52.7344	83.9877	52.7344	83.853	52.7344	83.917	52.7344	83.766	52.7344	83.8421	52.7344	83.6779	52.7344	83.7656	52.7344	83.5923	52.7344	83.6902	52.7344	83.5124	52.7344	83.6182	52.7344	83.4411	52.7344	83.5512	52.7344	83.3808	52.7344	83.4905	52.7344	83.3333	52.7344	83.4365	52.7344	83.2993	52.7344	83.3895	52.7344	83.2791	52.7344	83.3496	52.7344	83.2721	52.7344	83.3171	52.7344	83.2771	52.7344	83.2926
54.1992	84.9889	54.1992	84.995	54.1992	84.9646	54.1992	84.9832	54.1992	84.9227	54.1992	84.9544	54.1992	84.8643	54.1992	84.9101	54.1992	84.7914	54.1992	84.8526	54.1992	84.7066	54.1992	84.7843	54.1992	84.6131	54.1992	84.7084	54.1992	84.5147	54.1992	84.6278	54.1992	84.4154	54.1992	84.5454	54.1992	84.3194	54.1992	84.4639	54.1992	84.2303	54.1992	84.3854	54.1992	84.1515	54.1992	84.3113	54.1992	84.0854	54.1992	84.2426	54.1992	84.0338	54.1992	84.1799	54.1992	83.9977	54.1992	84.1238	54.1992	83.9773	54.1992	84.0748	54.1992	83.972	54.1992	84.0338	54.1992	83.9807	54.1992	84.0019
55.6641	85.3607	55.6641	85.3627	55.6641	85.3401	55.6641	85.3466	55.6641	85.3016	55.6641	85.3132	55.6641	85.2464	55.6641	85.2643	55.6641	85.1766	55.6641	85.2024	55.6641	85.0949	55.6641	85.1303	55.6641	85.0048	55.6641	85.0513	55.6641	84.91	55.6641	84.9688	55.6641	84.8145	55.6641	84.8859	55.6641	84.7221	55.6641	84.8054	55.6641	84.6362	55.6641	84.7292	55.6641	84.5597	55.6641	84.6587	55.6641	84.4946	55.6641	84.5946	55.6641	84.4424	55.6641	84.5373	55.6641	84.4039	55.6641	84.4872	55.6641	84.3794	55.6641	84.4446	55.6641	84.3687	55.6641	84.4103	55.6641	84.3711	55.6641	84.3854
58.5938	86.0511	58.5938	86.0502	58.5938	86.0321	58.5938	86.0303	58.5938	85.9937	58.5938	85.9925	58.5938	85.9367	58.5938	85.939	58.5938	85.8633	58.5938	85.8722	58.5938	85.7762	58.5938	85.7953	58.5938	85.679	58.5938	85.7116	58.5938	85.5759	58.5938	85.6244	58.5938	85.4718	58.5938	85.5369	58.5938	85.3711	58.5938	85.4522	58.5938	85.2782	58.5938	85.3725	58.5938	85.1965	58.5938	85.2994	58.5938	85.1287	58.5938	85.2341	58.5938	85.0761	58.5938	85.1768	58.5938	85.0392	58.5938	85.1278	58.5938	85.0174	58.5938	85.0868	58.5938	85.0096	58.5938	85.0538	58.5938	85.0141	58.5938	85.0293
60.0586	86.4127	60.0586	86.4017	60.0586	86.4018	60.0586	86.3698	60.0586	86.3693	60.0586	86.3188	60.0586	86.3159	60.0586	86.251	60.0586	86.2437	60.0586	86.1697	60.0586	86.1553	60.0586	86.0785	60.0586	86.0545	60.0586	85.9814	60.0586	85.9454	60.0586	85.8824	60.0586	85.8329	60.0586	85.7854	60.0586	85.7216	60.0586	85.6936	60.0586	85.6163	60.0586	85.6095	60.0586	85.5209	60.0586	85.5343	60.0586	85.4385	60.0586	85.4687	60.0586	85.3713	60.0586	85.4124	60.0586	85.3206	60.0586	85.365	60.0586	85.2867	60.0586	85.3261	60.0586	85.2688	60.0586	85.2959	60.0586	85.2656	60.0586	85.2752
62.9883	86.8398	62.9883	86.8312	62.9883	86.8258	62.9883	86.8004	62.9883	86.7896	62.9883	86.7489	62.9883	86.7325	62.9883	86.6792	62.9883	86.6568	62.9883	86.5943	62.9883	86.5659	62.9883	86.4981	62.9883	86.4635	62.9883	86.395	62.9883	86.3542	62.9883	86.2894	62.9883	86.2428	62.9883	86.1856	62.9883	86.134	62.9883	86.0876	62.9883	86.032	62.9883	85.9983	62.9883	85.9401	62.9883	85.9195	62.9883	85.8608	62.9883	85.8524	62.9883	85.7956	62.9883	85.7968	62.9883	85.7451	62.9883	85.7523	62.9883	85.7091	62.9883	85.7183	62.9883	85.6871	62.9883	85.6945	62.9883	85.6781	62.9883	85.6809
64.4531	87.007	64.4531	86.9961	64.4531	86.995	64.4531	86.9628	64.4531	86.9604	64.4531	86.9086	64.4531	86.9047	64.4531	86.8361	64.4531	86.8301	64.4531	86.7485	64.4531	86.7399	64.4531	86.6498	64.4531	86.638	64.4531	86.5445	64.4531	86.5289	64.4531	86.4374	64.4531	86.4175	64.4531	86.3329	64.4531	86.3084	64.4531	86.2351	64.4531	86.206	64.4531	86.147	64.4531	86.1136	64.4531	86.0704	64.4531	86.0338	64.4531	86.0062	64.4531	85.9681	64.4531	85.9541	64.4531	85.9171	64.4531	85.9132	64.4531	85.8808	64.4531	85.8825	64.4531	85.8583	64.4531	85.8614	64.4531	85.8484	64.4531	85.8498
67.3828	87.2263	67.3828	87.2106	67.3828	87.2181	67.3828	87.1716	67.3828	87.1866	67.3828	87.1108	67.3828	87.1331	67.3828	87.0306	67.3828	87.0601	67.3828	86.9342	67.3828	86.9706	67.3828	86.8258	67.3828	86.8687	67.3828	86.7098	67.3828	86.7589	67.3828	86.5913	67.3828	86.6459	67.3828	86.4754	67.3828	86.5344	67.3828	86.3667	67.3828	86.4286	67.3828	86.269	67.3828	86.332	67.3828	86.1851	67.3828	86.2465	67.3828	86.1163	67.3828	86.1735	67.3828	86.0631	67.3828	86.113	67.3828	86.0248	67.3828	86.0648	67.3828	86.0005	67.3828	86.0284	67.3828	85.9894	67.3828	86.0037	67.3828	85.9906
