"SPL Horizontal"
"On-Axis"		"10°"		"-10°"		"20°"		"-20°"		"30°"		"-30°"		"40°"		"-40°"		"50°"		"-50°"		"60°"		"-60°"		"70°"		"-70°"		"80°"		"-80°"		"90°"		"-90°"		"100°"		"-100°"		"110°"		"-110°"		"120°"		"-120°"		"130°"		"-130°"		"140°"		"-140°"		"150°"		"-150°"		"160°"		"-160°"		"170°"		"-170°"		"180°"
"Frequency [Hz]"	"Sound Pessure Level [dB]  / [2.83V 1m] "	"Frequency [Hz]"	"Sound Pessure Level [dB]  / [2.83V 1m] "	"Frequency [Hz]"	"Sound Pessure Level [dB]  / [2.83V 1m] "	"Frequency [Hz]"	"Sound Pessure Level [dB]  / [2.83V 1m] "	"Frequency [Hz]"	"Sound Pessure Level [dB]  / [2.83V 1m] "	"Frequency [Hz]"	"Sound Pessure Level [dB]  / [2.83V 1m] "	"Frequency [Hz]"	"Sound Pessure Level [dB]  / [2.83V 1m] "	"Frequency [Hz]"	"Sound Pessure Level [dB]  / [2.83V 1m] "	"Frequency [Hz]"	"Sound Pessure Level [dB]  / [2.83V 1m] "	"Frequency [Hz]"	"Sound Pessure Level [dB]  / [2.83V 1m] "	"Frequency [Hz]"	"Sound Pessure Level [dB]  / [2.83V 1m] "	"Frequency [Hz]"	"Sound Pessure Level [dB]  / [2.83V 1m] "	"Frequency [Hz]"	"Sound Pessure Level [dB]  / [2.83V 1m] "	"Frequency [Hz]"	"Sound Pessure Level [dB]  / [2.83V 1m] "	"Frequency [Hz]"	"Sound Pessure Level [dB]  / [2.83V 1m] "	"Frequency [Hz]"	"Sound Pessure Level [dB]  / [2.83V 1m] "	"Frequency [Hz]"	"Sound Pessure Level [dB]  / [2.83V 1m] "	"Frequency [Hz]"	"Sound Pessure Level [dB]  / [2.83V 1m] "	"Frequency [Hz]"	"Sound Pessure Level [dB]  / [2.83V 1m] "	"Frequency [Hz]"	"Sound Pessure Level [dB]  / [2.83V 1m] "	"Frequency [Hz]"	"Sound Pessure Level [dB]  / [2.83V 1m] "	"Frequency [Hz]"	"Sound Pessure Level [dB]  / [2.83V 1m] "	"Frequency [Hz]"	"Sound Pessure Level [dB]  / [2.83V 1m] "	"Frequency [Hz]"	"Sound Pessure Level [dB]  / [2.83V 1m] "	"Frequency [Hz]"	"Sound Pessure Level [dB]  / [2.83V 1m] "	"Frequency [Hz]"	"Sound Pessure Level [dB]  / [2.83V 1m] "	"Frequency [Hz]"	"Sound Pessure Level [dB]  / [2.83V 1m] "	"Frequency [Hz]"	"Sound Pessure Level [dB]  / [2.83V 1m] "	"Frequency [Hz]"	"Sound Pessure Level [dB]  / [2.83V 1m] "	"Frequency [Hz]"	"Sound Pessure Level [dB]  / [2.83V 1m] "	"Frequency [Hz]"	"Sound Pessure Level [dB]  / [2.83V 1m] "	"Frequency [Hz]"	"Sound Pessure Level [dB]  / [2.83V 1m] "	"Frequency [Hz]"	"Sound Pessure Level [dB]  / [2.83V 1m] "	"Frequency [Hz]"	"Sound Pessure Level [dB]  / [2.83V 1m] "	"Frequency [Hz]"	"Sound Pessure Level [dB]  / [2.83V 1m] "	"Frequency [Hz]"	"Sound Pessure Level [dB]  / [2.83V 1m] "
20.5078	77.5943	20.5078	77.493	20.5078	77.4837	20.5078	77.1736	20.5078	77.1586	20.5078	76.6199	20.5078	76.6068	20.5078	75.8035	20.5078	75.8044	20.5078	74.6779	20.5078	74.7106	20.5078	73.1663	20.5078	73.2579	20.5078	71.1354	20.5078	71.3294	20.5078	68.3239	20.5078	68.7037	20.5078	64.0978	20.5078	64.8794	20.5078	56.0066	20.5078	58.2873	20.5078	49.4072	20.5078	48.8947	20.5078	60.8268	20.5078	59.7116	20.5078	65.0859	20.5078	64.4228	20.5078	67.4743	20.5078	67.0431	20.5078	68.9431	20.5078	68.6616	20.5078	69.8364	20.5078	69.6654	20.5078	70.3101	20.5078	70.2292	20.5078	70.435
21.9727	79.6608	21.9727	79.5903	21.9727	79.5209	21.9727	79.305	21.9727	79.1667	21.9727	78.7921	21.9727	78.5855	21.9727	78.0286	21.9727	77.7545	21.9727	76.9796	21.9727	76.6394	21.9727	75.5941	21.9727	75.1938	21.9727	73.8027	21.9727	73.3661	21.9727	71.5311	21.9727	71.1496	21.9727	68.8199	21.9727	68.8057	21.9727	66.4102	21.9727	67.3844	21.9727	66.2323	21.9727	67.9756	21.9727	68.0851	21.9727	69.6566	21.9727	70.0966	21.9727	71.284	21.9727	71.6724	21.9727	72.5398	21.9727	72.8081	21.9727	73.4201	21.9727	73.5824	21.9727	73.9761	21.9727	74.0597	21.9727	74.253	21.9727	74.2784
23.4375	81.5968	23.4375	81.4721	23.4375	81.53	23.4375	81.1514	23.4375	81.274	23.4375	80.6288	23.4375	80.8297	23.4375	79.8996	23.4375	80.2004	23.4375	78.9681	23.4375	79.3983	23.4375	77.8667	23.4375	78.4599	23.4375	76.6946	23.4375	77.4714	23.4375	75.6723	23.4375	76.5978	23.4375	75.1253	23.4375	76.0657	23.4375	75.2551	23.4375	76.0349	23.4375	75.9164	23.4375	76.4538	23.4375	76.7878	23.4375	77.114	23.4375	77.6321	23.4375	77.8154	23.4375	78.3414	23.4375	78.4395	23.4375	78.8842	23.4375	78.9349	23.4375	79.2614	23.4375	79.2864	23.4375	79.4832	23.4375	79.4934	23.4375	79.559
24.9023	84.7342	24.9023	84.6534	24.9023	84.6758	24.9023	84.4338	24.9023	84.4805	24.9023	84.0798	24.9023	84.1541	24.9023	83.6023	24.9023	83.7086	24.9023	83.0246	24.9023	83.1673	24.9023	82.3904	24.9023	82.5713	24.9023	81.7711	24.9023	81.9858	24.9023	81.2641	24.9023	81.4987	24.9023	80.9663	24.9023	81.198	24.9023	80.927	24.9023	81.1331	24.9023	81.1176	24.9023	81.2853	24.9023	81.4527	24.9023	81.5818	24.9023	81.8384	24.9023	81.9356	24.9023	82.2046	24.9023	82.2773	24.9023	82.5106	24.9023	82.5637	24.9023	82.7373	24.9023	82.7727	24.9023	82.878	24.9023	82.8958	24.9023	82.9309
26.3672	87.4627	26.3672	87.4054	26.3672	87.4194	26.3672	87.249	26.3672	87.2786	26.3672	87.001	26.3672	87.0489	26.3672	86.676	26.3672	86.7457	26.3672	86.2989	26.3672	86.3935	26.3672	85.9065	26.3672	86.0275	26.3672	85.5474	26.3672	85.6922	26.3672	85.2738	26.3672	85.4353	26.3672	85.1272	26.3672	85.2941	26.3672	85.1219	26.3672	85.2821	26.3672	85.2391	26.3672	85.3835	26.3672	85.4372	26.3672	85.5613	26.3672	85.6693	26.3672	85.7722	26.3672	85.8962	26.3672	85.9785	26.3672	86.0917	26.3672	86.154	26.3672	86.2408	26.3672	86.2829	26.3672	86.3365	26.3672	86.3578	26.3672	86.3758
27.832	90.0722	27.832	90.0232	27.832	90.046	27.832	89.9005	27.832	89.9481	27.832	89.7109	27.832	89.7866	27.832	89.4673	27.832	89.5754	27.832	89.1897	27.832	89.3344	27.832	88.9058	27.832	89.0894	27.832	88.6488	27.832	88.8699	27.832	88.452	27.832	88.7039	27.832	88.3403	27.832	88.6113	27.832	88.3225	27.832	88.5977	27.832	88.3882	27.832	88.653	27.832	88.5132	27.832	88.7558	27.832	88.6684	27.832	88.8802	27.832	88.8274	27.832	89.0028	27.832	88.9708	27.832	89.1058	27.832	89.0863	27.832	89.178	27.832	89.1671	27.832	89.2135	27.832	89.2099
29.2969	92.4626	29.2969	92.4188	29.2969	92.453	29.2969	92.3239	29.2969	92.3923	29.2969	92.1845	29.2969	92.2873	29.2969	92.0128	29.2969	92.1491	29.2969	91.8256	29.2969	91.993	29.2969	91.6438	29.2969	91.8378	29.2969	91.4902	29.2969	91.7032	29.2969	91.3846	29.2969	91.6067	29.2969	91.3394	29.2969	91.5595	29.2969	91.3559	29.2969	91.5639	29.2969	91.4247	29.2969	91.6127	29.2969	91.5286	29.2969	91.692	29.2969	91.6486	29.2969	91.7853	29.2969	91.7675	29.2969	91.877	29.2969	91.8726	29.2969	91.9548	29.2969	91.9559	29.2969	92.0108	29.2969	92.0127	29.2969	92.0403	29.2969	92.0411
30.7617	94.8646	30.7617	94.8333	30.7617	94.8583	30.7617	94.7662	30.7617	94.8165	30.7617	94.6689	30.7617	94.7447	30.7617	94.5507	30.7617	94.6516	30.7617	94.4243	30.7617	94.5489	30.7617	94.3048	30.7617	94.45	30.7617	94.2076	30.7617	94.3682	30.7617	94.1453	30.7617	94.3145	30.7617	94.1251	30.7617	94.2952	30.7617	94.1472	30.7617	94.3105	30.7617	94.2044	30.7617	94.355	30.7617	94.2854	30.7617	94.4188	30.7617	94.3768	30.7617	94.4906	30.7617	94.4671	30.7617	94.5596	30.7617	94.5472	30.7617	94.6174	30.7617	94.611	30.7617	94.6584	30.7617	94.6553	30.7617	94.6791	30.7617	94.6782
32.2266	97.3749	32.2266	97.3578	32.2266	97.3665	32.2266	97.3165	32.2266	97.3339	32.2266	97.2554	32.2266	97.2813	32.2266	97.1815	32.2266	97.2154	32.2266	97.1039	32.2266	97.1447	32.2266	97.0328	32.2266	97.0786	32.2266	96.9779	32.2266	97.0263	32.2266	96.9467	32.2266	96.995	32.2266	96.943	32.2266	96.9887	32.2266	96.966	32.2266	97.007	32.2266	97.0105	32.2266	97.0459	32.2266	97.0689	32.2266	97.0985	32.2266	97.1325	32.2266	97.1568	32.2266	97.1937	32.2266	97.2131	32.2266	97.2465	32.2266	97.2613	32.2266	97.2871	32.2266	97.2972	32.2266	97.3133	32.2266	97.3184	32.2266	97.3238
33.6914	99.4152	33.6914	99.4007	33.6914	99.4122	33.6914	99.3699	33.6914	99.3929	33.6914	99.3262	33.6914	99.3602	33.6914	99.2746	33.6914	99.3192	33.6914	99.2217	33.6914	99.2759	33.6914	99.1748	33.6914	99.2372	33.6914	99.1403	33.6914	99.2092	33.6914	99.1234	33.6914	99.1965	33.6914	99.1263	33.6914	99.2012	33.6914	99.1482	33.6914	99.2225	33.6914	99.1857	33.6914	99.2571	33.6914	99.2335	33.6914	99.2997	33.6914	99.2854	33.6914	99.3446	33.6914	99.3361	33.6914	99.3864	33.6914	99.381	33.6914	99.4207	33.6914	99.4172	33.6914	99.4446	33.6914	99.4425	33.6914	99.4565	33.6914	99.4558
35.1562	100.989	35.1562	100.977	35.1562	100.987	35.1562	100.953	35.1562	100.974	35.1562	100.92	35.1562	100.951	35.1562	100.881	35.1562	100.923	35.1562	100.842	35.1562	100.892	35.1562	100.809	35.1562	100.866	35.1562	100.785	35.1562	100.848	35.1562	100.775	35.1562	100.841	35.1562	100.78	35.1562	100.848	35.1562	100.8	35.1562	100.866	35.1562	100.832	35.1562	100.893	35.1562	100.871	35.1562	100.927	35.1562	100.913	35.1562	100.962	35.1562	100.954	35.1562	100.994	35.1562	100.99	35.1562	101.021	35.1562	101.018	35.1562	101.039	35.1562	101.038	35.1562	101.049	35.1562	101.049
36.6211	102.457	36.6211	102.45	36.6211	102.455	36.6211	102.436	36.6211	102.445	36.6211	102.415	36.6211	102.429	36.6211	102.391	36.6211	102.409	36.6211	102.367	36.6211	102.39	36.6211	102.348	36.6211	102.374	36.6211	102.336	36.6211	102.365	36.6211	102.334	36.6211	102.365	36.6211	102.343	36.6211	102.375	36.6211	102.363	36.6211	102.394	36.6211	102.391	36.6211	102.421	36.6211	102.424	36.6211	102.452	36.6211	102.459	36.6211	102.484	36.6211	102.493	36.6211	102.514	36.6211	102.522	36.6211	102.539	36.6211	102.545	36.6211	102.557	36.6211	102.561	36.6211	102.567	36.6211	102.568
38.0859	103.604	38.0859	103.599	38.0859	103.604	38.0859	103.588	38.0859	103.598	38.0859	103.574	38.0859	103.589	38.0859	103.557	38.0859	103.577	38.0859	103.542	38.0859	103.566	38.0859	103.53	38.0859	103.558	38.0859	103.525	38.0859	103.556	38.0859	103.528	38.0859	103.561	38.0859	103.539	38.0859	103.573	38.0859	103.559	38.0859	103.592	38.0859	103.585	38.0859	103.616	38.0859	103.615	38.0859	103.643	38.0859	103.646	38.0859	103.671	38.0859	103.675	38.0859	103.696	38.0859	103.7	38.0859	103.717	38.0859	103.72	38.0859	103.732	38.0859	103.734	38.0859	103.74	38.0859	103.74
39.5508	104.553	39.5508	104.548	39.5508	104.554	39.5508	104.539	39.5508	104.551	39.5508	104.527	39.5508	104.544	39.5508	104.514	39.5508	104.537	39.5508	104.502	39.5508	104.529	39.5508	104.494	39.5508	104.524	39.5508	104.49	39.5508	104.523	39.5508	104.493	39.5508	104.528	39.5508	104.503	39.5508	104.538	39.5508	104.52	39.5508	104.553	39.5508	104.542	39.5508	104.572	39.5508	104.566	39.5508	104.594	39.5508	104.592	39.5508	104.616	39.5508	104.616	39.5508	104.637	39.5508	104.638	39.5508	104.653	39.5508	104.655	39.5508	104.666	39.5508	104.667	39.5508	104.672	39.5508	104.672
41.0156	105.371	41.0156	105.369	41.0156	105.37	41.0156	105.364	41.0156	105.366	41.0156	105.357	41.0156	105.36	41.0156	105.349	41.0156	105.353	41.0156	105.342	41.0156	105.347	41.0156	105.337	41.0156	105.342	41.0156	105.336	41.0156	105.342	41.0156	105.34	41.0156	105.345	41.0156	105.35	41.0156	105.354	41.0156	105.364	41.0156	105.368	41.0156	105.382	41.0156	105.385	41.0156	105.402	41.0156	105.405	41.0156	105.422	41.0156	105.425	41.0156	105.442	41.0156	105.445	41.0156	105.459	41.0156	105.461	41.0156	105.472	41.0156	105.473	41.0156	105.48	41.0156	105.481	41.0156	105.483
42.4805	106.159	42.4805	106.161	42.4805	106.155	42.4805	106.16	42.4805	106.149	42.4805	106.158	42.4805	106.141	42.4805	106.154	42.4805	106.132	42.4805	106.151	42.4805	106.124	42.4805	106.149	42.4805	106.117	42.4805	106.149	42.4805	106.113	42.4805	106.151	42.4805	106.113	42.4805	106.157	42.4805	106.118	42.4805	106.165	42.4805	106.127	42.4805	106.175	42.4805	106.14	42.4805	106.187	42.4805	106.155	42.4805	106.199	42.4805	106.172	42.4805	106.21	42.4805	106.188	42.4805	106.22	42.4805	106.204	42.4805	106.227	42.4805	106.216	42.4805	106.23	42.4805	106.225	42.4805	106.23
43.9453	106.758	43.9453	106.76	43.9453	106.752	43.9453	106.76	43.9453	106.744	43.9453	106.758	43.9453	106.734	43.9453	106.753	43.9453	106.723	43.9453	106.748	43.9453	106.712	43.9453	106.743	43.9453	106.702	43.9453	106.739	43.9453	106.695	43.9453	106.737	43.9453	106.691	43.9453	106.738	43.9453	106.691	43.9453	106.741	43.9453	106.696	43.9453	106.745	43.9453	106.704	43.9453	106.752	43.9453	106.716	43.9453	106.76	43.9453	106.73	43.9453	106.767	43.9453	106.744	43.9453	106.774	43.9453	106.757	43.9453	106.779	43.9453	106.768	43.9453	106.782	43.9453	106.776	43.9453	106.781
45.4102	107.278	45.4102	107.28	45.4102	107.274	45.4102	107.278	45.4102	107.266	45.4102	107.274	45.4102	107.256	45.4102	107.268	45.4102	107.245	45.4102	107.26	45.4102	107.234	45.4102	107.253	45.4102	107.222	45.4102	107.246	45.4102	107.213	45.4102	107.24	45.4102	107.205	45.4102	107.236	45.4102	107.201	45.4102	107.235	45.4102	107.2	45.4102	107.235	45.4102	107.202	45.4102	107.238	45.4102	107.207	45.4102	107.241	45.4102	107.214	45.4102	107.244	45.4102	107.222	45.4102	107.247	45.4102	107.23	45.4102	107.249	45.4102	107.238	45.4102	107.249	45.4102	107.244	45.4102	107.248
46.875	107.821	46.875	107.822	46.875	107.816	46.875	107.82	46.875	107.808	46.875	107.815	46.875	107.797	46.875	107.807	46.875	107.784	46.875	107.797	46.875	107.77	46.875	107.786	46.875	107.756	46.875	107.774	46.875	107.742	46.875	107.763	46.875	107.73	46.875	107.753	46.875	107.72	46.875	107.744	46.875	107.713	46.875	107.738	46.875	107.709	46.875	107.734	46.875	107.707	46.875	107.731	46.875	107.707	46.875	107.729	46.875	107.709	46.875	107.728	46.875	107.712	46.875	107.726	46.875	107.715	46.875	107.725	46.875	107.719	46.875	107.722
48.3398	108.368	48.3398	108.367	48.3398	108.365	48.3398	108.363	48.3398	108.358	48.3398	108.354	48.3398	108.348	48.3398	108.343	48.3398	108.335	48.3398	108.329	48.3398	108.32	48.3398	108.314	48.3398	108.304	48.3398	108.298	48.3398	108.288	48.3398	108.282	48.3398	108.272	48.3398	108.267	48.3398	108.259	48.3398	108.255	48.3398	108.247	48.3398	108.245	48.3398	108.238	48.3398	108.239	48.3398	108.232	48.3398	108.234	48.3398	108.229	48.3398	108.232	48.3398	108.227	48.3398	108.231	48.3398	108.227	48.3398	108.231	48.3398	108.228	48.3398	108.231	48.3398	108.23	48.3398	108.231
51.2695	109.188	51.2695	109.187	51.2695	109.187	51.2695	109.184	51.2695	109.184	51.2695	109.18	51.2695	109.179	51.2695	109.174	51.2695	109.174	51.2695	109.167	51.2695	109.167	51.2695	109.16	51.2695	109.161	51.2695	109.153	51.2695	109.155	51.2695	109.148	51.2695	109.15	51.2695	109.145	51.2695	109.148	51.2695	109.144	51.2695	109.148	51.2695	109.147	51.2695	109.15	51.2695	109.151	51.2695	109.155	51.2695	109.158	51.2695	109.161	51.2695	109.166	51.2695	109.169	51.2695	109.174	51.2695	109.177	51.2695	109.181	51.2695	109.183	51.2695	109.186	51.2695	109.187	51.2695	109.188
52.7344	109.724	52.7344	109.728	52.7344	109.718	52.7344	109.731	52.7344	109.71	52.7344	109.731	52.7344	109.701	52.7344	109.73	52.7344	109.692	52.7344	109.728	52.7344	109.682	52.7344	109.725	52.7344	109.673	52.7344	109.722	52.7344	109.665	52.7344	109.719	52.7344	109.659	52.7344	109.717	52.7344	109.656	52.7344	109.716	52.7344	109.656	52.7344	109.717	52.7344	109.659	52.7344	109.72	52.7344	109.666	52.7344	109.723	52.7344	109.676	52.7344	109.726	52.7344	109.687	52.7344	109.729	52.7344	109.699	52.7344	109.731	52.7344	109.71	52.7344	109.73	52.7344	109.719	52.7344	109.726
54.1992	110.261	54.1992	110.268	54.1992	110.253	54.1992	110.271	54.1992	110.242	54.1992	110.273	54.1992	110.23	54.1992	110.272	54.1992	110.217	54.1992	110.269	54.1992	110.203	54.1992	110.263	54.1992	110.19	54.1992	110.257	54.1992	110.177	54.1992	110.25	54.1992	110.166	54.1992	110.243	54.1992	110.158	54.1992	110.236	54.1992	110.153	54.1992	110.231	54.1992	110.152	54.1992	110.227	54.1992	110.154	54.1992	110.224	54.1992	110.16	54.1992	110.222	54.1992	110.168	54.1992	110.22	54.1992	110.179	54.1992	110.217	54.1992	110.189	54.1992	110.213	54.1992	110.199	54.1992	110.207
55.6641	110.729	55.6641	110.731	55.6641	110.723	55.6641	110.729	55.6641	110.712	55.6641	110.723	55.6641	110.698	55.6641	110.712	55.6641	110.681	55.6641	110.698	55.6641	110.661	55.6641	110.681	55.6641	110.639	55.6641	110.662	55.6641	110.616	55.6641	110.643	55.6641	110.594	55.6641	110.623	55.6641	110.574	55.6641	110.605	55.6641	110.556	55.6641	110.589	55.6641	110.543	55.6641	110.576	55.6641	110.533	55.6641	110.567	55.6641	110.529	55.6641	110.56	55.6641	110.528	55.6641	110.555	55.6641	110.53	55.6641	110.551	55.6641	110.534	55.6641	110.548	55.6641	110.539	55.6641	110.544
58.5938	111.285	58.5938	111.286	58.5938	111.279	58.5938	111.281	58.5938	111.266	58.5938	111.269	58.5938	111.248	58.5938	111.253	58.5938	111.225	58.5938	111.232	58.5938	111.198	58.5938	111.208	58.5938	111.167	58.5938	111.181	58.5938	111.135	58.5938	111.153	58.5938	111.103	58.5938	111.125	58.5938	111.071	58.5938	111.098	58.5938	111.042	58.5938	111.074	58.5938	111.018	58.5938	111.053	58.5938	110.999	58.5938	111.035	58.5938	110.985	58.5938	111.021	58.5938	110.977	58.5938	111.009	58.5938	110.974	58.5938	111	58.5938	110.975	58.5938	110.992	58.5938	110.979	58.5938	110.985
60.0586	111.664	60.0586	111.663	60.0586	111.659	60.0586	111.656	60.0586	111.648	60.0586	111.643	60.0586	111.63	60.0586	111.625	60.0586	111.608	60.0586	111.602	60.0586	111.581	60.0586	111.575	60.0586	111.55	60.0586	111.546	60.0586	111.517	60.0586	111.515	60.0586	111.484	60.0586	111.485	60.0586	111.451	60.0586	111.457	60.0586	111.421	60.0586	111.431	60.0586	111.395	60.0586	111.409	60.0586	111.374	60.0586	111.392	60.0586	111.358	60.0586	111.378	60.0586	111.348	60.0586	111.368	60.0586	111.343	60.0586	111.36	60.0586	111.343	60.0586	111.353	60.0586	111.345	60.0586	111.348
62.9883	112.261	62.9883	112.259	62.9883	112.256	62.9883	112.251	62.9883	112.244	62.9883	112.237	62.9883	112.226	62.9883	112.216	62.9883	112.202	62.9883	112.19	62.9883	112.174	62.9883	112.16	62.9883	112.142	62.9883	112.127	62.9883	112.108	62.9883	112.093	62.9883	112.074	62.9883	112.059	62.9883	112.04	62.9883	112.028	62.9883	112.009	62.9883	112	62.9883	111.981	62.9883	111.976	62.9883	111.959	62.9883	111.958	62.9883	111.943	62.9883	111.944	62.9883	111.931	62.9883	111.935	62.9883	111.925	62.9883	111.928	62.9883	111.921	62.9883	111.924	62.9883	111.921	62.9883	111.922
64.4531	112.492	64.4531	112.49	64.4531	112.488	64.4531	112.481	64.4531	112.476	64.4531	112.466	64.4531	112.459	64.4531	112.444	64.4531	112.436	64.4531	112.417	64.4531	112.407	64.4531	112.386	64.4531	112.376	64.4531	112.352	64.4531	112.341	64.4531	112.317	64.4531	112.306	64.4531	112.282	64.4531	112.271	64.4531	112.249	64.4531	112.24	64.4531	112.22	64.4531	112.211	64.4531	112.196	64.4531	112.188	64.4531	112.178	64.4531	112.171	64.4531	112.164	64.4531	112.158	64.4531	112.155	64.4531	112.15	64.4531	112.149	64.4531	112.146	64.4531	112.146	64.4531	112.144	64.4531	112.145
67.3828	112.827	67.3828	112.822	67.3828	112.825	67.3828	112.809	67.3828	112.814	67.3828	112.789	67.3828	112.796	67.3828	112.761	67.3828	112.771	67.3828	112.727	67.3828	112.74	67.3828	112.69	67.3828	112.705	67.3828	112.649	67.3828	112.667	67.3828	112.608	67.3828	112.628	67.3828	112.569	67.3828	112.59	67.3828	112.533	67.3828	112.554	67.3828	112.502	67.3828	112.523	67.3828	112.478	67.3828	112.496	67.3828	112.46	67.3828	112.476	67.3828	112.448	67.3828	112.461	67.3828	112.441	67.3828	112.451	67.3828	112.438	67.3828	112.445	67.3828	112.437	67.3828	112.441	67.3828	112.438
68.8477	113.052	68.8477	113.046	68.8477	113.05	68.8477	113.032	68.8477	113.04	68.8477	113.009	68.8477	113.021	68.8477	112.98	68.8477	112.996	68.8477	112.945	68.8477	112.964	68.8477	112.906	68.8477	112.928	68.8477	112.864	68.8477	112.889	68.8477	112.822	68.8477	112.849	68.8477	112.782	68.8477	112.81	68.8477	112.747	68.8477	112.775	68.8477	112.717	68.8477	112.743	68.8477	112.693	68.8477	112.718	68.8477	112.677	68.8477	112.698	68.8477	112.667	68.8477	112.685	68.8477	112.662	68.8477	112.675	68.8477	112.66	68.8477	112.669	68.8477	112.661	68.8477	112.665	68.8477	112.663
