"SPL Vertical"
"On-Axis"		"10°"		"-10°"		"20°"		"-20°"		"30°"		"-30°"		"40°"		"-40°"		"50°"		"-50°"		"60°"		"-60°"		"70°"		"-70°"		"80°"		"-80°"		"90°"		"-90°"		"100°"		"-100°"		"110°"		"-110°"		"120°"		"-120°"		"130°"		"-130°"		"140°"		"-140°"		"150°"		"-150°"		"160°"		"-160°"		"170°"		"-170°"		"180°"
"Frequency / Hz"	"Sound Pressure Level / dB (re 20 µPa/V)  [2.83V at 1m]"	"Frequency / Hz"	"Sound Pressure Level / dB (re 20 µPa/V)  [2.83V at 1m]"	"Frequency / Hz"	"Sound Pressure Level / dB (re 20 µPa/V)  [2.83V at 1m]"	"Frequency / Hz"	"Sound Pressure Level / dB (re 20 µPa/V)  [2.83V at 1m]"	"Frequency / Hz"	"Sound Pressure Level / dB (re 20 µPa/V)  [2.83V at 1m]"	"Frequency / Hz"	"Sound Pressure Level / dB (re 20 µPa/V)  [2.83V at 1m]"	"Frequency / Hz"	"Sound Pressure Level / dB (re 20 µPa/V)  [2.83V at 1m]"	"Frequency / Hz"	"Sound Pressure Level / dB (re 20 µPa/V)  [2.83V at 1m]"	"Frequency / Hz"	"Sound Pressure Level / dB (re 20 µPa/V)  [2.83V at 1m]"	"Frequency / Hz"	"Sound Pressure Level / dB (re 20 µPa/V)  [2.83V at 1m]"	"Frequency / Hz"	"Sound Pressure Level / dB (re 20 µPa/V)  [2.83V at 1m]"	"Frequency / Hz"	"Sound Pressure Level / dB (re 20 µPa/V)  [2.83V at 1m]"	"Frequency / Hz"	"Sound Pressure Level / dB (re 20 µPa/V)  [2.83V at 1m]"	"Frequency / Hz"	"Sound Pressure Level / dB (re 20 µPa/V)  [2.83V at 1m]"	"Frequency / Hz"	"Sound Pressure Level / dB (re 20 µPa/V)  [2.83V at 1m]"	"Frequency / Hz"	"Sound Pressure Level / dB (re 20 µPa/V)  [2.83V at 1m]"	"Frequency / Hz"	"Sound Pressure Level / dB (re 20 µPa/V)  [2.83V at 1m]"	"Frequency / Hz"	"Sound Pressure Level / dB (re 20 µPa/V)  [2.83V at 1m]"	"Frequency / Hz"	"Sound Pressure Level / dB (re 20 µPa/V)  [2.83V at 1m]"	"Frequency / Hz"	"Sound Pressure Level / dB (re 20 µPa/V)  [2.83V at 1m]"	"Frequency / Hz"	"Sound Pressure Level / dB (re 20 µPa/V)  [2.83V at 1m]"	"Frequency / Hz"	"Sound Pressure Level / dB (re 20 µPa/V)  [2.83V at 1m]"	"Frequency / Hz"	"Sound Pressure Level / dB (re 20 µPa/V)  [2.83V at 1m]"	"Frequency / Hz"	"Sound Pressure Level / dB (re 20 µPa/V)  [2.83V at 1m]"	"Frequency / Hz"	"Sound Pressure Level / dB (re 20 µPa/V)  [2.83V at 1m]"	"Frequency / Hz"	"Sound Pressure Level / dB (re 20 µPa/V)  [2.83V at 1m]"	"Frequency / Hz"	"Sound Pressure Level / dB (re 20 µPa/V)  [2.83V at 1m]"	"Frequency / Hz"	"Sound Pressure Level / dB (re 20 µPa/V)  [2.83V at 1m]"	"Frequency / Hz"	"Sound Pressure Level / dB (re 20 µPa/V)  [2.83V at 1m]"	"Frequency / Hz"	"Sound Pressure Level / dB (re 20 µPa/V)  [2.83V at 1m]"	"Frequency / Hz"	"Sound Pressure Level / dB (re 20 µPa/V)  [2.83V at 1m]"	"Frequency / Hz"	"Sound Pressure Level / dB (re 20 µPa/V)  [2.83V at 1m]"	"Frequency / Hz"	"Sound Pressure Level / dB (re 20 µPa/V)  [2.83V at 1m]"	"Frequency / Hz"	"Sound Pressure Level / dB (re 20 µPa/V)  [2.83V at 1m]"	"Frequency / Hz"	"Sound Pressure Level / dB (re 20 µPa/V)  [2.83V at 1m]"	"Frequency / Hz"	"Sound Pressure Level / dB (re 20 µPa/V)  [2.83V at 1m]"
20.5078	56.1958	20.5078	56.1137	20.5078	56.2532	20.5078	56.0103	20.5078	56.2834	20.5078	55.8893	20.5078	56.2848	20.5078	55.7551	20.5078	56.2571	20.5078	55.6123	20.5078	56.201	20.5078	55.4656	20.5078	56.1183	20.5078	55.3196	20.5078	56.0122	20.5078	55.1788	20.5078	55.8868	20.5078	55.0472	20.5078	55.7472	20.5078	54.9286	20.5078	55.599	20.5078	54.8259	20.5078	55.4479	20.5078	54.7415	20.5078	55.2992	20.5078	54.6772	20.5078	55.158	20.5078	54.6338	20.5078	55.0282	20.5078	54.6119	20.5078	54.913	20.5078	54.6113	20.5078	54.8144	20.5078	54.6318	20.5078	54.7341	20.5078	54.673
21.9727	55.3231	21.9727	55.2251	21.9727	55.388	21.9727	55.0979	21.9727	55.4168	21.9727	54.9464	21.9727	55.4079	21.9727	54.7758	21.9727	55.3607	21.9727	54.5922	21.9727	55.2766	21.9727	54.4015	21.9727	55.1582	21.9727	54.2102	21.9727	55.0101	21.9727	54.0245	21.9727	54.8382	21.9727	53.8502	21.9727	54.6498	21.9727	53.6927	21.9727	54.453	21.9727	53.5562	21.9727	54.256	21.9727	53.4442	21.9727	54.0662	21.9727	53.3585	21.9727	53.8902	21.9727	53.3	21.9727	53.7327	21.9727	53.2684	21.9727	53.5964	21.9727	53.2629	21.9727	53.483	21.9727	53.2824	21.9727	53.3928	21.9727	53.3259
23.4375	56.1175	23.4375	56.0167	23.4375	56.1771	23.4375	55.8786	23.4375	56.1925	23.4375	55.708	23.4375	56.162	23.4375	55.5103	23.4375	56.0855	23.4375	55.2917	23.4375	55.9642	23.4375	55.0588	23.4375	55.8015	23.4375	54.8187	23.4375	55.6024	23.4375	54.5787	23.4375	55.374	23.4375	54.3462	23.4375	55.1253	23.4375	54.1284	23.4375	54.8664	23.4375	53.9319	23.4375	54.6078	23.4375	53.7623	23.4375	54.36	23.4375	53.6237	23.4375	54.1317	23.4375	53.5189	23.4375	53.9301	23.4375	53.4492	23.4375	53.7594	23.4375	53.4148	23.4375	53.6222	23.4375	53.4153	23.4375	53.519	23.4375	53.4501
24.9023	57.437	24.9023	57.3396	24.9023	57.4976	24.9023	57.2094	24.9023	57.5185	24.9023	57.0509	24.9023	57.4981	24.9023	56.8698	24.9023	57.4362	24.9023	56.6719	24.9023	57.334	24.9023	56.4638	24.9023	57.1947	24.9023	56.252	24.9023	57.0233	24.9023	56.0434	24.9023	56.8262	24.9023	55.8445	24.9023	56.6117	24.9023	55.6615	24.9023	56.3888	24.9023	55.4996	24.9023	56.1666	24.9023	55.3632	24.9023	55.954	24.9023	55.255	24.9023	55.7582	24.9023	55.1767	24.9023	55.5847	24.9023	55.1284	24.9023	55.4369	24.9023	55.1098	24.9023	55.3163	24.9023	55.1198	24.9023	55.2233	24.9023	55.1578
26.3672	57.402	26.3672	57.3025	26.3672	57.4524	26.3672	57.1579	26.3672	57.4508	26.3672	56.9735	26.3672	57.3954	26.3672	56.7551	26.3672	57.2863	26.3672	56.5095	26.3672	57.1256	26.3672	56.2444	26.3672	56.9175	26.3672	55.9681	26.3672	56.6686	26.3672	55.6893	26.3672	56.3883	26.3672	55.4172	26.3672	56.088	26.3672	55.1609	26.3672	55.7811	26.3672	54.9285	26.3672	55.4814	26.3672	54.727	26.3672	55.2018	26.3672	54.5611	26.3672	54.9531	26.3672	54.4334	26.3672	54.742	26.3672	54.3444	26.3672	54.5718	26.3672	54.293	26.3672	54.4423	26.3672	54.2777	26.3672	54.3515	26.3672	54.2971
27.832	58.8451	27.832	58.7392	27.832	58.901	27.832	58.5875	27.832	58.904	27.832	58.3949	27.832	58.8521	27.832	58.1671	27.832	58.7449	27.832	57.9106	27.832	58.5837	27.832	57.6325	27.832	58.3719	27.832	57.3407	27.832	58.1151	27.832	57.0435	27.832	57.8216	27.832	56.7497	27.832	57.5019	27.832	56.4685	27.832	57.1689	27.832	56.2085	27.832	56.8366	27.832	55.9774	27.832	56.5192	27.832	55.7815	27.832	56.2296	27.832	55.6254	27.832	55.9779	27.832	55.5117	27.832	55.7706	27.832	55.4417	27.832	55.6111	27.832	55.416	27.832	55.4995	27.832	55.4349
29.2969	59.2906	29.2969	59.1859	29.2969	59.3415	29.2969	59.0313	29.2969	59.3353	29.2969	58.832	29.2969	59.2704	29.2969	58.594	29.2969	59.1467	29.2969	58.3241	29.2969	58.9658	29.2969	58.0301	29.2969	58.7319	29.2969	57.7206	29.2969	58.4517	29.2969	57.4052	29.2969	58.1345	29.2969	57.0938	29.2969	57.7928	29.2969	56.7967	29.2969	57.441	29.2969	56.5237	29.2969	57.0948	29.2969	56.2832	29.2969	56.7699	29.2969	56.0817	29.2969	56.4792	29.2969	55.9231	29.2969	56.2322	29.2969	55.8088	29.2969	56.0338	29.2969	55.7385	29.2969	55.8846	29.2969	55.711	29.2969	55.7828	29.2969	55.7256
30.7617	59.3798	30.7617	59.2653	30.7617	59.4336	30.7617	59.0945	30.7617	59.4234	30.7617	58.8728	30.7617	59.3475	30.7617	58.607	30.7617	59.2061	30.7617	58.3049	30.7617	59.0014	30.7617	57.9757	30.7617	58.7383	30.7617	57.6298	30.7617	58.425	30.7617	57.2792	30.7617	58.0728	30.7617	56.9365	30.7617	57.6969	30.7617	56.6148	30.7617	57.315	30.7617	56.3262	30.7617	56.9461	30.7617	56.0805	30.7617	56.6079	30.7617	55.8838	30.7617	56.3142	30.7617	55.7381	30.7617	56.073	30.7617	55.6413	30.7617	55.8853	30.7617	55.5886	30.7617	55.7475	30.7617	55.575	30.7617	55.6532	30.7617	55.5967
32.2266	59.3408	32.2266	59.2294	32.2266	59.3786	32.2266	59.0488	32.2266	59.3398	32.2266	58.8042	32.2266	59.2224	32.2266	58.5017	32.2266	59.0263	32.2266	58.1489	32.2266	58.7533	32.2266	57.755	32.2266	58.4086	32.2266	57.3309	32.2266	58.0012	32.2266	56.8904	32.2266	57.5447	32.2266	56.4493	32.2266	57.0583	32.2266	56.0255	32.2266	56.5659	32.2266	55.6373	32.2266	56.0946	32.2266	55.3008	32.2266	55.6705	32.2266	55.0278	32.2266	55.3137	32.2266	54.8226	32.2266	55.0344	32.2266	54.6827	32.2266	54.8312	32.2266	54.6	32.2266	54.6942	32.2266	54.5645	32.2266	54.6103	32.2266	54.5686
33.6914	60.1676	33.6914	60.0547	33.6914	60.2009	33.6914	59.8664	33.6914	60.1512	33.6914	59.6078	33.6914	60.0162	33.6914	59.2847	33.6914	59.7952	33.6914	58.9044	33.6914	59.4894	33.6914	58.4755	33.6914	59.1032	33.6914	58.009	33.6914	58.6449	33.6914	57.5186	33.6914	58.1282	33.6914	57.0213	33.6914	57.5732	33.6914	56.5367	33.6914	57.0065	33.6914	56.0859	33.6914	56.4599	33.6914	55.689	33.6914	55.9661	33.6914	55.3611	33.6914	55.5518	33.6914	55.1095	33.6914	55.2318	33.6914	54.9323	33.6914	55.0057	33.6914	54.8208	33.6914	54.8611	33.6914	54.7632	33.6914	54.781	33.6914	54.7506
35.1562	59.5491	35.1562	59.4297	35.1562	59.5705	35.1562	59.2165	35.1562	59.49	35.1562	58.9143	35.1562	59.3048	35.1562	58.5286	35.1562	59.0132	35.1562	58.0665	35.1562	58.6159	35.1562	57.5374	35.1562	58.117	35.1562	56.9545	35.1562	57.5268	35.1562	56.3365	35.1562	56.8638	35.1562	55.709	35.1562	56.1585	35.1562	55.1053	35.1562	55.4548	35.1562	54.5632	35.1562	54.8077	35.1562	54.1186	35.1562	54.2717	35.1562	53.7949	35.1562	53.8836	35.1562	53.5945	35.1562	53.6473	35.1562	53.4975	35.1562	53.5334	35.1562	53.4698	35.1562	53.4954	35.1562	53.4747	35.1562	53.4889	35.1562	53.4849
36.6211	58.772	36.6211	58.6478	36.6211	58.7696	36.6211	58.4009	36.6211	58.6359	36.6211	58.0339	36.6211	58.3651	36.6211	57.5488	36.6211	57.9512	36.6211	56.9475	36.6211	57.3881	36.6211	56.2332	36.6211	56.6718	36.6211	55.4125	36.6211	55.8034	36.6211	54.5007	36.6211	54.7957	36.6211	53.5284	36.6211	53.6847	36.6211	52.5516	36.6211	52.5468	36.6211	51.6584	36.6211	51.5131	36.6211	50.9584	36.6211	50.7481	36.6211	50.5397	36.6211	50.3645	36.6211	50.4134	36.6211	50.3336	36.6211	50.5014	36.6211	50.5091	36.6211	50.6831	36.6211	50.7303	36.6211	50.8499	36.6211	50.8876	36.6211	50.9292
38.0859	58.4415	38.0859	58.3163	38.0859	58.4135	38.0859	58.0409	38.0859	58.2258	38.0859	57.6143	38.0859	57.8681	38.0859	57.0317	38.0859	57.3258	38.0859	56.2838	38.0859	56.5789	38.0859	55.3555	38.0859	55.6005	38.0859	54.2256	38.0859	54.3545	38.0859	52.8665	38.0859	52.7936	38.0859	51.2479	38.0859	50.8614	38.0859	49.3552	38.0859	48.5206	38.0859	47.2566	38.0859	45.9011	38.0859	45.2925	38.0859	43.7826	38.0859	44.2449	38.0859	43.5497	38.0859	44.588	38.0859	44.8368	38.0859	45.6769	38.0859	46.2544	38.0859	46.7571	38.0859	47.2658	38.0859	47.5177	38.0859	47.7984	38.0859	47.8739
39.5508	58.1281	39.5508	58.0168	39.5508	58.0628	39.5508	57.7318	39.5508	57.8123	39.5508	57.2696	39.5508	57.3613	39.5508	56.6199	39.5508	56.6861	39.5508	55.7629	39.5508	55.7511	39.5508	54.6657	39.5508	54.5011	39.5508	53.2744	39.5508	52.847	39.5508	51.4983	39.5508	50.6305	39.5508	49.1747	39.5508	47.5287	39.5508	45.9753	39.5508	42.6962	39.5508	41.1168	39.5508	32.2702	39.5508	33.4746	39.5508	34.926	39.5508	37.3555	39.5508	42.5339	39.5508	42.8373	39.5508	46.0111	39.5508	45.9348	39.5508	47.9718	39.5508	47.8235	39.5508	49.0698	39.5508	48.9531	39.5508	49.5496	39.5508	49.5068
41.0156	61.1315	41.0156	60.9999	41.0156	61.1532	41.0156	60.7667	41.0156	61.0655	41.0156	60.4489	41.0156	60.8797	41.0156	60.0751	41.0156	60.6226	41.0156	59.689	41.0156	60.3422	41.0156	59.3517	41.0156	60.1107	41.0156	59.1365	41.0156	60.014	41.0156	59.1117	41.0156	60.1229	41.0156	59.3125	41.0156	60.4552	41.0156	59.7239	41.0156	60.9645	41.0156	60.2879	41.0156	61.5662	41.0156	60.9303	41.0156	62.1752	41.0156	61.5834	41.0156	62.7266	41.0156	62.1962	41.0156	63.1792	41.0156	62.7336	41.0156	63.5102	41.0156	63.1725	41.0156	63.7089	41.0156	63.4981	41.0156	63.7718	41.0156	63.7001
42.4805	62.7891	42.4805	62.685	42.4805	62.8208	42.4805	62.5155	42.4805	62.7829	42.4805	62.2961	42.4805	62.6886	42.4805	62.0519	42.4805	62.5643	42.4805	61.8179	42.4805	62.4498	42.4805	61.637	42.4805	62.3952	42.4805	61.5545	42.4805	62.4494	42.4805	61.6071	42.4805	62.6428	42.4805	61.811	42.4805	62.9732	42.4805	62.1553	42.4805	63.4057	42.4805	62.6065	42.4805	63.8875	42.4805	63.1195	42.4805	64.3644	42.4805	63.6489	42.4805	64.7927	42.4805	64.1562	42.4805	65.1415	42.4805	64.6117	42.4805	65.3916	42.4805	64.9935	42.4805	65.5328	42.4805	65.2857	42.4805	65.5612	42.4805	65.4775
43.9453	64.3948	43.9453	64.3058	43.9453	64.4369	43.9453	64.1751	43.9453	64.4356	43.9453	64.0156	43.9453	64.4034	43.9453	63.8474	43.9453	64.3624	43.9453	63.6975	43.9453	64.3431	43.9453	63.5965	43.9453	64.3796	43.9453	63.5749	43.9453	64.5008	43.9453	63.6559	43.9453	64.7208	43.9453	63.849	43.9453	65.0321	43.9453	64.1466	43.9453	65.4081	43.9453	64.5266	43.9453	65.8111	43.9453	64.958	43.9453	66.2027	43.9453	65.4075	43.9453	66.5502	43.9453	65.8448	43.9453	66.8294	43.9453	66.2442	43.9453	67.0242	43.9453	66.5858	43.9453	67.1255	43.9453	66.8541	43.9453	67.1299	43.9453	67.038
45.4102	65.9523	45.4102	65.8758	45.4102	66.0034	45.4102	65.7777	45.4102	66.0327	45.4102	65.6676	45.4102	66.0506	45.4102	65.5609	45.4102	66.0744	45.4102	65.4772	45.4102	66.1255	45.4102	65.4377	45.4102	66.2257	45.4102	65.4623	45.4102	66.3907	45.4102	65.5651	45.4102	66.625	45.4102	65.7514	45.4102	66.9192	45.4102	66.0154	45.4102	67.2519	45.4102	66.3419	45.4102	67.5955	45.4102	66.7093	45.4102	67.9219	45.4102	67.0935	45.4102	68.2066	45.4102	67.4708	45.4102	68.4307	45.4102	67.8203	45.4102	68.5816	45.4102	68.1242	45.4102	68.6516	45.4102	68.3685	45.4102	68.6382	45.4102	68.5423
46.875	67.4548	46.875	67.384	46.875	67.5115	46.875	67.3017	46.875	67.5573	46.875	67.2151	46.875	67.6007	46.875	67.1357	46.875	67.6544	46.875	67.0782	46.875	67.7341	46.875	67.0581	46.875	67.8542	46.875	67.09	46.875	68.0241	46.875	67.1843	46.875	68.2448	46.875	67.3453	46.875	68.5075	46.875	67.5695	46.875	68.7952	46.875	67.8466	46.875	69.0863	46.875	68.1605	46.875	69.3586	46.875	68.4925	46.875	69.5925	46.875	68.8231	46.875	69.7726	46.875	69.1342	46.875	69.888	46.875	69.4098	46.875	69.9325	46.875	69.6365	46.875	69.904	46.875	69.8037
48.3398	69.0203	48.3398	68.9521	48.3398	69.0836	48.3398	68.8804	48.3398	69.1444	48.3398	68.8102	48.3398	69.209	48.3398	68.75	48.3398	69.2867	48.3398	68.71	48.3398	69.3876	48.3398	68.7015	48.3398	69.5204	48.3398	68.735	48.3398	69.69	48.3398	68.8182	48.3398	69.8948	48.3398	68.9546	48.3398	70.1267	48.3398	69.1426	48.3398	70.3721	48.3398	69.3752	48.3398	70.6142	48.3398	69.6408	48.3398	70.8359	48.3398	69.9254	48.3398	71.0217	48.3398	70.2132	48.3398	71.1594	48.3398	70.4888	48.3398	71.2402	48.3398	70.738	48.3398	71.2593	48.3398	70.9484	48.3398	71.2153	48.3398	71.1101
51.2695	71.1573	51.2695	71.0896	51.2695	71.226	51.2695	71.0238	51.2695	71.2977	51.2695	70.9633	51.2695	71.3767	51.2695	70.9139	51.2695	71.4688	51.2695	70.8827	51.2695	71.5803	51.2695	70.8777	51.2695	71.7158	51.2695	70.9064	51.2695	71.8768	51.2695	70.9745	51.2695	72.0605	51.2695	71.085	51.2695	72.2596	51.2695	71.2374	51.2695	72.4632	51.2695	71.4273	51.2695	72.6583	51.2695	71.647	51.2695	72.8318	51.2695	71.8859	51.2695	72.9719	51.2695	72.1319	51.2695	73.0691	51.2695	72.3724	51.2695	73.1168	51.2695	72.595	51.2695	73.1117	51.2695	72.7886	51.2695	73.0532	51.2695	72.9438
52.7344	72.068	52.7344	72.0021	52.7344	72.1391	52.7344	71.9419	52.7344	72.217	52.7344	71.8898	52.7344	72.3051	52.7344	71.8504	52.7344	72.4078	52.7344	71.8292	52.7344	72.5294	52.7344	71.8325	52.7344	72.6724	52.7344	71.8661	52.7344	72.8365	52.7344	71.9345	52.7344	73.0178	52.7344	72.0402	52.7344	73.209	52.7344	72.1827	52.7344	73.3999	52.7344	72.3585	52.7344	73.579	52.7344	72.5611	52.7344	73.7348	52.7344	72.7819	52.7344	73.8571	52.7344	73.0103	52.7344	73.9381	52.7344	73.2352	52.7344	73.9723	52.7344	73.4456	52.7344	73.9572	52.7344	73.631	52.7344	73.8931	52.7344	73.7826
54.1992	73.0952	54.1992	73.0271	54.1992	73.1712	54.1992	72.9673	54.1992	73.2562	54.1992	72.9178	54.1992	73.3527	54.1992	72.882	54.1992	73.4634	54.1992	72.8644	54.1992	73.5909	54.1992	72.8697	54.1992	73.7361	54.1992	72.9027	54.1992	73.8974	54.1992	72.9669	54.1992	74.0705	54.1992	73.0644	54.1992	74.2483	54.1992	73.1947	54.1992	74.4217	54.1992	73.3552	54.1992	74.5808	54.1992	73.5406	54.1992	74.7158	54.1992	73.7435	54.1992	74.818	54.1992	73.955	54.1992	74.8809	54.1992	74.1652	54.1992	74.9001	54.1992	74.3641	54.1992	74.874	54.1992	74.5421	54.1992	74.8032	54.1992	74.6909
55.6641	73.9815	55.6641	73.9124	55.6641	74.0594	55.6641	73.8526	55.6641	74.1471	55.6641	73.8037	55.6641	74.2462	55.6641	73.7685	55.6641	74.3588	55.6641	73.7506	55.6641	74.4863	55.6641	73.754	55.6641	74.6286	55.6641	73.7828	55.6641	74.7836	55.6641	73.84	55.6641	74.9468	55.6641	73.9275	55.6641	75.1116	55.6641	74.0452	55.6641	75.2695	55.6641	74.1909	55.6641	75.4118	55.6641	74.3605	55.6641	75.5296	55.6641	74.5474	55.6641	75.6156	55.6641	74.744	55.6641	75.6641	55.6641	74.9414	55.6641	75.6716	55.6641	75.1303	55.6641	75.6369	55.6641	75.3018	55.6641	75.5612	55.6641	75.4477
58.5938	75.5388	58.5938	75.4669	58.5938	75.6208	58.5938	75.4055	58.5938	75.7132	58.5938	75.3558	58.5938	75.8167	58.5938	75.3196	58.5938	75.9319	58.5938	75.2995	58.5938	76.0586	58.5938	75.2984	58.5938	76.1956	58.5938	75.3191	58.5938	76.3397	58.5938	75.3642	58.5938	76.4864	58.5938	75.4351	58.5938	76.6294	58.5938	75.5323	58.5938	76.7617	58.5938	75.6543	58.5938	76.876	58.5938	75.7984	58.5938	76.9653	58.5938	75.9598	58.5938	77.0241	58.5938	76.1325	58.5938	77.0483	58.5938	76.3092	58.5938	77.0356	58.5938	76.4822	58.5938	76.986	58.5938	76.6434	58.5938	76.9013	58.5938	76.7853
60.0586	76.2485	60.0586	76.1753	60.0586	76.3321	60.0586	76.1129	60.0586	76.4263	60.0586	76.0624	60.0586	76.5313	60.0586	76.0253	60.0586	76.6472	60.0586	76.0039	60.0586	76.7731	60.0586	76.0005	60.0586	76.9074	60.0586	76.0177	60.0586	77.0467	60.0586	76.0576	60.0586	77.1862	60.0586	76.1216	60.0586	77.3202	60.0586	76.2103	60.0586	77.4419	60.0586	76.3227	60.0586	77.5446	60.0586	76.4563	60.0586	77.6223	60.0586	76.6072	60.0586	77.6698	60.0586	76.7701	60.0586	77.6839	60.0586	76.9383	60.0586	77.6629	60.0586	77.1046	60.0586	77.6071	60.0586	77.2615	60.0586	77.5188	60.0586	77.4018
62.9883	77.5308	62.9883	77.4535	62.9883	77.6187	62.9883	77.3873	62.9883	77.7167	62.9883	77.3331	62.9883	77.8244	62.9883	77.2921	62.9883	77.9409	62.9883	77.266	62.9883	78.0646	62.9883	77.2567	62.9883	78.193	62.9883	77.266	62.9883	78.3223	62.9883	77.2957	62.9883	78.4481	62.9883	77.3472	62.9883	78.5647	62.9883	77.421	62.9883	78.6665	62.9883	77.5166	62.9883	78.7478	62.9883	77.6324	62.9883	78.8038	62.9883	77.7656	62.9883	78.8308	62.9883	77.9117	62.9883	78.8264	62.9883	78.0655	62.9883	78.79	62.9883	78.2206	62.9883	78.7228	62.9883	78.3704	62.9883	78.6274	62.9883	78.5081
64.4531	78.0751	64.4531	77.9987	64.4531	78.1619	64.4531	77.9332	64.4531	78.2585	64.4531	77.8795	64.4531	78.3643	64.4531	77.8387	64.4531	78.4781	64.4531	77.8121	64.4531	78.5982	64.4531	77.8015	64.4531	78.7218	64.4531	77.8084	64.4531	78.8453	64.4531	77.8344	64.4531	78.964	64.4531	77.8807	64.4531	79.0729	64.4531	77.9479	64.4531	79.1664	64.4531	78.0358	64.4531	79.2395	64.4531	78.143	64.4531	79.2877	64.4531	78.267	64.4531	79.3077	64.4531	78.4041	64.4531	79.2976	64.4531	78.5494	64.4531	79.2571	64.4531	78.6972	64.4531	79.1877	64.4531	78.8411	64.4531	79.0921	64.4531	78.9748
67.3828	78.9979	67.3828	78.9211	67.3828	79.0853	67.3828	78.8555	67.3828	79.1825	67.3828	78.8015	67.3828	79.2886	67.3828	78.76	67.3828	79.402	67.3828	78.7318	67.3828	79.5204	67.3828	78.7183	67.3828	79.6405	67.3828	78.7205	67.3828	79.7584	67.3828	78.7399	67.3828	79.8694	67.3828	78.7775	67.3828	79.9683	67.3828	78.8342	67.3828	80.0502	67.3828	78.91	67.3828	80.1105	67.3828	79.0042	67.3828	80.1454	67.3828	79.1152	67.3828	80.1525	67.3828	79.2399	67.3828	80.1305	67.3828	79.3745	67.3828	80.08	67.3828	79.5139	67.3828	80.0029	67.3828	79.6525	67.3828	79.9028	67.3828	79.7841
