"SPL Horizontal"
"On-Axis"		"10°"		"-10°"		"20°"		"-20°"		"30°"		"-30°"		"40°"		"-40°"		"50°"		"-50°"		"60°"		"-60°"		"70°"		"-70°"		"80°"		"-80°"		"90°"		"-90°"		"100°"		"-100°"		"110°"		"-110°"		"120°"		"-120°"		"130°"		"-130°"		"140°"		"-140°"		"150°"		"-150°"		"160°"		"-160°"		"170°"		"-170°"		"180°"
"Frequency [Hz]"	"Sound Pessure Level [dB]  / [2.83V 1m] "	"Frequency [Hz]"	"Sound Pessure Level [dB]  / [2.83V 1m] "	"Frequency [Hz]"	"Sound Pessure Level [dB]  / [2.83V 1m] "	"Frequency [Hz]"	"Sound Pessure Level [dB]  / [2.83V 1m] "	"Frequency [Hz]"	"Sound Pessure Level [dB]  / [2.83V 1m] "	"Frequency [Hz]"	"Sound Pessure Level [dB]  / [2.83V 1m] "	"Frequency [Hz]"	"Sound Pessure Level [dB]  / [2.83V 1m] "	"Frequency [Hz]"	"Sound Pessure Level [dB]  / [2.83V 1m] "	"Frequency [Hz]"	"Sound Pessure Level [dB]  / [2.83V 1m] "	"Frequency [Hz]"	"Sound Pessure Level [dB]  / [2.83V 1m] "	"Frequency [Hz]"	"Sound Pessure Level [dB]  / [2.83V 1m] "	"Frequency [Hz]"	"Sound Pessure Level [dB]  / [2.83V 1m] "	"Frequency [Hz]"	"Sound Pessure Level [dB]  / [2.83V 1m] "	"Frequency [Hz]"	"Sound Pessure Level [dB]  / [2.83V 1m] "	"Frequency [Hz]"	"Sound Pessure Level [dB]  / [2.83V 1m] "	"Frequency [Hz]"	"Sound Pessure Level [dB]  / [2.83V 1m] "	"Frequency [Hz]"	"Sound Pessure Level [dB]  / [2.83V 1m] "	"Frequency [Hz]"	"Sound Pessure Level [dB]  / [2.83V 1m] "	"Frequency [Hz]"	"Sound Pessure Level [dB]  / [2.83V 1m] "	"Frequency [Hz]"	"Sound Pessure Level [dB]  / [2.83V 1m] "	"Frequency [Hz]"	"Sound Pessure Level [dB]  / [2.83V 1m] "	"Frequency [Hz]"	"Sound Pessure Level [dB]  / [2.83V 1m] "	"Frequency [Hz]"	"Sound Pessure Level [dB]  / [2.83V 1m] "	"Frequency [Hz]"	"Sound Pessure Level [dB]  / [2.83V 1m] "	"Frequency [Hz]"	"Sound Pessure Level [dB]  / [2.83V 1m] "	"Frequency [Hz]"	"Sound Pessure Level [dB]  / [2.83V 1m] "	"Frequency [Hz]"	"Sound Pessure Level [dB]  / [2.83V 1m] "	"Frequency [Hz]"	"Sound Pessure Level [dB]  / [2.83V 1m] "	"Frequency [Hz]"	"Sound Pessure Level [dB]  / [2.83V 1m] "	"Frequency [Hz]"	"Sound Pessure Level [dB]  / [2.83V 1m] "	"Frequency [Hz]"	"Sound Pessure Level [dB]  / [2.83V 1m] "	"Frequency [Hz]"	"Sound Pessure Level [dB]  / [2.83V 1m] "	"Frequency [Hz]"	"Sound Pessure Level [dB]  / [2.83V 1m] "	"Frequency [Hz]"	"Sound Pessure Level [dB]  / [2.83V 1m] "	"Frequency [Hz]"	"Sound Pessure Level [dB]  / [2.83V 1m] "	"Frequency [Hz]"	"Sound Pessure Level [dB]  / [2.83V 1m] "
20.5078	59.2356	20.5078	59.2425	20.5078	59.252	20.5078	59.2664	20.5078	59.2954	20.5078	59.3007	20.5078	59.3651	20.5078	59.3406	20.5078	59.4558	20.5078	59.3842	20.5078	59.5584	20.5078	59.4314	20.5078	59.6626	20.5078	59.4829	20.5078	59.7584	20.5078	59.5388	20.5078	59.8375	20.5078	59.5983	20.5078	59.8944	20.5078	59.6583	20.5078	59.9266	20.5078	59.7142	20.5078	59.935	20.5078	59.76	20.5078	59.9232	20.5078	59.7903	20.5078	59.8972	20.5078	59.803	20.5078	59.8636	20.5078	59.8002	20.5078	59.8289	20.5078	59.7885	20.5078	59.799	20.5078	59.7763	20.5078	59.7789	20.5078	59.7715
21.9727	64.7562	21.9727	64.7293	21.9727	64.7951	21.9727	64.7122	21.9727	64.8465	21.9727	64.7021	21.9727	64.9086	21.9727	64.6963	21.9727	64.9773	21.9727	64.6931	21.9727	65.0466	21.9727	64.6912	21.9727	65.11	21.9727	64.6905	21.9727	65.1609	21.9727	64.691	21.9727	65.1942	21.9727	64.6937	21.9727	65.2072	21.9727	64.6996	21.9727	65.1999	21.9727	64.7097	21.9727	65.1752	21.9727	64.7251	21.9727	65.1382	21.9727	64.7463	21.9727	65.0949	21.9727	64.7729	21.9727	65.0507	21.9727	64.8038	21.9727	65.0093	21.9727	64.8372	21.9727	64.9718	21.9727	64.8711	21.9727	64.9374	21.9727	64.9044
23.4375	67.2328	23.4375	67.203	23.4375	67.2761	23.4375	67.1873	23.4375	67.3307	23.4375	67.1856	23.4375	67.394	23.4375	67.1971	23.4375	67.4625	23.4375	67.2205	23.4375	67.533	23.4375	67.2542	23.4375	67.6022	23.4375	67.2965	23.4375	67.6673	23.4375	67.3452	23.4375	67.7257	23.4375	67.3979	23.4375	67.7753	23.4375	67.4514	23.4375	67.8139	23.4375	67.5021	23.4375	67.8397	23.4375	67.5466	23.4375	67.8509	23.4375	67.5823	23.4375	67.8463	23.4375	67.6085	23.4375	67.8267	23.4375	67.6273	23.4375	67.7951	23.4375	67.6429	23.4375	67.7568	23.4375	67.6609	23.4375	67.7185	23.4375	67.6857
24.9023	72.6797	24.9023	72.6627	24.9023	72.7003	24.9023	72.6487	24.9023	72.7241	24.9023	72.637	24.9023	72.75	24.9023	72.6266	24.9023	72.7764	24.9023	72.6169	24.9023	72.8016	24.9023	72.6077	24.9023	72.8237	24.9023	72.5991	24.9023	72.8414	24.9023	72.5911	24.9023	72.8539	24.9023	72.5842	24.9023	72.8605	24.9023	72.5786	24.9023	72.8606	24.9023	72.5744	24.9023	72.8538	24.9023	72.572	24.9023	72.8399	24.9023	72.572	24.9023	72.8187	24.9023	72.5751	24.9023	72.7907	24.9023	72.5828	24.9023	72.7569	24.9023	72.5966	24.9023	72.7194	24.9023	72.6179	24.9023	72.6814	24.9023	72.6466
26.3672	73.3555	26.3672	73.3263	26.3672	73.3849	26.3672	73.2983	26.3672	73.4135	26.3672	73.2717	26.3672	73.4397	26.3672	73.2469	26.3672	73.462	26.3672	73.2241	26.3672	73.479	26.3672	73.2033	26.3672	73.4897	26.3672	73.1846	26.3672	73.4936	26.3672	73.1679	26.3672	73.4905	26.3672	73.1527	26.3672	73.4803	26.3672	73.1389	26.3672	73.463	26.3672	73.1263	26.3672	73.4383	26.3672	73.1151	26.3672	73.4062	26.3672	73.1063	26.3672	73.3673	26.3672	73.1012	26.3672	73.323	26.3672	73.1015	26.3672	73.2758	26.3672	73.1091	26.3672	73.2291	26.3672	73.1255	26.3672	73.1867	26.3672	73.1515
27.832	74.3876	27.832	74.3801	27.832	74.3897	27.832	74.3665	27.832	74.3869	27.832	74.3465	27.832	74.3793	27.832	74.32	27.832	74.3672	27.832	74.2875	27.832	74.3507	27.832	74.2497	27.832	74.33	27.832	74.2075	27.832	74.3055	27.832	74.1618	27.832	74.2776	27.832	74.1135	27.832	74.2468	27.832	74.0638	27.832	74.2131	27.832	74.014	27.832	74.1762	27.832	73.9665	27.832	74.1355	27.832	73.9239	27.832	74.0911	27.832	73.8893	27.832	74.0437	27.832	73.8656	27.832	73.9952	27.832	73.8552	27.832	73.9488	27.832	73.8591	27.832	73.9082	27.832	73.8774
29.2969	74.5107	29.2969	74.5066	29.2969	74.5104	29.2969	74.4981	29.2969	74.5059	29.2969	74.4848	29.2969	74.4969	29.2969	74.4667	29.2969	74.483	29.2969	74.4437	29.2969	74.464	29.2969	74.4161	29.2969	74.4398	29.2969	74.384	29.2969	74.4105	29.2969	74.3476	29.2969	74.3766	29.2969	74.3068	29.2969	74.3388	29.2969	74.2624	29.2969	74.2976	29.2969	74.2152	29.2969	74.2538	29.2969	74.1672	29.2969	74.2081	29.2969	74.121	29.2969	74.162	29.2969	74.0794	29.2969	74.1174	29.2969	74.0454	29.2969	74.0769	29.2969	74.0211	29.2969	74.0435	29.2969	74.0083	29.2969	74.0198	29.2969	74.0078
30.7617	74.9699	30.7617	74.9668	30.7617	74.9671	30.7617	74.9576	30.7617	74.9589	30.7617	74.9416	30.7617	74.9449	30.7617	74.9183	30.7617	74.9251	30.7617	74.8876	30.7617	74.899	30.7617	74.8495	30.7617	74.8667	30.7617	74.8042	30.7617	74.8285	30.7617	74.7523	30.7617	74.7851	30.7617	74.6946	30.7617	74.7377	30.7617	74.6327	30.7617	74.6871	30.7617	74.5687	30.7617	74.6343	30.7617	74.5057	30.7617	74.5803	30.7617	74.4472	30.7617	74.5259	30.7617	74.397	30.7617	74.4728	30.7617	74.3583	30.7617	74.4235	30.7617	74.3333	30.7617	74.3809	30.7617	74.3233	30.7617	74.3484	30.7617	74.3286
32.2266	75.0351	32.2266	75.0266	32.2266	75.0351	32.2266	75.0095	32.2266	75.0264	32.2266	74.9842	32.2266	75.009	32.2266	74.9508	32.2266	74.9829	32.2266	74.9099	32.2266	74.9483	32.2266	74.862	32.2266	74.9058	32.2266	74.8079	32.2266	74.8562	32.2266	74.7481	32.2266	74.8007	32.2266	74.6836	32.2266	74.7406	32.2266	74.6155	32.2266	74.6772	32.2266	74.5453	32.2266	74.6118	32.2266	74.4756	32.2266	74.5457	32.2266	74.4096	32.2266	74.4802	32.2266	74.3512	32.2266	74.4176	32.2266	74.3042	32.2266	74.3607	32.2266	74.2718	32.2266	74.3129	32.2266	74.2562	32.2266	74.2779	32.2266	74.2584
33.6914	75.8828	33.6914	75.8808	33.6914	75.8755	33.6914	75.8694	33.6914	75.8589	33.6914	75.8486	33.6914	75.8333	33.6914	75.8183	33.6914	75.799	33.6914	75.7791	33.6914	75.7562	33.6914	75.7313	33.6914	75.7056	33.6914	75.6757	33.6914	75.6483	33.6914	75.6132	33.6914	75.5853	33.6914	75.5452	33.6914	75.5181	33.6914	75.4733	33.6914	75.4483	33.6914	75.3995	33.6914	75.3776	33.6914	75.3262	33.6914	75.3079	33.6914	75.2562	33.6914	75.2413	33.6914	75.1925	33.6914	75.1804	33.6914	75.138	33.6914	75.1286	33.6914	75.0957	33.6914	75.089	33.6914	75.0682	33.6914	75.0647	33.6914	75.0576
35.1562	76.0955	35.1562	76.0896	35.1562	76.0931	35.1562	76.0752	35.1562	76.0827	35.1562	76.0525	35.1562	76.0648	35.1562	76.0215	35.1562	76.0397	35.1562	75.9829	35.1562	76.008	35.1562	75.9374	35.1562	75.9703	35.1562	75.886	35.1562	75.9273	35.1562	75.83	35.1562	75.8798	35.1562	75.7711	35.1562	75.8288	35.1562	75.7109	35.1562	75.7754	35.1562	75.6516	35.1562	75.7207	35.1562	75.5953	35.1562	75.6664	35.1562	75.5447	35.1562	75.614	35.1562	75.5021	35.1562	75.5655	35.1562	75.4698	35.1562	75.5228	35.1562	75.4493	35.1562	75.4876	35.1562	75.4413	35.1562	75.4614	35.1562	75.4456
36.6211	76.4876	36.6211	76.4707	36.6211	76.4945	36.6211	76.4441	36.6211	76.4913	36.6211	76.4083	36.6211	76.4782	36.6211	76.3639	36.6211	76.4557	36.6211	76.312	36.6211	76.4243	36.6211	76.2534	36.6211	76.3848	36.6211	76.1892	36.6211	76.3381	36.6211	76.1206	36.6211	76.2851	36.6211	76.0491	36.6211	76.2267	36.6211	75.9767	36.6211	76.1638	36.6211	75.9058	36.6211	76.0974	36.6211	75.8395	36.6211	76.0289	36.6211	75.7811	36.6211	75.96	36.6211	75.7338	36.6211	75.8929	36.6211	75.7005	36.6211	75.8304	36.6211	75.6832	36.6211	75.7754	36.6211	75.6829	36.6211	75.7307	36.6211	75.6992
38.0859	76.7301	38.0859	76.7164	38.0859	76.7309	38.0859	76.6898	38.0859	76.7188	38.0859	76.6509	38.0859	76.6945	38.0859	76.6005	38.0859	76.6582	38.0859	76.5399	38.0859	76.6107	38.0859	76.4706	38.0859	76.5528	38.0859	76.394	38.0859	76.4855	38.0859	76.3117	38.0859	76.4103	38.0859	76.2253	38.0859	76.3288	38.0859	76.1369	38.0859	76.2429	38.0859	76.0492	38.0859	76.1547	38.0859	75.9656	38.0859	76.0671	38.0859	75.8899	38.0859	75.9832	38.0859	75.8256	38.0859	75.9065	38.0859	75.7759	38.0859	75.8403	38.0859	75.7427	38.0859	75.7875	38.0859	75.7272	38.0859	75.7501	38.0859	75.7298
39.5508	77.6087	39.5508	77.5797	39.5508	77.6185	39.5508	77.5323	39.5508	77.609	39.5508	77.4676	39.5508	77.5803	39.5508	77.3876	39.5508	77.5326	39.5508	77.2947	39.5508	77.4663	39.5508	77.1917	39.5508	77.3822	39.5508	77.0814	39.5508	77.2813	39.5508	76.9667	39.5508	77.1658	39.5508	76.8511	39.5508	77.039	39.5508	76.7378	39.5508	76.9051	39.5508	76.6302	39.5508	76.7696	39.5508	76.5307	39.5508	76.6387	39.5508	76.4416	39.5508	76.5185	39.5508	76.3649	39.5508	76.4148	39.5508	76.3027	39.5508	76.3319	39.5508	76.257	39.5508	76.272	39.5508	76.2296	39.5508	76.2357	39.5508	76.222
41.0156	80.3176	41.0156	80.2708	41.0156	80.3449	41.0156	80.2042	41.0156	80.3531	41.0156	80.1169	41.0156	80.3421	41.0156	80.0076	41.0156	80.3121	41.0156	79.8749	41.0156	80.2632	41.0156	79.7171	41.0156	80.1956	41.0156	79.5325	41.0156	80.1097	41.0156	79.3207	41.0156	80.0053	41.0156	79.0835	41.0156	79.8819	41.0156	78.8269	41.0156	79.7385	41.0156	78.563	41.0156	79.5736	41.0156	78.3107	41.0156	79.3857	41.0156	78.0927	41.0156	79.1748	41.0156	77.9311	41.0156	78.9437	41.0156	77.8423	41.0156	78.6998	41.0156	77.8333	41.0156	78.4559	41.0156	77.9019	41.0156	78.2293	41.0156	78.0387
42.4805	79.4759	42.4805	79.4955	42.4805	79.4497	42.4805	79.5072	42.4805	79.4182	42.4805	79.5107	42.4805	79.383	42.4805	79.5056	42.4805	79.3461	42.4805	79.4922	42.4805	79.3091	42.4805	79.4711	42.4805	79.2735	42.4805	79.443	42.4805	79.2406	42.4805	79.4088	42.4805	79.2112	42.4805	79.3699	42.4805	79.1857	42.4805	79.3277	42.4805	79.1642	42.4805	79.284	42.4805	79.1464	42.4805	79.2411	42.4805	79.1314	42.4805	79.2013	42.4805	79.1186	42.4805	79.1667	42.4805	79.1075	42.4805	79.1383	42.4805	79.0983	42.4805	79.1165	42.4805	79.0919	42.4805	79.1013	42.4805	79.0896	42.4805	79.0925
43.9453	79.8931	43.9453	79.9138	43.9453	79.8656	43.9453	79.9273	43.9453	79.8322	43.9453	79.9334	43.9453	79.7943	43.9453	79.9319	43.9453	79.7534	43.9453	79.923	43.9453	79.7113	43.9453	79.907	43.9453	79.6698	43.9453	79.8845	43.9453	79.6307	43.9453	79.8562	43.9453	79.5951	43.9453	79.8232	43.9453	79.5642	43.9453	79.7865	43.9453	79.5384	43.9453	79.7476	43.9453	79.5182	43.9453	79.7081	43.9453	79.5035	43.9453	79.6696	43.9453	79.4942	43.9453	79.6332	43.9453	79.49	43.9453	79.5999	43.9453	79.491	43.9453	79.5703	43.9453	79.497	43.9453	79.5449	43.9453	79.508	43.9453	79.5241
45.4102	80.0818	45.4102	80.1008	45.4102	80.0527	45.4102	80.1092	45.4102	80.0144	45.4102	80.1068	45.4102	79.9681	45.4102	80.0937	45.4102	79.9154	45.4102	80.0704	45.4102	79.8581	45.4102	80.0376	45.4102	79.7985	45.4102	79.9966	45.4102	79.7385	45.4102	79.9487	45.4102	79.6804	45.4102	79.896	45.4102	79.6263	45.4102	79.8407	45.4102	79.5781	45.4102	79.785	45.4102	79.5374	45.4102	79.731	45.4102	79.5056	45.4102	79.6805	45.4102	79.4834	45.4102	79.6345	45.4102	79.4709	45.4102	79.5936	45.4102	79.4676	45.4102	79.558	45.4102	79.4726	45.4102	79.5278	45.4102	79.4848	45.4102	79.5034
46.875	80.4442	46.875	80.4567	46.875	80.4229	46.875	80.4603	46.875	80.3931	46.875	80.4552	46.875	80.3557	46.875	80.4418	46.875	80.312	46.875	80.4206	46.875	80.2635	46.875	80.3922	46.875	80.212	46.875	80.3576	46.875	80.1597	46.875	80.3178	46.875	80.1083	46.875	80.2742	46.875	80.06	46.875	80.2282	46.875	80.0163	46.875	80.1815	46.875	79.979	46.875	80.1357	46.875	79.9492	46.875	80.092	46.875	79.9275	46.875	80.0517	46.875	79.9144	46.875	80.0155	46.875	79.9093	46.875	79.984	46.875	79.9118	46.875	79.9575	46.875	79.9211	46.875	79.9365
48.3398	80.9557	48.3398	80.9632	48.3398	80.9369	48.3398	80.9595	48.3398	80.9075	48.3398	80.9447	48.3398	80.8683	48.3398	80.9193	48.3398	80.8206	48.3398	80.8843	48.3398	80.7662	48.3398	80.8407	48.3398	80.707	48.3398	80.7898	48.3398	80.6452	48.3398	80.7332	48.3398	80.583	48.3398	80.673	48.3398	80.5225	48.3398	80.6112	48.3398	80.4657	48.3398	80.5501	48.3398	80.4144	48.3398	80.4919	48.3398	80.37	48.3398	80.4386	48.3398	80.3335	48.3398	80.3915	48.3398	80.3054	48.3398	80.3517	48.3398	80.2861	48.3398	80.3198	48.3398	80.2756	48.3398	80.2961	48.3398	80.2738	48.3398	80.2807
51.2695	81.9569	51.2695	81.964	51.2695	81.9369	51.2695	81.958	51.2695	81.9044	51.2695	81.939	51.2695	81.8605	51.2695	81.9076	51.2695	81.8065	51.2695	81.8647	51.2695	81.7441	51.2695	81.8112	51.2695	81.6752	51.2695	81.7488	51.2695	81.6021	51.2695	81.6794	51.2695	81.5272	51.2695	81.6051	51.2695	81.4527	51.2695	81.5286	51.2695	81.3813	51.2695	81.4527	51.2695	81.3151	51.2695	81.3801	51.2695	81.2564	51.2695	81.3136	51.2695	81.2068	51.2695	81.255	51.2695	81.1676	51.2695	81.2061	51.2695	81.1396	51.2695	81.1675	51.2695	81.1229	51.2695	81.1399	51.2695	81.1175	51.2695	81.1232
52.7344	82.4876	52.7344	82.4991	52.7344	82.4621	52.7344	82.4965	52.7344	82.4234	52.7344	82.4799	52.7344	82.3727	52.7344	82.4501	52.7344	82.3114	52.7344	82.408	52.7344	82.2418	52.7344	82.3551	52.7344	82.1662	52.7344	82.2931	52.7344	82.087	52.7344	82.2242	52.7344	82.0071	52.7344	82.1507	52.7344	81.9291	52.7344	82.0751	52.7344	81.8556	52.7344	82.0002	52.7344	81.7893	52.7344	81.9283	52.7344	81.7323	52.7344	81.8615	52.7344	81.6865	52.7344	81.8013	52.7344	81.6532	52.7344	81.7489	52.7344	81.6328	52.7344	81.705	52.7344	81.6251	52.7344	81.6701	52.7344	81.6294	52.7344	81.6446
54.1992	82.8635	54.1992	82.8767	54.1992	82.8368	54.1992	82.8762	54.1992	82.7974	54.1992	82.8624	54.1992	82.7463	54.1992	82.8361	54.1992	82.6851	54.1992	82.7983	54.1992	82.6159	54.1992	82.7507	54.1992	82.541	54.1992	82.695	54.1992	82.4629	54.1992	82.6332	54.1992	82.3843	54.1992	82.5677	54.1992	82.308	54.1992	82.5004	54.1992	82.2367	54.1992	82.4333	54.1992	82.1732	54.1992	82.3679	54.1992	82.1199	54.1992	82.3053	54.1992	82.0787	54.1992	82.2465	54.1992	82.051	54.1992	82.1923	54.1992	82.037	54.1992	82.144	54.1992	82.0364	54.1992	82.103	54.1992	82.0479	54.1992	82.0705
55.6641	83.2742	55.6641	83.2848	55.6641	83.2497	55.6641	83.2816	55.6641	83.2117	55.6641	83.2649	55.6641	83.1612	55.6641	83.2358	55.6641	83.0998	55.6641	83.1955	55.6641	83.0293	55.6641	83.1458	55.6641	82.9522	55.6641	83.0888	55.6641	82.871	55.6641	83.0268	55.6641	82.7887	55.6641	82.9624	55.6641	82.7086	55.6641	82.8979	55.6641	82.6341	55.6641	82.8354	55.6641	82.5687	55.6641	82.7761	55.6641	82.5154	55.6641	82.7202	55.6641	82.4768	55.6641	82.6676	55.6641	82.454	55.6641	82.618	55.6641	82.4466	55.6641	82.5722	55.6641	82.4527	55.6641	82.5313	55.6641	82.47	55.6641	82.4968
58.5938	84.401	58.5938	84.4017	58.5938	84.3871	58.5938	84.3894	58.5938	84.36	58.5938	84.3648	58.5938	84.3203	58.5938	84.3287	58.5938	84.2689	58.5938	84.2825	58.5938	84.2071	58.5938	84.2276	58.5938	84.137	58.5938	84.1661	58.5938	84.0606	58.5938	84.1003	58.5938	83.9808	58.5938	84.0329	58.5938	83.9006	58.5938	83.9663	58.5938	83.8233	58.5938	83.9031	58.5938	83.7523	58.5938	83.845	58.5938	83.6909	58.5938	83.7928	58.5938	83.642	58.5938	83.7463	58.5938	83.6075	58.5938	83.7049	58.5938	83.5881	58.5938	83.668	58.5938	83.5832	58.5938	83.6358	58.5938	83.5911	58.5938	83.6094
60.0586	84.7729	60.0586	84.7668	60.0586	84.7666	60.0586	84.7488	60.0586	84.748	60.0586	84.7197	60.0586	84.7173	60.0586	84.6808	60.0586	84.6753	60.0586	84.6337	60.0586	84.6232	60.0586	84.5805	60.0586	84.5625	60.0586	84.5236	60.0586	84.4953	60.0586	84.4655	60.0586	84.424	60.0586	84.4087	60.0586	84.3516	60.0586	84.3554	60.0586	84.2814	60.0586	84.307	60.0586	84.2168	60.0586	84.2642	60.0586	84.161	60.0586	84.2265	60.0586	84.1166	60.0586	84.1931	60.0586	84.0856	60.0586	84.1628	60.0586	84.0685	60.0586	84.1348	60.0586	84.0644	60.0586	84.1093	60.0586	84.0716	60.0586	84.0874
62.9883	85.6384	62.9883	85.6336	62.9883	85.629	62.9883	85.6151	62.9883	85.6058	62.9883	85.5837	62.9883	85.5692	62.9883	85.5407	62.9883	85.5206	62.9883	85.4882	62.9883	85.4616	62.9883	85.4286	62.9883	85.3943	62.9883	85.3647	62.9883	85.3212	62.9883	85.2994	62.9883	85.2455	62.9883	85.2356	62.9883	85.1702	62.9883	85.1758	62.9883	85.0989	62.9883	85.1215	62.9883	85.0346	62.9883	85.0738	62.9883	84.98	62.9883	85.0326	62.9883	84.9372	62.9883	84.9972	62.9883	84.9072	62.9883	84.9666	62.9883	84.8899	62.9883	84.9402	62.9883	84.8842	62.9883	84.9178	62.9883	84.8883	62.9883	84.9001
64.4531	86.0361	64.4531	86.0257	64.4531	86.0312	64.4531	86.0001	64.4531	86.011	64.4531	85.9607	64.4531	85.9761	64.4531	85.9088	64.4531	85.9279	64.4531	85.847	64.4531	85.868	64.4531	85.778	64.4531	85.7986	64.4531	85.7051	64.4531	85.7225	64.4531	85.6317	64.4531	85.6429	64.4531	85.5614	64.4531	85.563	64.4531	85.4967	64.4531	85.4865	64.4531	85.4399	64.4531	85.4166	64.4531	85.3917	64.4531	85.3563	64.4531	85.3519	64.4531	85.3078	64.4531	85.3196	64.4531	85.2722	64.4531	85.2934	64.4531	85.2493	64.4531	85.272	64.4531	85.2381	64.4531	85.2551	64.4531	85.2367	64.4531	85.243
67.3828	86.7327	67.3828	86.7111	67.3828	86.739	67.3828	86.6747	67.3828	86.73	67.3828	86.6248	67.3828	86.7062	67.3828	86.5633	67.3828	86.6687	67.3828	86.4926	67.3828	86.6188	67.3828	86.4159	67.3828	86.5586	67.3828	86.3366	67.3828	86.4904	67.3828	86.2588	67.3828	86.4172	67.3828	86.1861	67.3828	86.3421	67.3828	86.1219	67.3828	86.2686	67.3828	86.0687	67.3828	86.1998	67.3828	86.0276	67.3828	86.1387	67.3828	85.9986	67.3828	86.0874	67.3828	85.9805	67.3828	86.0469	67.3828	85.9712	67.3828	86.017	67.3828	85.9683	67.3828	85.9965	67.3828	85.9697	67.3828	85.983	67.3828	85.9746
68.8477	87.1218	68.8477	87.0958	68.8477	87.1319	68.8477	87.0545	68.8477	87.1259	68.8477	86.9992	68.8477	87.1045	68.8477	86.932	68.8477	87.0686	68.8477	86.8555	68.8477	87.0198	68.8477	86.7734	68.8477	86.96	68.8477	86.6894	68.8477	86.8917	68.8477	86.6079	68.8477	86.8177	68.8477	86.533	68.8477	86.7412	68.8477	86.4681	68.8477	86.6656	68.8477	86.4157	68.8477	86.5942	68.8477	86.3767	68.8477	86.5298	68.8477	86.3507	68.8477	86.4746	68.8477	86.3358	68.8477	86.4297	68.8477	86.3295	68.8477	86.3952	68.8477	86.3294	68.8477	86.3702	68.8477	86.3336	68.8477	86.3529	68.8477	86.3412
