"SPL Vertical"
"On-Axis"		"10°"		"-10°"		"20°"		"-20°"		"30°"		"-30°"		"40°"		"-40°"		"50°"		"-50°"		"60°"		"-60°"		"70°"		"-70°"		"80°"		"-80°"		"90°"		"-90°"		"100°"		"-100°"		"110°"		"-110°"		"120°"		"-120°"		"130°"		"-130°"		"140°"		"-140°"		"150°"		"-150°"		"160°"		"-160°"		"170°"		"-170°"		"180°"
"Frequency [Hz]"	"Sound Pessure Level [dB]  / [2.83V 1m] "	"Frequency [Hz]"	"Sound Pessure Level [dB]  / [2.83V 1m] "	"Frequency [Hz]"	"Sound Pessure Level [dB]  / [2.83V 1m] "	"Frequency [Hz]"	"Sound Pessure Level [dB]  / [2.83V 1m] "	"Frequency [Hz]"	"Sound Pessure Level [dB]  / [2.83V 1m] "	"Frequency [Hz]"	"Sound Pessure Level [dB]  / [2.83V 1m] "	"Frequency [Hz]"	"Sound Pessure Level [dB]  / [2.83V 1m] "	"Frequency [Hz]"	"Sound Pessure Level [dB]  / [2.83V 1m] "	"Frequency [Hz]"	"Sound Pessure Level [dB]  / [2.83V 1m] "	"Frequency [Hz]"	"Sound Pessure Level [dB]  / [2.83V 1m] "	"Frequency [Hz]"	"Sound Pessure Level [dB]  / [2.83V 1m] "	"Frequency [Hz]"	"Sound Pessure Level [dB]  / [2.83V 1m] "	"Frequency [Hz]"	"Sound Pessure Level [dB]  / [2.83V 1m] "	"Frequency [Hz]"	"Sound Pessure Level [dB]  / [2.83V 1m] "	"Frequency [Hz]"	"Sound Pessure Level [dB]  / [2.83V 1m] "	"Frequency [Hz]"	"Sound Pessure Level [dB]  / [2.83V 1m] "	"Frequency [Hz]"	"Sound Pessure Level [dB]  / [2.83V 1m] "	"Frequency [Hz]"	"Sound Pessure Level [dB]  / [2.83V 1m] "	"Frequency [Hz]"	"Sound Pessure Level [dB]  / [2.83V 1m] "	"Frequency [Hz]"	"Sound Pessure Level [dB]  / [2.83V 1m] "	"Frequency [Hz]"	"Sound Pessure Level [dB]  / [2.83V 1m] "	"Frequency [Hz]"	"Sound Pessure Level [dB]  / [2.83V 1m] "	"Frequency [Hz]"	"Sound Pessure Level [dB]  / [2.83V 1m] "	"Frequency [Hz]"	"Sound Pessure Level [dB]  / [2.83V 1m] "	"Frequency [Hz]"	"Sound Pessure Level [dB]  / [2.83V 1m] "	"Frequency [Hz]"	"Sound Pessure Level [dB]  / [2.83V 1m] "	"Frequency [Hz]"	"Sound Pessure Level [dB]  / [2.83V 1m] "	"Frequency [Hz]"	"Sound Pessure Level [dB]  / [2.83V 1m] "	"Frequency [Hz]"	"Sound Pessure Level [dB]  / [2.83V 1m] "	"Frequency [Hz]"	"Sound Pessure Level [dB]  / [2.83V 1m] "	"Frequency [Hz]"	"Sound Pessure Level [dB]  / [2.83V 1m] "	"Frequency [Hz]"	"Sound Pessure Level [dB]  / [2.83V 1m] "	"Frequency [Hz]"	"Sound Pessure Level [dB]  / [2.83V 1m] "	"Frequency [Hz]"	"Sound Pessure Level [dB]  / [2.83V 1m] "	"Frequency [Hz]"	"Sound Pessure Level [dB]  / [2.83V 1m] "	"Frequency [Hz]"	"Sound Pessure Level [dB]  / [2.83V 1m] "
20.5078	59.2356	20.5078	59.3778	20.5078	59.2823	20.5078	59.5858	20.5078	59.6642	20.5078	59.7856	20.5078	60.4643	20.5078	59.9425	20.5078	61.6208	20.5078	60.0449	20.5078	62.9542	20.5078	60.0927	20.5078	64.2664	20.5078	60.0911	20.5078	65.4028	20.5078	60.0473	20.5078	66.2607	20.5078	59.9689	20.5078	66.7771	20.5078	59.8638	20.5078	66.9187	20.5078	59.7398	20.5078	66.6766	20.5078	59.6051	20.5078	66.0665	20.5078	59.4697	20.5078	65.1336	20.5078	59.3482	20.5078	63.9614	20.5078	59.2646	20.5078	62.6789	20.5078	59.2598	20.5078	61.4544	20.5078	59.3997	20.5078	60.4534	20.5078	59.7715
21.9727	64.7562	21.9727	64.315	21.9727	65.3399	21.9727	63.9992	21.9727	66.065	21.9727	63.7825	21.9727	66.9075	21.9727	63.6371	21.9727	67.8206	21.9727	63.5391	21.9727	68.741	21.9727	63.4704	21.9727	69.5971	21.9727	63.4192	21.9727	70.3182	21.9727	63.3793	21.9727	70.8412	21.9727	63.3493	21.9727	71.1165	21.9727	63.3319	21.9727	71.1121	21.9727	63.333	21.9727	70.8171	21.9727	63.3613	21.9727	70.2458	21.9727	63.4277	21.9727	69.4406	21.9727	63.5453	21.9727	68.4741	21.9727	63.7295	21.9727	67.4443	21.9727	63.9996	21.9727	66.4563	21.9727	64.3811	21.9727	65.5957	21.9727	64.9044
23.4375	67.2328	23.4375	66.7952	23.4375	67.8009	23.4375	66.4691	23.4375	68.5045	23.4375	66.2303	23.4375	69.3281	23.4375	66.0553	23.4375	70.2337	23.4375	65.9258	23.4375	71.1629	23.4375	65.8287	23.4375	72.0456	23.4375	65.7568	23.4375	72.8087	23.4375	65.7072	23.4375	73.3855	23.4375	65.6805	23.4375	73.7227	23.4375	65.68	23.4375	73.7849	23.4375	65.7112	23.4375	73.5582	23.4375	65.7805	23.4375	73.0523	23.4375	65.8962	23.4375	72.3039	23.4375	66.0683	23.4375	71.3769	23.4375	66.3106	23.4375	70.3599	23.4375	66.6429	23.4375	69.3526	23.4375	67.0916	23.4375	68.4433	23.4375	67.6857
24.9023	72.6797	24.9023	72.1799	24.9023	73.2657	24.9023	71.7625	24.9023	73.9346	24.9023	71.4204	24.9023	74.6715	24.9023	71.1454	24.9023	75.4469	24.9023	70.9302	24.9023	76.2151	24.9023	70.7681	24.9023	76.918	24.9023	70.6544	24.9023	77.4923	24.9023	70.5854	24.9023	77.8794	24.9023	70.5593	24.9023	78.0354	24.9023	70.5756	24.9023	77.9382	24.9023	70.6351	24.9023	77.5927	24.9023	70.7406	24.9023	77.0321	24.9023	70.8959	24.9023	76.3144	24.9023	71.1066	24.9023	75.5125	24.9023	71.3794	24.9023	74.6991	24.9023	71.7217	24.9023	73.9314	24.9023	72.1416	24.9023	73.243	24.9023	72.6466
26.3672	73.3555	26.3672	72.86	26.3672	73.9275	26.3672	72.4387	26.3672	74.5723	26.3672	72.0864	26.3672	75.276	26.3672	71.7967	26.3672	76.0115	26.3672	71.5637	26.3672	76.7371	26.3672	71.3827	26.3672	77.3993	26.3672	71.2499	26.3672	77.9384	26.3672	71.1628	26.3672	78.2984	26.3672	71.1201	26.3672	78.4363	26.3672	71.1218	26.3672	78.3299	26.3672	71.1693	26.3672	77.9836	26.3672	71.2653	26.3672	77.43	26.3672	71.4139	26.3672	76.7263	26.3672	71.6207	26.3672	75.9442	26.3672	71.8917	26.3672	75.1536	26.3672	72.2334	26.3672	74.4079	26.3672	72.6516	26.3672	73.7369	26.3672	73.1515
27.832	74.3876	27.832	73.9047	27.832	74.9306	27.832	73.4828	27.832	75.5279	27.832	73.1204	27.832	76.1662	27.832	72.8148	27.832	76.8216	27.832	72.5631	27.832	77.4587	27.832	72.3626	27.832	78.0314	27.832	72.211	27.832	78.4881	27.832	72.1065	27.832	78.7795	27.832	72.048	27.832	78.8676	27.832	72.0354	27.832	78.7333	27.832	72.0694	27.832	78.3822	27.832	72.1518	27.832	77.8459	27.832	72.2857	27.832	77.1787	27.832	72.4748	27.832	76.4471	27.832	72.7237	27.832	75.7146	27.832	73.0373	27.832	75.028	27.832	73.4202	27.832	74.4129	27.832	73.8774
29.2969	74.5107	29.2969	74.0409	29.2969	75.0379	29.2969	73.629	29.2969	75.6177	29.2969	73.2732	29.2969	76.2379	29.2969	72.971	29.2969	76.8762	29.2969	72.72	29.2969	77.4982	29.2969	72.5181	29.2969	78.0587	29.2969	72.3639	29.2969	78.5064	29.2969	72.2565	29.2969	78.7923	29.2969	72.1956	29.2969	78.8784	29.2969	72.1813	29.2969	78.7458	29.2969	72.2148	29.2969	78.4005	29.2969	72.2976	29.2969	77.8746	29.2969	72.4323	29.2969	77.2223	29.2969	72.6221	29.2969	76.5089	29.2969	72.8707	29.2969	75.7961	29.2969	73.1819	29.2969	75.1288	29.2969	73.5596	29.2969	74.5303	29.2969	74.0078
30.7617	74.9699	30.7617	74.5193	30.7617	75.4711	30.7617	74.121	30.7617	76.0176	30.7617	73.7743	30.7617	76.5975	30.7617	73.4775	30.7617	77.1898	30.7617	73.2291	30.7617	77.7631	30.7617	73.0273	30.7617	78.2766	30.7617	72.871	30.7617	78.6835	30.7617	72.7594	30.7617	78.9389	30.7617	72.6921	30.7617	79.008	30.7617	72.6692	30.7617	78.8732	30.7617	72.6913	30.7617	78.54	30.7617	72.7598	30.7617	78.0374	30.7617	72.8769	30.7617	77.4148	30.7617	73.0456	30.7617	76.732	30.7617	73.27	30.7617	76.047	30.7617	73.5549	30.7617	75.4037	30.7617	73.9059	30.7617	74.8277	30.7617	74.3286
32.2266	75.0351	32.2266	74.5573	32.2266	75.5586	32.2266	74.1291	32.2266	76.1198	32.2266	73.7525	32.2266	76.7053	32.2266	73.428	32.2266	77.2934	32.2266	73.1554	32.2266	77.8532	32.2266	72.9338	32.2266	78.3447	32.2266	72.7621	32.2266	78.7236	32.2266	72.6391	32.2266	78.9476	32.2266	72.5641	32.2266	78.9856	32.2266	72.5366	32.2266	78.8241	32.2266	72.5568	32.2266	78.4722	32.2266	72.6258	32.2266	77.9616	32.2266	72.7459	32.2266	77.3413	32.2266	72.9206	32.2266	76.6677	32.2266	73.1544	32.2266	75.9919	32.2266	73.4524	32.2266	75.3519	32.2266	73.8193	32.2266	74.7704	32.2266	74.2584
33.6914	75.8828	33.6914	75.4401	33.6914	76.3649	33.6914	75.0399	33.6914	76.8794	33.6914	74.6836	33.6914	77.4143	33.6914	74.3719	33.6914	77.9496	33.6914	74.1049	33.6914	78.4566	33.6914	73.8825	33.6914	78.8989	33.6914	73.7047	33.6914	79.2356	33.6914	73.5714	33.6914	79.4284	33.6914	73.4828	33.6914	79.449	33.6914	73.4395	33.6914	79.2864	33.6914	73.4428	33.6914	78.9511	33.6914	73.4951	33.6914	78.4749	33.6914	73.5998	33.6914	77.9042	33.6914	73.7616	33.6914	77.2896	33.6914	73.9854	33.6914	76.6738	33.6914	74.2753	33.6914	76.0863	33.6914	74.6331	33.6914	75.5442	33.6914	75.0576
35.1562	76.0955	35.1562	75.6442	35.1562	76.5834	35.1562	75.2345	35.1562	77.1	35.1562	74.8698	35.1562	77.6329	35.1562	74.5524	35.1562	78.1633	35.1562	74.2838	35.1562	78.6645	35.1562	74.0651	35.1562	79.1024	35.1562	73.8965	35.1562	79.4385	35.1562	73.778	35.1562	79.6359	35.1562	73.7093	35.1562	79.6668	35.1562	73.6903	35.1562	79.5195	35.1562	73.7209	35.1562	79.2031	35.1562	73.8021	35.1562	78.7476	35.1562	73.9352	35.1562	78.1981	35.1562	74.1224	35.1562	77.6043	35.1562	74.366	35.1562	77.0093	35.1562	74.6677	35.1562	76.442	35.1562	75.028	35.1562	75.9183	35.1562	75.4456
36.6211	76.4876	36.6211	76.0345	36.6211	76.9749	36.6211	75.6205	36.6211	77.4884	36.6211	75.2492	36.6211	78.0159	36.6211	74.9231	36.6211	78.5386	36.6211	74.644	36.6211	79.0302	36.6211	74.4136	36.6211	79.4568	36.6211	74.2327	36.6211	79.7807	36.6211	74.1019	36.6211	79.9655	36.6211	74.0213	36.6211	79.9843	36.6211	73.991	36.6211	79.8262	36.6211	74.0114	36.6211	79.5008	36.6211	74.0832	36.6211	79.038	36.6211	74.2077	36.6211	78.4824	36.6211	74.3873	36.6211	77.8826	36.6211	74.6245	36.6211	77.2809	36.6211	74.9217	36.6211	76.7064	36.6211	75.2801	36.6211	76.1762	36.6211	75.6992
38.0859	76.7301	38.0859	76.249	38.0859	77.2395	38.0859	75.8027	38.0859	77.7679	38.0859	75.3967	38.0859	78.3022	38.0859	75.0351	38.0859	78.823	38.0859	74.7219	38.0859	79.304	38.0859	74.4598	38.0859	79.7124	38.0859	74.2509	38.0859	80.012	38.0859	74.0965	38.0859	80.1689	38.0859	73.9969	38.0859	80.1594	38.0859	73.9526	38.0859	79.9762	38.0859	73.9636	38.0859	79.6321	38.0859	74.0307	38.0859	79.158	38.0859	74.1555	38.0859	78.5964	38.0859	74.3405	38.0859	77.9915	38.0859	74.5888	38.0859	77.38	38.0859	74.9031	38.0859	76.7884	38.0859	75.2841	38.0859	76.2342	38.0859	75.7298
39.5508	77.6087	39.5508	77.0733	39.5508	78.1665	39.5508	76.569	39.5508	78.7365	39.5508	76.1034	39.5508	79.3049	39.5508	75.6833	39.5508	79.8529	39.5508	75.3147	39.5508	80.3541	39.5508	75.0025	39.5508	80.7742	39.5508	74.7504	39.5508	81.0738	39.5508	74.5606	39.5508	81.2149	39.5508	74.4344	39.5508	81.17	39.5508	74.3723	39.5508	80.9317	39.5508	74.3741	39.5508	80.5167	39.5508	74.4396	39.5508	79.9643	39.5508	74.5691	39.5508	79.3264	39.5508	74.7635	39.5508	78.6536	39.5508	75.0244	39.5508	77.9854	39.5508	75.3539	39.5508	77.3474	39.5508	75.7533	39.5508	76.7559	39.5508	76.222
41.0156	80.3176	41.0156	79.9635	41.0156	80.6844	41.0156	79.6238	41.0156	81.0607	41.0156	79.2997	41.0156	81.4389	41.0156	78.9922	41.0156	81.805	41.0156	78.7026	41.0156	82.135	41.0156	78.4326	41.0156	82.3953	41.0156	78.1842	41.0156	82.5456	41.0156	77.96	41.0156	82.5473	41.0156	77.7634	41.0156	82.3744	41.0156	77.5986	41.0156	82.0235	41.0156	77.4711	41.0156	81.5196	41.0156	77.3873	41.0156	80.9151	41.0156	77.3534	41.0156	80.2789	41.0156	77.375	41.0156	79.6764	41.0156	77.4552	41.0156	79.1489	41.0156	77.5943	41.0156	78.7073	41.0156	77.7897	41.0156	78.3419	41.0156	78.0387
42.4805	79.4759	42.4805	79.1235	42.4805	79.8646	42.4805	78.81	42.4805	80.2841	42.4805	78.537	42.4805	80.7251	42.4805	78.3052	42.4805	81.1717	42.4805	78.1149	42.4805	81.6004	42.4805	77.9658	42.4805	81.9791	42.4805	77.8576	42.4805	82.2704	42.4805	77.7897	42.4805	82.4378	42.4805	77.7612	42.4805	82.4542	42.4805	77.771	42.4805	82.3097	42.4805	77.8183	42.4805	82.0173	42.4805	77.9016	42.4805	81.6113	42.4805	78.0197	42.4805	81.1405	42.4805	78.1708	42.4805	80.6551	42.4805	78.3537	42.4805	80.1938	42.4805	78.5674	42.4805	79.7777	42.4805	78.8127	42.4805	79.412	42.4805	79.0925
43.9453	79.8931	43.9453	79.5271	43.9453	80.2961	43.9453	79.2011	43.9453	80.7306	43.9453	78.9168	43.9453	81.1867	43.9453	78.6748	43.9453	81.6483	43.9453	78.4757	43.9453	82.0909	43.9453	78.3193	43.9453	82.4819	43.9453	78.2055	43.9453	82.7833	43.9453	78.1339	43.9453	82.9583	43.9453	78.1037	43.9453	82.9798	43.9453	78.1142	43.9453	82.8382	43.9453	78.1643	43.9453	82.5462	43.9453	78.2527	43.9453	82.1376	43.9453	78.3783	43.9453	81.6602	43.9453	78.5393	43.9453	81.1634	43.9453	78.7344	43.9453	80.6862	43.9453	78.9628	43.9453	80.2508	43.9453	79.2252	43.9453	79.8642	43.9453	79.5241
45.4102	80.0818	45.4102	79.6874	45.4102	80.5104	45.4102	79.3315	45.4102	80.9658	45.4102	79.0168	45.4102	81.4365	45.4102	78.7453	45.4102	81.9047	45.4102	78.5181	45.4102	82.3447	45.4102	78.3362	45.4102	82.7235	45.4102	78.1999	45.4102	83.0039	45.4102	78.1093	45.4102	83.1509	45.4102	78.0639	45.4102	83.1401	45.4102	78.063	45.4102	82.9654	45.4102	78.1056	45.4102	82.6426	45.4102	78.1901	45.4102	82.2081	45.4102	78.315	45.4102	81.7105	45.4102	78.4786	45.4102	81.1982	45.4102	78.6795	45.4102	80.7077	45.4102	78.9167	45.4102	80.259	45.4102	79.1907	45.4102	79.8581	45.4102	79.5034
46.875	80.4442	46.875	80.0429	46.875	80.8783	46.875	79.6799	46.875	81.337	46.875	79.359	46.875	81.8085	46.875	79.0828	46.875	82.2748	46.875	78.8534	46.875	82.7113	46.875	78.6717	46.875	83.0864	46.875	78.5383	46.875	83.3645	46.875	78.4531	46.875	83.512	46.875	78.4153	46.875	83.5057	46.875	78.4236	46.875	83.3395	46.875	78.4764	46.875	83.0289	46.875	78.5718	46.875	82.6089	46.875	78.7075	46.875	82.1259	46.875	78.8813	46.875	81.6257	46.875	79.0915	46.875	81.143	46.875	79.337	46.875	80.6973	46.875	79.6181	46.875	80.2952	46.875	79.9365
48.3398	80.9557	48.3398	80.5506	48.3398	81.3896	48.3398	80.1804	48.3398	81.8439	48.3398	79.8498	48.3398	82.3062	48.3398	79.562	48.3398	82.7592	48.3398	79.3195	48.3398	83.179	48.3398	79.1239	48.3398	83.5352	48.3398	78.9763	48.3398	83.7937	48.3398	78.8769	48.3398	83.9224	48.3398	78.8253	48.3398	83.8993	48.3398	78.8204	48.3398	83.7194	48.3398	78.8609	48.3398	83.3987	48.3398	78.945	48.3398	82.9722	48.3398	79.0707	48.3398	82.4854	48.3398	79.2362	48.3398	81.9826	48.3398	79.4401	48.3398	81.4972	48.3398	79.6817	48.3398	81.0479	48.3398	79.9613	48.3398	80.6422	48.3398	80.2807
51.2695	81.9569	51.2695	81.5525	51.2695	82.386	51.2695	81.179	51.2695	82.8309	51.2695	80.8416	51.2695	83.2797	51.2695	80.544	51.2695	83.7155	51.2695	80.2895	51.2695	84.1152	51.2695	80.0801	51.2695	84.4494	51.2695	79.9174	51.2695	84.6851	51.2695	79.8022	51.2695	84.7919	51.2695	79.7345	51.2695	84.7492	51.2695	79.7141	51.2695	84.554	51.2695	79.7401	51.2695	84.2241	51.2695	79.8112	51.2695	83.795	51.2695	79.9263	51.2695	83.3115	51.2695	80.0838	51.2695	82.8152	51.2695	80.2827	51.2695	82.3361	51.2695	80.5223	51.2695	81.8908	51.2695	80.8022	51.2695	81.4859	51.2695	81.1232
52.7344	82.4876	52.7344	82.0853	52.7344	82.9124	52.7344	81.7122	52.7344	83.3509	52.7344	81.3738	52.7344	83.791	52.7344	81.0745	52.7344	84.2162	52.7344	80.8179	52.7344	84.6038	52.7344	80.6065	52.7344	84.9249	52.7344	80.4421	52.7344	85.1475	52.7344	80.3255	52.7344	85.2423	52.7344	80.257	52.7344	85.19	52.7344	80.2363	52.7344	84.9892	52.7344	80.2625	52.7344	84.6588	52.7344	80.3346	52.7344	84.2353	52.7344	80.4512	52.7344	83.7631	52.7344	80.6105	52.7344	83.2822	52.7344	80.8109	52.7344	82.82	52.7344	81.0507	52.7344	82.3905	52.7344	81.3288	52.7344	81.9984	52.7344	81.6446
54.1992	82.8635	54.1992	82.4674	54.1992	83.2832	54.1992	82.1016	54.1992	83.7177	54.1992	81.7711	54.1992	84.1548	54.1992	81.4802	54.1992	84.5778	54.1992	81.2319	54.1992	84.9636	54.1992	81.0287	54.1992	85.2834	54.1992	80.8719	54.1992	85.505	54.1992	80.7623	54.1992	85.5991	54.1992	80.7002	54.1992	85.5465	54.1992	80.6849	54.1992	85.3461	54.1992	80.7157	54.1992	85.0171	54.1992	80.791	54.1992	84.5967	54.1992	80.9091	54.1992	84.1299	54.1992	81.0679	54.1992	83.6569	54.1992	81.2649	54.1992	83.2053	54.1992	81.4983	54.1992	82.7886	54.1992	81.7668	54.1992	82.4105	54.1992	82.0705
55.6641	83.2742	55.6641	82.8727	55.6641	83.7	55.6641	82.5029	55.6641	84.1405	55.6641	82.1705	55.6641	84.5825	55.6641	81.8799	55.6641	85.0079	55.6641	81.6346	55.6641	85.393	55.6641	81.4369	55.6641	85.7082	55.6641	81.2883	55.6641	85.9215	55.6641	81.1891	55.6641	86.0039	55.6641	81.139	55.6641	85.9375	55.6641	81.1365	55.6641	85.7226	55.6641	81.1796	55.6641	85.3804	55.6641	81.2654	55.6641	84.9502	55.6641	81.3905	55.6641	84.479	55.6641	81.5509	55.6641	84.0088	55.6641	81.7433	55.6641	83.5678	55.6641	81.965	55.6641	83.1685	55.6641	82.2156	55.6641	82.8128	55.6641	82.4968
58.5938	84.401	58.5938	83.9931	58.5938	84.8337	58.5938	83.6171	58.5938	85.2816	58.5938	83.2782	58.5938	85.7317	58.5938	82.9804	58.5938	86.1661	58.5938	82.7267	58.5938	86.5612	58.5938	82.5192	58.5938	86.8875	58.5938	82.3596	58.5938	87.1119	58.5938	82.2488	58.5938	87.2039	58.5938	82.1869	58.5938	87.1441	58.5938	82.1737	58.5938	86.9323	58.5938	82.208	58.5938	86.5912	58.5938	82.2881	58.5938	86.1617	58.5938	82.4118	58.5938	85.6908	58.5938	82.5766	58.5938	85.2173	58.5938	82.7801	58.5938	84.7647	58.5938	83.0205	58.5938	84.3438	58.5938	83.297	58.5938	83.9584	58.5938	83.6094
60.0586	84.7729	60.0586	84.3613	60.0586	85.2108	60.0586	83.9838	60.0586	85.6645	60.0586	83.6458	60.0586	86.1204	60.0586	83.3514	60.0586	86.5601	60.0586	83.1034	60.0586	86.9599	60.0586	82.9037	60.0586	87.2907	60.0586	82.7533	60.0586	87.5203	60.0586	82.6527	60.0586	87.6186	60.0586	82.6016	60.0586	87.5667	60.0586	82.599	60.0586	87.364	60.0586	82.6435	60.0586	87.0329	60.0586	82.733	60.0586	86.6136	60.0586	82.8651	60.0586	86.1522	60.0586	83.037	60.0586	85.6866	60.0586	83.2466	60.0586	85.2397	60.0586	83.492	60.0586	84.8221	60.0586	83.7723	60.0586	84.4375	60.0586	84.0874
62.9883	85.6384	62.9883	85.2195	62.9883	86.0803	62.9883	84.8321	62.9883	86.5342	62.9883	84.4829	62.9883	86.9864	62.9883	84.177	62.9883	87.4189	62.9883	83.9181	62.9883	87.8088	62.9883	83.7088	62.9883	88.1277	62.9883	83.5507	62.9883	88.3441	62.9883	83.4443	62.9883	88.4292	62.9883	83.3895	62.9883	88.3649	62.9883	83.3852	62.9883	88.1527	62.9883	83.4297	62.9883	87.8164	62.9883	83.521	62.9883	87.3969	62.9883	83.6563	62.9883	86.9399	62.9883	83.8327	62.9883	86.4813	62.9883	84.0475	62.9883	86.042	62.9883	84.2981	62.9883	85.6305	62.9883	84.5826	62.9883	85.2496	62.9883	84.9001
64.4531	86.0361	64.4531	85.6151	64.4531	86.4791	64.4531	85.2248	64.4531	86.9328	64.4531	84.8723	64.4531	87.3831	64.4531	84.563	64.4531	87.8119	64.4531	84.3009	64.4531	88.196	64.4531	84.0888	64.4531	88.5071	64.4531	83.9282	64.4531	88.714	64.4531	83.8198	64.4531	88.7884	64.4531	83.7634	64.4531	88.7132	64.4531	83.7576	64.4531	88.4909	64.4531	83.8007	64.4531	88.1464	64.4531	83.8902	64.4531	87.7216	64.4531	84.0232	64.4531	87.2625	64.4531	84.1966	64.4531	86.8048	64.4531	84.4073	64.4531	86.3686	64.4531	84.6529	64.4531	85.9617	64.4531	84.9317	64.4531	85.5864	64.4531	85.243
67.3828	86.7327	67.3828	86.3032	67.3828	87.1814	67.3828	85.9024	67.3828	87.6381	67.3828	85.5383	67.3828	88.0889	67.3828	85.2176	67.3828	88.5162	67.3828	84.9455	67.3828	88.898	67.3828	84.726	67.3828	89.2072	67.3828	84.5614	67.3828	89.4139	67.3828	84.4528	67.3828	89.4907	67.3828	84.3999	67.3828	89.4212	67.3828	84.4011	67.3828	89.2071	67.3828	84.4539	67.3828	88.8723	67.3828	84.555	67.3828	88.4567	67.3828	84.7006	67.3828	88.0045	67.3828	84.8866	67.3828	87.5505	67.3828	85.1095	67.3828	87.1145	67.3828	85.3662	67.3828	86.7051	67.3828	85.6549	67.3828	86.3248	67.3828	85.9746
68.8477	87.1218	68.8477	86.6972	68.8477	87.5644	68.8477	86.2996	68.8477	88.0139	68.8477	85.9369	68.8477	88.4566	68.8477	85.6157	68.8477	88.8757	68.8477	85.3413	68.8477	89.2495	68.8477	85.1179	68.8477	89.552	68.8477	84.9482	68.8477	89.7542	68.8477	84.8338	68.8477	89.8299	68.8477	84.7747	68.8477	89.7629	68.8477	84.7699	68.8477	89.5554	68.8477	84.8171	68.8477	89.2301	68.8477	84.9134	68.8477	88.8252	68.8477	85.0554	68.8477	88.3822	68.8477	85.2395	68.8477	87.9336	68.8477	85.4624	68.8477	87.4984	68.8477	85.7216	68.8477	87.0854	68.8477	86.015	68.8477	86.6987	68.8477	86.3412
