"SPL Vertical"
"On-Axis"		"10°"		"-10°"		"20°"		"-20°"		"30°"		"-30°"		"40°"		"-40°"		"50°"		"-50°"		"60°"		"-60°"		"70°"		"-70°"		"80°"		"-80°"		"90°"		"-90°"		"100°"		"-100°"		"110°"		"-110°"		"120°"		"-120°"		"130°"		"-130°"		"140°"		"-140°"		"150°"		"-150°"		"160°"		"-160°"		"170°"		"-170°"		"180°"
"Frequency / Hz"	"Sound Pressure Level / dB (re 20 µPa/V)  [2.83  V @ 1. m]"	"Frequency / Hz"	"Sound Pressure Level / dB (re 20 µPa/V)  [2.83  V @ 1. m]"	"Frequency / Hz"	"Sound Pressure Level / dB (re 20 µPa/V)  [2.83  V @ 1. m]"	"Frequency / Hz"	"Sound Pressure Level / dB (re 20 µPa/V)  [2.83  V @ 1. m]"	"Frequency / Hz"	"Sound Pressure Level / dB (re 20 µPa/V)  [2.83  V @ 1. m]"	"Frequency / Hz"	"Sound Pressure Level / dB (re 20 µPa/V)  [2.83  V @ 1. m]"	"Frequency / Hz"	"Sound Pressure Level / dB (re 20 µPa/V)  [2.83  V @ 1. m]"	"Frequency / Hz"	"Sound Pressure Level / dB (re 20 µPa/V)  [2.83  V @ 1. m]"	"Frequency / Hz"	"Sound Pressure Level / dB (re 20 µPa/V)  [2.83  V @ 1. m]"	"Frequency / Hz"	"Sound Pressure Level / dB (re 20 µPa/V)  [2.83  V @ 1. m]"	"Frequency / Hz"	"Sound Pressure Level / dB (re 20 µPa/V)  [2.83  V @ 1. m]"	"Frequency / Hz"	"Sound Pressure Level / dB (re 20 µPa/V)  [2.83  V @ 1. m]"	"Frequency / Hz"	"Sound Pressure Level / dB (re 20 µPa/V)  [2.83  V @ 1. m]"	"Frequency / Hz"	"Sound Pressure Level / dB (re 20 µPa/V)  [2.83  V @ 1. m]"	"Frequency / Hz"	"Sound Pressure Level / dB (re 20 µPa/V)  [2.83  V @ 1. m]"	"Frequency / Hz"	"Sound Pressure Level / dB (re 20 µPa/V)  [2.83  V @ 1. m]"	"Frequency / Hz"	"Sound Pressure Level / dB (re 20 µPa/V)  [2.83  V @ 1. m]"	"Frequency / Hz"	"Sound Pressure Level / dB (re 20 µPa/V)  [2.83  V @ 1. m]"	"Frequency / Hz"	"Sound Pressure Level / dB (re 20 µPa/V)  [2.83  V @ 1. m]"	"Frequency / Hz"	"Sound Pressure Level / dB (re 20 µPa/V)  [2.83  V @ 1. m]"	"Frequency / Hz"	"Sound Pressure Level / dB (re 20 µPa/V)  [2.83  V @ 1. m]"	"Frequency / Hz"	"Sound Pressure Level / dB (re 20 µPa/V)  [2.83  V @ 1. m]"	"Frequency / Hz"	"Sound Pressure Level / dB (re 20 µPa/V)  [2.83  V @ 1. m]"	"Frequency / Hz"	"Sound Pressure Level / dB (re 20 µPa/V)  [2.83  V @ 1. m]"	"Frequency / Hz"	"Sound Pressure Level / dB (re 20 µPa/V)  [2.83  V @ 1. m]"	"Frequency / Hz"	"Sound Pressure Level / dB (re 20 µPa/V)  [2.83  V @ 1. m]"	"Frequency / Hz"	"Sound Pressure Level / dB (re 20 µPa/V)  [2.83  V @ 1. m]"	"Frequency / Hz"	"Sound Pressure Level / dB (re 20 µPa/V)  [2.83  V @ 1. m]"	"Frequency / Hz"	"Sound Pressure Level / dB (re 20 µPa/V)  [2.83  V @ 1. m]"	"Frequency / Hz"	"Sound Pressure Level / dB (re 20 µPa/V)  [2.83  V @ 1. m]"	"Frequency / Hz"	"Sound Pressure Level / dB (re 20 µPa/V)  [2.83  V @ 1. m]"	"Frequency / Hz"	"Sound Pressure Level / dB (re 20 µPa/V)  [2.83  V @ 1. m]"	"Frequency / Hz"	"Sound Pressure Level / dB (re 20 µPa/V)  [2.83  V @ 1. m]"	"Frequency / Hz"	"Sound Pressure Level / dB (re 20 µPa/V)  [2.83  V @ 1. m]"	"Frequency / Hz"	"Sound Pressure Level / dB (re 20 µPa/V)  [2.83  V @ 1. m]"	"Frequency / Hz"	"Sound Pressure Level / dB (re 20 µPa/V)  [2.83  V @ 1. m]"
20.5078	46.9394	20.5078	46.8505	20.5078	47.008	20.5078	46.7587	20.5078	47.0424	20.5078	46.6842	20.5078	47.0343	20.5078	46.6484	20.5078	46.9836	20.5078	46.6723	20.5078	46.9019	20.5078	46.7746	20.5078	46.8169	20.5078	46.9687	20.5078	46.7751	20.5078	47.2601	20.5078	46.8373	20.5078	47.6437	20.5078	47.0607	20.5078	48.1045	20.5078	47.472	20.5078	48.6188	20.5078	48.0479	20.5078	49.1579	20.5078	48.7227	20.5078	49.6908	20.5078	49.4147	20.5078	50.187	20.5078	50.0508	20.5078	50.6172	20.5078	50.5776	20.5078	50.9546	20.5078	50.9626	20.5078	51.1751	20.5078	51.1903	20.5078	51.2586
21.9727	52.56	21.9727	52.3572	21.9727	52.6947	21.9727	52.0921	21.9727	52.7549	21.9727	51.7699	21.9727	52.7339	21.9727	51.3958	21.9727	52.6256	21.9727	50.9753	21.9727	52.4252	21.9727	50.5159	21.9727	52.1305	21.9727	50.0284	21.9727	51.7435	21.9727	49.5287	21.9727	51.2724	21.9727	49.0392	21.9727	50.7351	21.9727	48.5895	21.9727	50.1622	21.9727	48.2131	21.9727	49.5983	21.9727	47.9411	21.9727	49.0966	21.9727	47.791	21.9727	48.705	21.9727	47.7585	21.9727	48.4456	21.9727	47.8164	21.9727	48.3036	21.9727	47.9233	21.9727	48.2355	21.9727	48.0375	21.9727	48.1903	21.9727	48.1295
23.4375	42.252	23.4375	42.2162	23.4375	42.2359	23.4375	42.1751	23.4375	42.1448	23.4375	42.1975	23.4375	41.9836	23.4375	42.3645	23.4375	41.7954	23.4375	42.7469	23.4375	41.6795	23.4375	43.3753	23.4375	41.7959	23.4375	44.2241	23.4375	42.31	23.4375	45.2271	23.4375	43.2749	23.4375	46.3064	23.4375	44.5765	23.4375	47.3948	23.4375	46.0227	23.4375	48.4418	23.4375	47.4508	23.4375	49.4121	23.4375	48.7594	23.4375	50.2801	23.4375	49.8948	23.4375	51.0259	23.4375	50.8308	23.4375	51.6325	23.4375	51.5562	23.4375	52.0843	23.4375	52.0681	23.4375	52.3664	23.4375	52.369	23.4375	52.4652
24.9023	45.9364	24.9023	45.6794	24.9023	46.0583	24.9023	45.3009	24.9023	46.0326	24.9023	44.8207	24.9023	45.8459	24.9023	44.2723	24.9023	45.4838	24.9023	43.7165	24.9023	44.9341	24.9023	43.2539	24.9023	44.196	24.9023	43.0214	24.9023	43.3075	24.9023	43.1439	24.9023	42.4048	24.9023	43.6544	24.9023	41.7984	24.9023	44.4654	24.9023	41.8928	24.9023	45.4291	24.9023	42.7884	24.9023	46.4113	24.9023	44.1405	24.9023	47.3194	24.9023	45.5536	24.9023	48.0961	24.9023	46.8099	24.9023	48.7062	24.9023	47.8269	24.9023	49.1263	24.9023	48.583	24.9023	49.3385	24.9023	49.08	24.9023	49.3277
26.3672	48.8857	26.3672	48.7362	26.3672	49.0371	26.3672	48.627	26.3672	49.1685	26.3672	48.6091	26.3672	49.2758	26.3672	48.7364	26.3672	49.3747	26.3672	49.049	26.3672	49.5015	26.3672	49.5575	26.3672	49.7115	26.3672	50.238	26.3672	50.0662	26.3672	51.0423	26.3672	50.6089	26.3672	51.9144	26.3672	51.3398	26.3672	52.8034	26.3672	52.2116	26.3672	53.6682	26.3672	53.1494	26.3672	54.4772	26.3672	54.0764	26.3672	55.2059	26.3672	54.9304	26.3672	55.8346	26.3672	55.667	26.3672	56.3461	26.3672	56.2578	26.3672	56.7253	26.3672	56.6866	26.3672	56.9587	26.3672	56.9458	26.3672	57.035
27.832	54.8806	27.832	54.813	27.832	54.9449	27.832	54.7638	27.832	54.9921	27.832	54.76	27.832	55.0175	27.832	54.8309	27.832	55.0276	27.832	55.0028	27.832	55.0418	27.832	55.2923	27.832	55.0937	27.832	55.7019	27.832	55.2283	27.832	56.2181	27.832	55.4912	27.832	56.8148	27.832	55.9113	27.832	57.4587	27.832	56.4848	27.832	58.115	27.832	57.1728	27.832	58.7509	27.832	57.9149	27.832	59.3368	27.832	58.6473	27.832	59.8469	27.832	59.3157	27.832	60.2589	27.832	59.8797	27.832	60.5537	27.832	60.3127	27.832	60.7157	27.832	60.5992	27.832	60.7332
29.2969	59.56	29.2969	59.4964	29.2969	59.6172	29.2969	59.441	29.2969	59.659	29.2969	59.4128	29.2969	59.6826	29.2969	59.433	29.2969	59.6932	29.2969	59.5226	29.2969	59.7046	29.2969	59.6988	29.2969	59.7405	29.2969	59.9704	29.2969	59.8326	29.2969	60.3359	29.2969	60.015	29.2969	60.7824	29.2969	60.3138	29.2969	61.288	29.2969	60.7353	29.2969	61.825	29.2969	61.2599	29.2969	62.3639	29.2969	61.8463	29.2969	62.8756	29.2969	62.4431	29.2969	63.3328	29.2969	63.0005	29.2969	63.7114	29.2969	63.4774	29.2969	63.9905	29.2969	63.8444	29.2969	64.1529	29.2969	64.0834	29.2969	64.1862
30.7617	62.4248	30.7617	62.3517	30.7617	62.4888	30.7617	62.2828	30.7617	62.5353	30.7617	62.2353	30.7617	62.5614	30.7617	62.2289	30.7617	62.571	30.7617	62.2835	30.7617	62.576	30.7617	62.4162	30.7617	62.5969	30.7617	62.6379	30.7617	62.6617	30.7617	62.9498	30.7617	62.8014	30.7617	63.3427	30.7617	63.0418	30.7617	63.7979	30.7617	63.393	30.7617	64.2901	30.7617	63.8428	30.7617	64.7908	30.7617	64.3582	30.7617	65.2708	30.7617	64.8939	30.7617	65.7029	30.7617	65.4029	30.7617	66.0621	30.7617	65.8446	30.7617	66.3273	30.7617	66.1884	30.7617	66.4815	30.7617	66.4143	30.7617	66.5124
32.2266	64.7994	32.2266	64.7447	32.2266	64.8515	32.2266	64.6985	32.2266	64.8943	32.2266	64.675	32.2266	64.9258	32.2266	64.6906	32.2266	64.9499	32.2266	64.7619	32.2266	64.9769	32.2266	64.9029	32.2266	65.0239	32.2266	65.1224	32.2266	65.1135	32.2266	65.4214	32.2266	65.2703	32.2266	65.7919	32.2266	65.5142	32.2266	66.218	32.2266	65.8523	32.2266	66.6776	32.2266	66.2742	32.2266	67.1452	32.2266	66.7521	32.2266	67.5941	32.2266	67.2474	32.2266	67.9988	32.2266	67.7189	32.2266	68.3356	32.2266	68.1297	32.2266	68.5841	32.2266	68.4509	32.2266	68.7281	32.2266	68.6632	32.2266	68.7562
33.6914	67.2994	33.6914	67.2271	33.6914	67.3649	33.6914	67.1576	33.6914	67.4177	33.6914	67.1036	33.6914	67.4559	33.6914	67.0798	33.6914	67.4823	33.6914	67.1024	33.6914	67.5049	33.6914	67.186	33.6914	67.5378	33.6914	67.3418	33.6914	67.6003	33.6914	67.5746	33.6914	67.7141	33.6914	67.8809	33.6914	67.899	33.6914	68.2487	33.6914	68.1654	33.6914	68.659	33.6914	68.5094	33.6914	69.0876	33.6914	68.9108	33.6914	69.5082	33.6914	69.3369	33.6914	69.8945	33.6914	69.7501	33.6914	70.2219	33.6914	70.1141	33.6914	70.4689	33.6914	70.3992	33.6914	70.6183	33.6914	70.5846	33.6914	70.6586
35.1562	68.9266	35.1562	68.8654	35.1562	68.9875	35.1562	68.8131	35.1562	69.0423	35.1562	68.7813	35.1562	69.0887	35.1562	68.7833	35.1562	69.1292	35.1562	68.8328	35.1562	69.171	35.1562	68.9419	35.1562	69.2267	35.1562	69.119	35.1562	69.3133	35.1562	69.3663	35.1562	69.4499	35.1562	69.6793	35.1562	69.6526	35.1562	70.0461	35.1562	69.9294	35.1562	70.4487	35.1562	70.2752	35.1562	70.8651	35.1562	70.6706	35.1562	71.2709	35.1562	71.0858	35.1562	71.6421	35.1562	71.4862	35.1562	71.9555	35.1562	71.8383	35.1562	72.191	35.1562	72.1146	35.1562	72.3324	35.1562	72.2951	35.1562	72.3686
36.6211	70.895	36.6211	70.8399	36.6211	70.9519	36.6211	70.7943	36.6211	71.0059	36.6211	70.7679	36.6211	71.0552	36.6211	70.7717	36.6211	71.1017	36.6211	70.8173	36.6211	71.1515	36.6211	70.915	36.6211	71.2146	36.6211	71.0723	36.6211	71.3049	36.6211	71.2921	36.6211	71.4377	36.6211	71.5714	36.6211	71.6263	36.6211	71.9009	36.6211	71.8777	36.6211	72.2655	36.6211	72.1881	36.6211	72.6461	36.6211	72.542	36.6211	73.0205	36.6211	72.9141	36.6211	73.3659	36.6211	73.274	36.6211	73.6605	36.6211	73.5912	36.6211	73.8845	36.6211	73.8397	36.6211	74.0219	36.6211	74.0003	36.6211	74.062
38.0859	72.6839	38.0859	72.6308	38.0859	72.7406	38.0859	72.5874	38.0859	72.7968	38.0859	72.5618	38.0859	72.851	38.0859	72.563	38.0859	72.9045	38.0859	72.6007	38.0859	72.9621	38.0859	72.6838	38.0859	73.0317	38.0859	72.819	38.0859	73.1244	38.0859	73.0097	38.0859	73.2523	38.0859	73.2543	38.0859	73.4261	38.0859	73.546	38.0859	73.6516	38.0859	73.8725	38.0859	73.9262	38.0859	74.2173	38.0859	74.2373	38.0859	74.5607	38.0859	74.564	38.0859	74.8814	38.0859	74.8799	38.0859	75.1585	38.0859	75.1579	38.0859	75.3729	38.0859	75.3741	38.0859	75.5092	38.0859	75.5105	38.0859	75.5565
39.5508	74.1625	39.5508	74.1102	39.5508	74.2197	39.5508	74.0683	39.5508	74.2785	39.5508	74.0435	39.5508	74.3372	39.5508	74.0437	39.5508	74.3969	39.5508	74.0771	39.5508	74.461	39.5508	74.1516	39.5508	74.5359	39.5508	74.273	39.5508	74.6301	39.5508	74.4448	39.5508	74.7534	39.5508	74.6659	39.5508	74.9146	39.5508	74.9309	39.5508	75.1185	39.5508	75.2293	39.5508	75.3636	39.5508	75.5464	39.5508	75.64	39.5508	75.8642	39.5508	75.9302	39.5508	76.163	39.5508	76.2113	39.5508	76.4231	39.5508	76.459	39.5508	76.6264	39.5508	76.6511	39.5508	76.7578	39.5508	76.7707	39.5508	76.8072
41.0156	75.4031	41.0156	75.3465	41.0156	75.4655	41.0156	75.3008	41.0156	75.5299	41.0156	75.272	41.0156	75.5945	41.0156	75.2672	41.0156	75.6595	41.0156	75.2937	41.0156	75.7271	41.0156	75.3581	41.0156	75.8025	41.0156	75.4658	41.0156	75.8925	41.0156	75.6199	41.0156	76.0053	41.0156	75.8199	41.0156	76.1487	41.0156	76.0611	41.0156	76.3276	41.0156	76.3344	41.0156	76.5415	41.0156	76.6267	41.0156	76.7832	41.0156	76.9214	41.0156	77.0382	41.0156	77.2003	41.0156	77.2868	41.0156	77.4445	41.0156	77.507	41.0156	77.6367	41.0156	77.6781	41.0156	77.7627	41.0156	77.7835	41.0156	77.8128
42.4805	76.4888	42.4805	76.4429	42.4805	76.5412	42.4805	76.4073	42.4805	76.5972	42.4805	76.387	42.4805	76.6556	42.4805	76.3876	42.4805	76.7164	42.4805	76.4151	42.4805	76.7818	42.4805	76.4755	42.4805	76.8555	42.4805	76.5735	42.4805	76.9432	42.4805	76.712	42.4805	77.0515	42.4805	76.8914	42.4805	77.1868	42.4805	77.108	42.4805	77.3532	42.4805	77.3546	42.4805	77.5506	42.4805	77.6198	42.4805	77.7727	42.4805	77.889	42.4805	78.0069	42.4805	78.1455	42.4805	78.2354	42.4805	78.3716	42.4805	78.438	42.4805	78.5508	42.4805	78.5953	42.4805	78.6691	42.4805	78.6917	42.4805	78.7173
43.9453	77.3829	43.9453	77.3387	43.9453	77.4348	43.9453	77.3055	43.9453	77.4917	43.9453	77.2877	43.9453	77.5524	43.9453	77.2902	43.9453	77.6166	43.9453	77.318	43.9453	77.686	43.9453	77.3761	43.9453	77.7635	43.9453	77.4685	43.9453	77.8534	43.9453	77.5979	43.9453	77.9611	43.9453	77.7643	43.9453	78.0917	43.9453	77.9649	43.9453	78.2484	43.9453	78.1932	43.9453	78.431	43.9453	78.4391	43.9453	78.6339	43.9453	78.6897	43.9453	78.8463	43.9453	78.9296	43.9453	79.0524	43.9453	79.1424	43.9453	79.2343	43.9453	79.3126	43.9453	79.3744	43.9453	79.427	43.9453	79.4583	43.9453	79.4767
45.4102	78.002	45.4102	77.9582	45.4102	78.0563	45.4102	77.928	45.4102	78.1188	45.4102	77.9151	45.4102	78.1879	45.4102	77.9233	45.4102	78.2631	45.4102	77.9566	45.4102	78.3451	45.4102	78.0188	45.4102	78.4356	45.4102	78.1131	45.4102	78.5378	45.4102	78.2411	45.4102	78.6551	45.4102	78.4027	45.4102	78.7911	45.4102	78.5952	45.4102	78.9476	45.4102	78.8128	45.4102	79.1238	45.4102	79.0468	45.4102	79.3144	45.4102	79.2854	45.4102	79.5099	45.4102	79.5146	45.4102	79.6965	45.4102	79.7197	45.4102	79.8585	45.4102	79.8861	45.4102	79.9803	45.4102	80.0014	45.4102	80.0491	45.4102	80.0569
46.875	78.7054	46.875	78.6608	46.875	78.7593	46.875	78.6279	46.875	78.8207	46.875	78.6094	46.875	78.888	46.875	78.6081	46.875	78.9606	46.875	78.6274	46.875	79.0382	46.875	78.6704	46.875	79.1216	46.875	78.7399	46.875	79.2124	46.875	78.8382	46.875	79.313	46.875	78.9657	46.875	79.4258	46.875	79.1211	46.875	79.5526	46.875	79.3006	46.875	79.6931	46.875	79.4974	46.875	79.844	46.875	79.7019	46.875	79.9981	46.875	79.9021	46.875	80.1447	46.875	80.0847	46.875	80.2707	46.875	80.2366	46.875	80.3629	46.875	80.3461	46.875	80.4101	46.875	80.4051
48.3398	79.0542	48.3398	79.0076	48.3398	79.1092	48.3398	78.9717	48.3398	79.171	48.3398	78.949	48.3398	79.2382	48.3398	78.9426	48.3398	79.3099	48.3398	78.9554	48.3398	79.3862	48.3398	78.9905	48.3398	79.4675	48.3398	79.0508	48.3398	79.5551	48.3398	79.1382	48.3398	79.6507	48.3398	79.2535	48.3398	79.7564	48.3398	79.3957	48.3398	79.8732	48.3398	79.5612	48.3398	80.0009	48.3398	79.744	48.3398	80.1363	48.3398	79.9354	48.3398	80.2733	48.3398	80.1242	48.3398	80.4023	48.3398	80.298	48.3398	80.5117	48.3398	80.4443	48.3398	80.5896	48.3398	80.5523	48.3398	80.6258	48.3398	80.6139
51.2695	79.6029	51.2695	79.5604	51.2695	79.6559	51.2695	79.5301	51.2695	79.718	51.2695	79.5135	51.2695	79.7877	51.2695	79.5123	51.2695	79.8637	51.2695	79.5284	51.2695	79.9448	51.2695	79.5633	51.2695	80.0303	51.2695	79.6184	51.2695	80.1195	51.2695	79.6949	51.2695	80.2123	51.2695	79.793	51.2695	80.3087	51.2695	79.9116	51.2695	80.4089	51.2695	80.0485	51.2695	80.5121	51.2695	80.1991	51.2695	80.6166	51.2695	80.3569	51.2695	80.7184	51.2695	80.5136	51.2695	80.8116	51.2695	80.6594	51.2695	80.8881	51.2695	80.7843	51.2695	80.9393	51.2695	80.8794	51.2695	80.9576	51.2695	80.9381
52.7344	79.8619	52.7344	79.8196	52.7344	79.9153	52.7344	79.7896	52.7344	79.9784	52.7344	79.7732	52.7344	80.0499	52.7344	79.7716	52.7344	80.1281	52.7344	79.7863	52.7344	80.2117	52.7344	79.8182	52.7344	80.2992	52.7344	79.8687	52.7344	80.3894	52.7344	79.9383	52.7344	80.4814	52.7344	80.0274	52.7344	80.5745	52.7344	80.1353	52.7344	80.6685	52.7344	80.2601	52.7344	80.7625	52.7344	80.3981	52.7344	80.855	52.7344	80.5438	52.7344	80.9429	52.7344	80.6898	52.7344	81.0212	52.7344	80.8274	52.7344	81.0832	52.7344	80.9475	52.7344	81.1215	52.7344	81.0415	52.7344	81.1296	52.7344	81.1031
54.1992	79.993	54.1992	79.9557	54.1992	80.0426	54.1992	79.9319	54.1992	80.1036	54.1992	79.9221	54.1992	80.1742	54.1992	79.9269	54.1992	80.2527	54.1992	79.9466	54.1992	80.3372	54.1992	79.9817	54.1992	80.4253	54.1992	80.0322	54.1992	80.5154	54.1992	80.0986	54.1992	80.6056	54.1992	80.1807	54.1992	80.6949	54.1992	80.278	54.1992	80.7823	54.1992	80.3889	54.1992	80.8672	54.1992	80.5106	54.1992	80.9481	54.1992	80.6388	54.1992	81.0228	54.1992	80.7674	54.1992	81.0874	54.1992	80.8893	54.1992	81.1369	54.1992	80.9966	54.1992	81.1653	54.1992	81.0819	54.1992	81.1674	54.1992	81.1397
55.6641	80.1938	55.6641	80.1546	55.6641	80.2433	55.6641	80.1264	55.6641	80.3019	55.6641	80.1096	55.6641	80.3679	55.6641	80.1046	55.6641	80.4395	55.6641	80.1115	55.6641	80.5143	55.6641	80.1306	55.6641	80.5901	55.6641	80.1622	55.6641	80.6648	55.6641	80.2068	55.6641	80.7366	55.6641	80.2647	55.6641	80.8046	55.6641	80.3361	55.6641	80.868	55.6641	80.4202	55.6641	80.9266	55.6641	80.5153	55.6641	80.98	55.6641	80.6183	55.6641	81.0271	55.6641	80.7245	55.6641	81.0655	55.6641	80.8279	55.6641	81.0918	55.6641	80.9218	55.6641	81.1016	55.6641	80.9998	55.6641	81.0908	55.6641	81.057
58.5938	80.2572	58.5938	80.2173	58.5938	80.3075	58.5938	80.188	58.5938	80.3672	58.5938	80.1696	58.5938	80.4354	58.5938	80.1621	58.5938	80.5103	58.5938	80.1658	58.5938	80.5899	58.5938	80.1806	58.5938	80.6715	58.5938	80.2068	58.5938	80.7524	58.5938	80.2446	58.5938	80.8298	58.5938	80.2942	58.5938	80.9013	58.5938	80.3557	58.5938	80.965	58.5938	80.4288	58.5938	81.0194	58.5938	80.5124	58.5938	81.0636	58.5938	80.6042	58.5938	81.0966	58.5938	80.701	58.5938	81.1172	58.5938	80.7981	58.5938	81.1235	58.5938	80.89	58.5938	81.1134	58.5938	80.9712	58.5938	81.0848	58.5938	81.0371
60.0586	80.2868	60.0586	80.2487	60.0586	80.3357	60.0586	80.2218	60.0586	80.3949	60.0586	80.2059	60.0586	80.4631	60.0586	80.2007	60.0586	80.5385	60.0586	80.2057	60.0586	80.6183	60.0586	80.2206	60.0586	80.6995	60.0586	80.2451	60.0586	80.7789	60.0586	80.2792	60.0586	80.8531	60.0586	80.3229	60.0586	80.9193	60.0586	80.3762	60.0586	80.9754	60.0586	80.4391	60.0586	81.0202	60.0586	80.5108	60.0586	81.053	60.0586	80.59	60.0586	81.0737	60.0586	80.6741	60.0586	81.0822	60.0586	80.7594	60.0586	81.0779	60.0586	80.8415	60.0586	81.0598	60.0586	80.9158	60.0586	81.0267	60.0586	80.9784
62.9883	80.4747	62.9883	80.4341	62.9883	80.5262	62.9883	80.4045	62.9883	80.5876	62.9883	80.3858	62.9883	80.6575	62.9883	80.3772	62.9883	80.7337	62.9883	80.3779	62.9883	80.8132	62.9883	80.3873	62.9883	80.8924	62.9883	80.4045	62.9883	80.9678	62.9883	80.4291	62.9883	81.0356	62.9883	80.461	62.9883	81.0925	62.9883	80.5002	62.9883	81.1362	62.9883	80.5469	62.9883	81.1654	62.9883	80.6011	62.9883	81.1797	62.9883	80.6622	62.9883	81.1798	62.9883	80.7291	62.9883	81.1669	62.9883	80.7997	62.9883	81.1419	62.9883	80.871	62.9883	81.1059	62.9883	80.9401	62.9883	81.0595	62.9883	81.0037
64.4531	80.4715	64.4531	80.4306	64.4531	80.5234	64.4531	80.4009	64.4531	80.5855	64.4531	80.382	64.4531	80.6563	64.4531	80.3733	64.4531	80.7335	64.4531	80.374	64.4531	80.8143	64.4531	80.3831	64.4531	80.8951	64.4531	80.3999	64.4531	80.9719	64.4531	80.4236	64.4531	81.0409	64.4531	80.4541	64.4531	81.0984	64.4531	80.4911	64.4531	81.1419	64.4531	80.535	64.4531	81.1697	64.4531	80.5858	64.4531	81.1814	64.4531	80.6433	64.4531	81.1776	64.4531	80.7068	64.4531	81.1598	64.4531	80.7745	64.4531	81.1296	64.4531	80.8442	64.4531	81.0883	64.4531	80.9131	64.4531	81.0374	64.4531	80.9784
67.3828	80.5618	67.3828	80.5202	67.3828	80.613	67.3828	80.4883	67.3828	80.6733	67.3828	80.4656	67.3828	80.7414	67.3828	80.4516	67.3828	80.8154	67.3828	80.4451	67.3828	80.8925	67.3828	80.4453	67.3828	80.9694	67.3828	80.4513	67.3828	81.0421	67.3828	80.4626	67.3828	81.1063	67.3828	80.479	67.3828	81.1581	67.3828	80.5007	67.3828	81.1944	67.3828	80.5285	67.3828	81.213	67.3828	80.5632	67.3828	81.2131	67.3828	80.6057	67.3828	81.1954	67.3828	80.6562	67.3828	81.1616	67.3828	80.7147	67.3828	81.1142	67.3828	80.7797	67.3828	81.0562	67.3828	80.8492	67.3828	80.9906	67.3828	80.9206
