"SPL Vertical"
"On-Axis"		"10°"		"-10°"		"20°"		"-20°"		"30°"		"-30°"		"40°"		"-40°"		"50°"		"-50°"		"60°"		"-60°"		"70°"		"-70°"		"80°"		"-80°"		"90°"		"-90°"		"100°"		"-100°"		"110°"		"-110°"		"120°"		"-120°"		"130°"		"-130°"		"140°"		"-140°"		"150°"		"-150°"		"160°"		"-160°"		"170°"		"-170°"		"180°"
"Frequency [Hz]"	"Sound Pessure Level [dB]   [2.83V at 1m]"	"Frequency [Hz]"	"Sound Pessure Level [dB]   [2.83V at 1m]"	"Frequency [Hz]"	"Sound Pessure Level [dB]   [2.83V at 1m]"	"Frequency [Hz]"	"Sound Pessure Level [dB]   [2.83V at 1m]"	"Frequency [Hz]"	"Sound Pessure Level [dB]   [2.83V at 1m]"	"Frequency [Hz]"	"Sound Pessure Level [dB]   [2.83V at 1m]"	"Frequency [Hz]"	"Sound Pessure Level [dB]   [2.83V at 1m]"	"Frequency [Hz]"	"Sound Pessure Level [dB]   [2.83V at 1m]"	"Frequency [Hz]"	"Sound Pessure Level [dB]   [2.83V at 1m]"	"Frequency [Hz]"	"Sound Pessure Level [dB]   [2.83V at 1m]"	"Frequency [Hz]"	"Sound Pessure Level [dB]   [2.83V at 1m]"	"Frequency [Hz]"	"Sound Pessure Level [dB]   [2.83V at 1m]"	"Frequency [Hz]"	"Sound Pessure Level [dB]   [2.83V at 1m]"	"Frequency [Hz]"	"Sound Pessure Level [dB]   [2.83V at 1m]"	"Frequency [Hz]"	"Sound Pessure Level [dB]   [2.83V at 1m]"	"Frequency [Hz]"	"Sound Pessure Level [dB]   [2.83V at 1m]"	"Frequency [Hz]"	"Sound Pessure Level [dB]   [2.83V at 1m]"	"Frequency [Hz]"	"Sound Pessure Level [dB]   [2.83V at 1m]"	"Frequency [Hz]"	"Sound Pessure Level [dB]   [2.83V at 1m]"	"Frequency [Hz]"	"Sound Pessure Level [dB]   [2.83V at 1m]"	"Frequency [Hz]"	"Sound Pessure Level [dB]   [2.83V at 1m]"	"Frequency [Hz]"	"Sound Pessure Level [dB]   [2.83V at 1m]"	"Frequency [Hz]"	"Sound Pessure Level [dB]   [2.83V at 1m]"	"Frequency [Hz]"	"Sound Pessure Level [dB]   [2.83V at 1m]"	"Frequency [Hz]"	"Sound Pessure Level [dB]   [2.83V at 1m]"	"Frequency [Hz]"	"Sound Pessure Level [dB]   [2.83V at 1m]"	"Frequency [Hz]"	"Sound Pessure Level [dB]   [2.83V at 1m]"	"Frequency [Hz]"	"Sound Pessure Level [dB]   [2.83V at 1m]"	"Frequency [Hz]"	"Sound Pessure Level [dB]   [2.83V at 1m]"	"Frequency [Hz]"	"Sound Pessure Level [dB]   [2.83V at 1m]"	"Frequency [Hz]"	"Sound Pessure Level [dB]   [2.83V at 1m]"	"Frequency [Hz]"	"Sound Pessure Level [dB]   [2.83V at 1m]"	"Frequency [Hz]"	"Sound Pessure Level [dB]   [2.83V at 1m]"	"Frequency [Hz]"	"Sound Pessure Level [dB]   [2.83V at 1m]"	"Frequency [Hz]"	"Sound Pessure Level [dB]   [2.83V at 1m]"	"Frequency [Hz]"	"Sound Pessure Level [dB]   [2.83V at 1m]"
20.5078	50.9379	20.5078	50.5561	20.5078	51.4342	20.5078	50.2854	20.5078	52.0271	20.5078	50.1059	20.5078	52.6792	20.5078	49.9898	20.5078	53.3425	20.5078	49.9098	20.5078	53.9678	20.5078	49.8438	20.5078	54.5114	20.5078	49.7765	20.5078	54.9391	20.5078	49.7001	20.5078	55.2272	20.5078	49.6142	20.5078	55.3629	20.5078	49.5265	20.5078	55.3431	20.5078	49.453	20.5078	55.1735	20.5078	49.4188	20.5078	54.8671	20.5078	49.4551	20.5078	54.4421	20.5078	49.5942	20.5078	53.9201	20.5078	49.8592	20.5078	53.3248	20.5078	50.2559	20.5078	52.6818	20.5078	50.7697	20.5078	52.0194	20.5078	51.3699
21.9727	53.1134	21.9727	52.8037	21.9727	53.5251	21.9727	52.5898	21.9727	54.0266	21.9727	52.4524	21.9727	54.5877	21.9727	52.3671	21.9727	55.1662	21.9727	52.3104	21.9727	55.7157	21.9727	52.2641	21.9727	56.1931	21.9727	52.2164	21.9727	56.563	21.9727	52.1625	21.9727	56.8004	21.9727	52.1042	21.9727	56.8913	21.9727	52.0489	21.9727	56.8325	21.9727	52.0095	21.9727	56.6318	21.9727	52.002	21.9727	56.3059	21.9727	52.0433	21.9727	55.8796	21.9727	52.1483	21.9727	55.3831	21.9727	52.3272	21.9727	54.8494	21.9727	52.5846	21.9727	54.3108	21.9727	52.9195	21.9727	53.7956	21.9727	53.3266
23.4375	55.8282	23.4375	55.3136	23.4375	56.4413	23.4375	54.9128	23.4375	57.1228	23.4375	54.6253	23.4375	57.8333	23.4375	54.4385	23.4375	58.5306	23.4375	54.3348	23.4375	59.1759	23.4375	54.2973	23.4375	59.7366	23.4375	54.3143	23.4375	60.1886	23.4375	54.3808	23.4375	60.5166	23.4375	54.498	23.4375	60.714	23.4375	54.6717	23.4375	60.7822	23.4375	54.9097	23.4375	60.7296	23.4375	55.2181	23.4375	60.5695	23.4375	55.5981	23.4375	60.3173	23.4375	56.0437	23.4375	59.9888	23.4375	56.5412	23.4375	59.5977	23.4375	57.072	23.4375	59.1551	23.4375	57.6157	23.4375	58.6706	23.4375	58.1536
24.9023	58.1344	24.9023	57.8869	24.9023	58.4627	24.9023	57.719	24.9023	58.861	24.9023	57.6202	24.9023	59.3068	24.9023	57.5748	24.9023	59.7697	24.9023	57.5667	24.9023	60.2158	24.9023	57.5822	24.9023	60.6136	24.9023	57.6115	24.9023	60.9364	24.9023	57.6499	24.9023	61.1654	24.9023	57.6973	24.9023	61.2906	24.9023	57.758	24.9023	61.3103	24.9023	57.8387	24.9023	61.2311	24.9023	57.9473	24.9023	61.0663	24.9023	58.0901	24.9023	60.8337	24.9023	58.2701	24.9023	60.5536	24.9023	58.486	24.9023	60.2457	24.9023	58.7336	24.9023	59.9267	24.9023	59.007	24.9023	59.6089	24.9023	59.3004
26.3672	58.21	26.3672	57.7326	26.3672	58.7678	26.3672	57.3576	26.3672	59.3751	26.3672	57.0956	26.3672	59.9968	26.3672	56.9455	26.3672	60.5977	26.3672	56.8971	26.3672	61.1457	26.3672	56.9353	26.3672	61.6141	26.3672	57.0441	26.3672	61.9824	26.3672	57.2092	26.3672	62.2379	26.3672	57.4194	26.3672	62.3757	26.3672	57.6663	26.3672	62.3987	26.3672	57.9437	26.3672	62.3173	26.3672	58.2461	26.3672	62.1473	26.3672	58.5683	26.3672	61.9083	26.3672	58.9043	26.3672	61.6208	26.3672	59.2484	26.3672	61.3033	26.3672	59.5955	26.3672	60.9701	26.3672	59.9422	26.3672	60.6301	26.3672	60.2872
27.832	60.7176	27.832	60.3121	27.832	61.175	27.832	59.9753	27.832	61.6617	27.832	59.7164	27.832	62.1515	27.832	59.538	27.832	62.6166	27.832	59.4362	27.832	63.0302	27.832	59.4032	27.832	63.3687	27.832	59.4291	27.832	63.6132	27.832	59.5039	27.832	63.7515	27.832	59.6181	27.832	63.779	27.832	59.7638	27.832	63.6995	27.832	59.9341	27.832	63.5254	27.832	60.1232	27.832	63.276	27.832	60.326	27.832	62.9759	27.832	60.5383	27.832	62.6509	27.832	60.7571	27.832	62.3241	27.832	60.9816	27.832	62.0123	27.832	61.214	27.832	61.7239	27.832	61.4594
29.2969	63.5291	29.2969	63.161	29.2969	63.9131	29.2969	62.8181	29.2969	64.3007	29.2969	62.5063	29.2969	64.6761	29.2969	62.229	29.2969	65.0213	29.2969	61.9876	29.2969	65.3167	29.2969	61.7826	29.2969	65.543	29.2969	61.6131	29.2969	65.6832	29.2969	61.4783	29.2969	65.7239	29.2969	61.3768	29.2969	65.6574	29.2969	61.3078	29.2969	65.4829	29.2969	61.2708	29.2969	65.207	29.2969	61.2665	29.2969	64.8437	29.2969	61.2974	29.2969	64.4138	29.2969	61.3681	29.2969	63.943	29.2969	61.4855	29.2969	63.4597	29.2969	61.6576	29.2969	62.9922	29.2969	61.8926	29.2969	62.5649	29.2969	62.1954
30.7617	64.9566	30.7617	64.6456	30.7617	65.2922	30.7617	64.3656	30.7617	65.642	30.7617	64.1192	30.7617	65.9912	30.7617	63.9063	30.7617	66.3223	30.7617	63.7253	30.7617	66.6154	30.7617	63.5738	30.7617	66.851	30.7617	63.4496	30.7617	67.0116	30.7617	63.3512	30.7617	67.0839	30.7617	63.2783	30.7617	67.0601	30.7617	63.2318	30.7617	66.9395	30.7617	63.2138	30.7617	66.7282	30.7617	63.2274	30.7617	66.439	30.7617	63.2767	30.7617	66.0902	30.7617	63.366	30.7617	65.7034	30.7617	63.5	30.7617	65.3012	30.7617	63.6828	30.7617	64.9053	30.7617	63.9167	30.7617	64.5342	30.7617	64.2018
32.2266	66.2502	32.2266	65.9641	32.2266	66.5602	32.2266	65.7078	32.2266	66.884	32.2266	65.4842	32.2266	67.2082	32.2266	65.2933	32.2266	67.5161	32.2266	65.1338	32.2266	67.7896	32.2266	65.0036	32.2266	68.0104	32.2266	64.9008	32.2266	68.1624	32.2266	64.8237	32.2266	68.233	32.2266	64.7716	32.2266	68.2156	32.2266	64.7447	32.2266	68.1097	32.2266	64.7439	32.2266	67.9216	32.2266	64.771	32.2266	67.6635	32.2266	64.8284	32.2266	67.3527	32.2266	64.9194	32.2266	67.0089	32.2266	65.0474	32.2266	66.6525	32.2266	65.2156	32.2266	66.3026	32.2266	65.4265	32.2266	65.9748	32.2266	65.6805
33.6914	67.3749	33.6914	67.0658	33.6914	67.703	33.6914	66.7833	33.6914	68.0394	33.6914	66.5321	33.6914	68.3706	33.6914	66.3144	33.6914	68.6807	33.6914	66.131	33.6914	68.9526	33.6914	65.9812	33.6914	69.1693	33.6914	65.8642	33.6914	69.316	33.6914	65.779	33.6914	69.3812	33.6914	65.7247	33.6914	69.3586	33.6914	65.7012	33.6914	69.2482	33.6914	65.7088	33.6914	69.0561	33.6914	65.7483	33.6914	68.7943	33.6914	65.8214	33.6914	68.4793	33.6914	65.9301	33.6914	68.1303	33.6914	66.0767	33.6914	67.7671	33.6914	66.2634	33.6914	67.4083	33.6914	66.4918	33.6914	67.0693	33.6914	66.7615
35.1562	68.9607	35.1562	68.6696	35.1562	69.2677	35.1562	68.4007	35.1562	69.5819	35.1562	68.1578	35.1562	69.8917	35.1562	67.9432	35.1562	70.1831	35.1562	67.758	35.1562	70.4407	35.1562	67.6027	35.1562	70.649	35.1562	67.4773	35.1562	70.7938	35.1562	67.3821	35.1562	70.8643	35.1562	67.3175	35.1562	70.8543	35.1562	67.2843	35.1562	70.7631	35.1562	67.2842	35.1562	70.5956	35.1562	67.3193	35.1562	70.3615	35.1562	67.3922	35.1562	70.0741	35.1562	67.5058	35.1562	69.7492	35.1562	67.6626	35.1562	69.4032	35.1562	67.8638	35.1562	69.0523	35.1562	68.1087	35.1562	68.7114	35.1562	68.3935
36.6211	70.4095	36.6211	70.1342	36.6211	70.695	36.6211	69.8757	36.6211	70.982	36.6211	69.6387	36.6211	71.2598	36.6211	69.4264	36.6211	71.516	36.6211	69.2411	36.6211	71.7368	36.6211	69.0842	36.6211	71.9087	36.6211	68.9567	36.6211	72.0198	36.6211	68.8594	36.6211	72.061	36.6211	68.7931	36.6211	72.0279	36.6211	68.7584	36.6211	71.921	36.6211	68.7562	36.6211	71.7463	36.6211	68.7876	36.6211	71.5143	36.6211	68.8538	36.6211	71.239	36.6211	68.956	36.6211	70.936	36.6211	69.0951	36.6211	70.6206	36.6211	69.2713	36.6211	70.3071	36.6211	69.484	36.6211	70.0074	36.6211	69.7308
38.0859	71.4919	38.0859	71.241	38.0859	71.7537	38.0859	71.0068	38.0859	72.0186	38.0859	70.7932	38.0859	72.2763	38.0859	70.6026	38.0859	72.5148	38.0859	70.4363	38.0859	72.7212	38.0859	70.2948	38.0859	72.8823	38.0859	70.1785	38.0859	72.9867	38.0859	70.0877	38.0859	73.0258	38.0859	70.0232	38.0859	72.9952	38.0859	69.9859	38.0859	72.8956	38.0859	69.9774	38.0859	72.7327	38.0859	69.9995	38.0859	72.5165	38.0859	70.0542	38.0859	72.2602	38.0859	70.1433	38.0859	71.9782	38.0859	70.2684	38.0859	71.6847	38.0859	70.4298	38.0859	71.3929	38.0859	70.6265	38.0859	71.1137	38.0859	70.856
39.5508	72.4449	39.5508	72.2403	39.5508	72.6613	39.5508	72.0514	39.5508	72.8835	39.5508	71.8803	39.5508	73.1029	39.5508	71.7279	39.5508	73.3088	39.5508	71.5945	39.5508	73.4889	39.5508	71.4801	39.5508	73.6303	39.5508	71.3847	39.5508	73.7217	39.5508	71.3087	39.5508	73.7543	39.5508	71.2526	39.5508	73.7237	39.5508	71.2175	39.5508	73.6307	39.5508	71.2046	39.5508	73.481	39.5508	71.2155	39.5508	73.2848	39.5508	71.2518	39.5508	73.0552	39.5508	71.3155	39.5508	72.8065	39.5508	71.4079	39.5508	72.5525	39.5508	71.5302	39.5508	72.3049	39.5508	71.6827	39.5508	72.0734	39.5508	71.8645
41.0156	73.1402	41.0156	72.9233	41.0156	73.3698	41.0156	72.7241	41.0156	73.6048	41.0156	72.5456	41.0156	73.8359	41.0156	72.3897	41.0156	74.0515	41.0156	72.2569	41.0156	74.2393	41.0156	72.1476	41.0156	74.3869	41.0156	72.0619	41.0156	74.4833	41.0156	71.9999	41.0156	74.5208	41.0156	71.9617	41.0156	74.4958	41.0156	71.9477	41.0156	74.4097	41.0156	71.9581	41.0156	74.2689	41.0156	71.9933	41.0156	74.0837	41.0156	72.0535	41.0156	73.867	41.0156	72.1389	41.0156	73.6323	41.0156	72.2495	41.0156	73.392	41.0156	72.3852	41.0156	73.1565	41.0156	72.5453	41.0156	72.9337	41.0156	72.7288
42.4805	73.7166	42.4805	73.4612	42.4805	73.9827	42.4805	73.2237	42.4805	74.2503	42.4805	73.0096	42.4805	74.5084	42.4805	72.8225	42.4805	74.7447	42.4805	72.6647	42.4805	74.9465	42.4805	72.5372	42.4805	75.1015	42.4805	72.4402	42.4805	75.1995	42.4805	72.3734	42.4805	75.2332	42.4805	72.3362	42.4805	75.1996	42.4805	72.3278	42.4805	75.1007	42.4805	72.3471	42.4805	74.9431	42.4805	72.3936	42.4805	74.7377	42.4805	72.4666	42.4805	74.4977	42.4805	72.566	42.4805	74.2374	42.4805	72.692	42.4805	73.9702	42.4805	72.8446	42.4805	73.7076	42.4805	73.024	42.4805	73.4585	42.4805	73.2293
43.9453	74.9711	43.9453	74.7251	43.9453	75.2241	43.9453	74.4938	43.9453	75.4754	43.9453	74.2832	43.9453	75.7147	43.9453	74.0978	43.9453	75.9312	43.9453	73.9412	43.9453	76.1134	43.9453	73.8154	43.9453	76.2509	43.9453	73.7218	43.9453	76.3348	43.9453	73.6607	43.9453	76.3592	43.9453	73.6318	43.9453	76.3224	43.9453	73.6341	43.9453	76.227	43.9453	73.6662	43.9453	76.0803	43.9453	73.7262	43.9453	75.893	43.9453	73.8121	43.9453	75.6778	43.9453	73.9217	43.9453	75.4475	43.9453	74.0532	43.9453	75.2135	43.9453	74.2048	43.9453	74.9845	43.9453	74.3749	43.9453	74.7664	43.9453	74.5625
45.4102	75.6468	45.4102	75.4067	45.4102	75.8882	45.4102	75.1748	45.4102	76.123	45.4102	74.9569	45.4102	76.3418	45.4102	74.7575	45.4102	76.5345	45.4102	74.5803	45.4102	76.6904	45.4102	74.428	45.4102	76.7997	45.4102	74.3027	45.4102	76.8536	45.4102	74.2055	45.4102	76.8466	45.4102	74.137	45.4102	76.7766	45.4102	74.097	45.4102	76.6465	45.4102	74.0853	45.4102	76.4635	45.4102	74.101	45.4102	76.2388	45.4102	74.1436	45.4102	75.9862	45.4102	74.2127	45.4102	75.7204	45.4102	74.3085	45.4102	75.4552	45.4102	74.4314	45.4102	75.202	45.4102	74.5823	45.4102	74.9691	45.4102	74.7617
46.875	76.3596	46.875	76.1285	46.875	76.5912	46.875	75.9043	46.875	76.8159	46.875	75.6921	46.875	77.025	46.875	75.4959	46.875	77.2088	46.875	75.319	46.875	77.3571	46.875	75.1639	46.875	77.4603	46.875	75.0327	46.875	77.5101	46.875	74.9268	46.875	77.5006	46.875	74.8473	46.875	77.4299	46.875	74.7948	46.875	77.3002	46.875	74.7698	46.875	77.1183	46.875	74.7728	46.875	76.8948	46.875	74.804	46.875	76.6428	46.875	74.8639	46.875	76.3765	46.875	74.9535	46.875	76.1095	46.875	75.0734	46.875	75.8533	46.875	75.2243	46.875	75.6167	46.875	75.4059
48.3398	76.9842	48.3398	76.7583	48.3398	77.2116	48.3398	76.5403	48.3398	77.4332	48.3398	76.3353	48.3398	77.6405	48.3398	76.1476	48.3398	77.8242	48.3398	75.9804	48.3398	77.9748	48.3398	75.8365	48.3398	78.083	48.3398	75.7177	48.3398	78.141	48.3398	75.6253	48.3398	78.1435	48.3398	75.5602	48.3398	78.0885	48.3398	75.5227	48.3398	77.978	48.3398	75.5129	48.3398	77.818	48.3398	75.5307	48.3398	77.6177	48.3398	75.5762	48.3398	77.3888	48.3398	75.6491	48.3398	77.1436	48.3398	75.7496	48.3398	76.8942	48.3398	75.8778	48.3398	76.6513	48.3398	76.0335	48.3398	76.4232	48.3398	76.216
51.2695	78.0971	51.2695	77.8868	51.2695	78.3097	51.2695	77.6849	51.2695	78.5174	51.2695	77.4961	51.2695	78.7122	51.2695	77.3244	51.2695	78.8851	51.2695	77.1725	51.2695	79.0271	51.2695	77.0428	51.2695	79.1297	51.2695	76.9369	51.2695	79.1858	51.2695	76.8559	51.2695	79.1908	51.2695	76.8007	51.2695	79.1436	51.2695	76.7717	51.2695	79.0464	51.2695	76.7691	51.2695	78.9053	51.2695	76.7932	51.2695	78.729	51.2695	76.8438	51.2695	78.5276	51.2695	76.9206	51.2695	78.3117	51.2695	77.0232	51.2695	78.091	51.2695	77.1507	51.2695	77.8738	51.2695	77.3019	51.2695	77.6667	51.2695	77.4748
52.7344	78.5917	52.7344	78.3733	52.7344	78.8126	52.7344	78.164	52.7344	79.0284	52.7344	77.9693	52.7344	79.2306	52.7344	77.7939	52.7344	79.4102	52.7344	77.6414	52.7344	79.5585	52.7344	77.5144	52.7344	79.6671	52.7344	77.4149	52.7344	79.7296	52.7344	77.344	52.7344	79.742	52.7344	77.3024	52.7344	79.7036	52.7344	77.2899	52.7344	79.6171	52.7344	77.3061	52.7344	79.4886	52.7344	77.3502	52.7344	79.3262	52.7344	77.4209	52.7344	79.1392	52.7344	77.517	52.7344	78.9369	52.7344	77.6369	52.7344	78.7274	52.7344	77.7789	52.7344	78.5178	52.7344	77.9409	52.7344	78.3139	52.7344	78.1202
54.1992	79.204	54.1992	78.9818	54.1992	79.425	54.1992	78.7653	54.1992	79.6367	54.1992	78.5607	54.1992	79.8307	54.1992	78.3733	54.1992	79.9981	54.1992	78.2072	54.1992	80.1301	54.1992	78.0658	54.1992	80.219	54.1992	77.9515	54.1992	80.2589	54.1992	77.8658	54.1992	80.2463	54.1992	77.8094	54.1992	80.1814	54.1992	77.7824	54.1992	80.068	54.1992	77.7845	54.1992	79.9135	54.1992	77.8145	54.1992	79.7277	54.1992	77.8712	54.1992	79.5217	54.1992	77.9532	54.1992	79.3063	54.1992	78.0588	54.1992	79.0905	54.1992	78.1863	54.1992	78.8813	54.1992	78.334	54.1992	78.6835	54.1992	78.5004
55.6641	79.8024	55.6641	79.5916	55.6641	80.01	55.6641	79.3843	55.6641	80.207	55.6641	79.1863	55.6641	80.3855	55.6641	79.0027	55.6641	80.5373	55.6641	78.8374	55.6641	80.6544	55.6641	78.694	55.6641	80.7297	55.6641	78.5749	55.6641	80.7576	55.6641	78.4819	55.6641	80.7353	55.6641	78.416	55.6641	80.6628	55.6641	78.3775	55.6641	80.5439	55.6641	78.3665	55.6641	80.3855	55.6641	78.3824	55.6641	80.1973	55.6641	78.4243	55.6641	79.9899	55.6641	78.4911	55.6641	79.7741	55.6641	78.5818	55.6641	79.5594	55.6641	78.6952	55.6641	79.3532	55.6641	78.8302	55.6641	79.161	55.6641	78.9859
58.5938	80.6569	58.5938	80.4482	58.5938	80.8619	58.5938	80.2425	58.5938	81.0558	58.5938	80.0458	58.5938	81.231	58.5938	79.8635	58.5938	81.3796	58.5938	79.7001	58.5938	81.494	58.5938	79.5592	58.5938	81.5679	58.5938	79.4437	58.5938	81.5961	58.5938	79.3555	58.5938	81.5763	58.5938	79.2957	58.5938	81.509	58.5938	79.2645	58.5938	81.398	58.5938	79.2617	58.5938	81.2501	58.5938	79.286	58.5938	81.0741	58.5938	79.3362	58.5938	80.8798	58.5938	79.4106	58.5938	80.6769	58.5938	79.5076	58.5938	80.4736	58.5938	79.6255	58.5938	80.2765	58.5938	79.763	58.5938	80.0904	58.5938	79.9184
60.0586	81.1275	60.0586	80.9189	60.0586	81.3314	60.0586	80.7124	60.0586	81.5233	60.0586	80.514	60.0586	81.6956	60.0586	80.3294	60.0586	81.8408	60.0586	80.1632	60.0586	81.9516	60.0586	80.0193	60.0586	82.0217	60.0586	79.9009	60.0586	82.0466	60.0586	79.8099	60.0586	82.0241	60.0586	79.7477	60.0586	81.955	60.0586	79.7147	60.0586	81.8433	60.0586	79.7105	60.0586	81.6956	60.0586	79.7341	60.0586	81.5206	60.0586	79.784	60.0586	81.3279	60.0586	79.8587	60.0586	81.1265	60.0586	79.9564	60.0586	80.9245	60.0586	80.0752	60.0586	80.7282	60.0586	80.2136	60.0586	80.5422	60.0586	80.3699
62.9883	82.0295	62.9883	81.8242	62.9883	82.2278	62.9883	81.6186	62.9883	82.4121	62.9883	81.419	62.9883	82.5751	62.9883	81.2311	62.9883	82.7099	62.9883	81.0601	62.9883	82.8098	62.9883	80.9104	62.9883	82.8694	62.9883	80.7855	62.9883	82.8847	62.9883	80.6882	62.9883	82.8544	62.9883	80.6202	62.9883	82.7797	62.9883	80.5822	62.9883	82.665	62.9883	80.5743	62.9883	82.5171	62.9883	80.5954	62.9883	82.3442	62.9883	80.644	62.9883	82.1555	62.9883	80.7181	62.9883	81.9595	62.9883	80.8153	62.9883	81.7634	62.9883	80.9334	62.9883	81.5729	62.9883	81.0702	62.9883	81.392	62.9883	81.2237
64.4531	82.4445	64.4531	82.2434	64.4531	82.638	64.4531	82.0413	64.4531	82.8169	64.4531	81.8445	64.4531	82.9743	64.4531	81.6588	64.4531	83.1032	64.4531	81.4895	64.4531	83.1974	64.4531	81.3412	64.4531	83.2519	64.4531	81.2176	64.4531	83.2631	64.4531	81.1215	64.4531	83.2299	64.4531	81.0548	64.4531	83.1542	64.4531	81.0183	64.4531	83.0404	64.4531	81.0119	64.4531	82.8953	64.4531	81.0344	64.4531	82.7274	64.4531	81.084	64.4531	82.5453	64.4531	81.1584	64.4531	82.3571	64.4531	81.2549	64.4531	82.1694	64.4531	81.371	64.4531	81.9873	64.4531	81.5042	64.4531	81.8142	64.4531	81.6526
67.3828	83.2295	67.3828	83.0437	67.3828	83.4057	67.3828	82.8545	67.3828	83.5661	67.3828	82.6678	67.3828	83.7039	67.3828	82.4889	67.3828	83.8128	67.3828	82.3225	67.3828	83.8869	67.3828	82.1729	67.3828	83.9215	67.3828	82.0437	67.3828	83.9134	67.3828	81.9377	67.3828	83.862	67.3828	81.8569	67.3828	83.7692	67.3828	81.8025	67.3828	83.6398	67.3828	81.7748	67.3828	83.4812	67.3828	81.7735	67.3828	83.3024	67.3828	81.7974	67.3828	83.1125	67.3828	81.8453	67.3828	82.9203	67.3828	81.9154	67.3828	82.7331	67.3828	82.0064	67.3828	82.5561	67.3828	82.1171	67.3828	82.3931	67.3828	82.2463
68.8477	83.4799	68.8477	83.296	68.8477	83.6552	68.8477	83.1096	68.8477	83.8153	68.8477	82.9266	68.8477	83.9536	68.8477	82.7522	68.8477	84.0638	68.8477	82.5911	68.8477	84.1399	68.8477	82.4472	68.8477	84.1772	68.8477	82.3238	68.8477	84.1727	68.8477	82.2234	68.8477	84.1257	68.8477	82.1477	68.8477	84.0379	68.8477	82.0978	68.8477	83.9142	68.8477	82.0736	68.8477	83.7615	68.8477	82.0749	68.8477	83.5883	68.8477	82.1005	68.8477	83.4037	68.8477	82.1494	68.8477	83.216	68.8477	82.2201	68.8477	83.0324	68.8477	82.3113	68.8477	82.858	68.8477	82.4219	68.8477	82.6966	68.8477	82.5507
