"SPL Vertical"
"On-Axis"		"10°"		"-10°"		"20°"		"-20°"		"30°"		"-30°"		"40°"		"-40°"		"50°"		"-50°"		"60°"		"-60°"		"70°"		"-70°"		"80°"		"-80°"		"90°"		"-90°"		"100°"		"-100°"		"110°"		"-110°"		"120°"		"-120°"		"130°"		"-130°"		"140°"		"-140°"		"150°"		"-150°"		"160°"		"-160°"		"170°"		"-170°"		"180°"
"Frequency [Hz]"	"Sound Pessure Level [dB]  / [2.83V 1m] "	"Frequency [Hz]"	"Sound Pessure Level [dB]  / [2.83V 1m] "	"Frequency [Hz]"	"Sound Pessure Level [dB]  / [2.83V 1m] "	"Frequency [Hz]"	"Sound Pessure Level [dB]  / [2.83V 1m] "	"Frequency [Hz]"	"Sound Pessure Level [dB]  / [2.83V 1m] "	"Frequency [Hz]"	"Sound Pessure Level [dB]  / [2.83V 1m] "	"Frequency [Hz]"	"Sound Pessure Level [dB]  / [2.83V 1m] "	"Frequency [Hz]"	"Sound Pessure Level [dB]  / [2.83V 1m] "	"Frequency [Hz]"	"Sound Pessure Level [dB]  / [2.83V 1m] "	"Frequency [Hz]"	"Sound Pessure Level [dB]  / [2.83V 1m] "	"Frequency [Hz]"	"Sound Pessure Level [dB]  / [2.83V 1m] "	"Frequency [Hz]"	"Sound Pessure Level [dB]  / [2.83V 1m] "	"Frequency [Hz]"	"Sound Pessure Level [dB]  / [2.83V 1m] "	"Frequency [Hz]"	"Sound Pessure Level [dB]  / [2.83V 1m] "	"Frequency [Hz]"	"Sound Pessure Level [dB]  / [2.83V 1m] "	"Frequency [Hz]"	"Sound Pessure Level [dB]  / [2.83V 1m] "	"Frequency [Hz]"	"Sound Pessure Level [dB]  / [2.83V 1m] "	"Frequency [Hz]"	"Sound Pessure Level [dB]  / [2.83V 1m] "	"Frequency [Hz]"	"Sound Pessure Level [dB]  / [2.83V 1m] "	"Frequency [Hz]"	"Sound Pessure Level [dB]  / [2.83V 1m] "	"Frequency [Hz]"	"Sound Pessure Level [dB]  / [2.83V 1m] "	"Frequency [Hz]"	"Sound Pessure Level [dB]  / [2.83V 1m] "	"Frequency [Hz]"	"Sound Pessure Level [dB]  / [2.83V 1m] "	"Frequency [Hz]"	"Sound Pessure Level [dB]  / [2.83V 1m] "	"Frequency [Hz]"	"Sound Pessure Level [dB]  / [2.83V 1m] "	"Frequency [Hz]"	"Sound Pessure Level [dB]  / [2.83V 1m] "	"Frequency [Hz]"	"Sound Pessure Level [dB]  / [2.83V 1m] "	"Frequency [Hz]"	"Sound Pessure Level [dB]  / [2.83V 1m] "	"Frequency [Hz]"	"Sound Pessure Level [dB]  / [2.83V 1m] "	"Frequency [Hz]"	"Sound Pessure Level [dB]  / [2.83V 1m] "	"Frequency [Hz]"	"Sound Pessure Level [dB]  / [2.83V 1m] "	"Frequency [Hz]"	"Sound Pessure Level [dB]  / [2.83V 1m] "	"Frequency [Hz]"	"Sound Pessure Level [dB]  / [2.83V 1m] "	"Frequency [Hz]"	"Sound Pessure Level [dB]  / [2.83V 1m] "	"Frequency [Hz]"	"Sound Pessure Level [dB]  / [2.83V 1m] "	"Frequency [Hz]"	"Sound Pessure Level [dB]  / [2.83V 1m] "
20.5078	72.2397	20.5078	71.5965	20.5078	72.9683	20.5078	71.0379	20.5078	73.777	20.5078	70.5601	20.5078	74.6507	20.5078	70.1578	20.5078	75.5576	20.5078	69.8254	20.5078	76.4422	20.5078	69.5575	20.5078	77.2179	20.5078	69.3493	20.5078	77.7692	20.5078	69.1968	20.5078	77.9745	20.5078	69.097	20.5078	77.7519	20.5078	69.0475	20.5078	77.112	20.5078	69.0473	20.5078	76.1819	20.5078	69.0961	20.5078	75.1436	20.5078	69.195	20.5078	74.1318	20.5078	69.3463	20.5078	73.2073	20.5078	69.5537	20.5078	72.3895	20.5078	69.8229	20.5078	71.6818	20.5078	70.1609	20.5078	71.0802	20.5078	70.5766
23.4375	77.3191	23.4375	76.7231	23.4375	77.9872	23.4375	76.1997	23.4375	78.7222	23.4375	75.747	23.4375	79.5109	23.4375	75.362	23.4375	80.3265	23.4375	75.0413	23.4375	81.1225	23.4375	74.7815	23.4375	81.8255	23.4375	74.5796	23.4375	82.3349	23.4375	74.4332	23.4375	82.5397	23.4375	74.3403	23.4375	82.3614	23.4375	74.2994	23.4375	81.8108	23.4375	74.3101	23.4375	81.006	23.4375	74.3721	23.4375	80.1039	23.4375	74.4864	23.4375	79.2151	23.4375	74.6544	23.4375	78.3903	23.4375	74.8785	23.4375	77.647	23.4375	75.1622	23.4375	76.9901	23.4375	75.5098	23.4375	76.418	23.4375	75.9265
26.3672	79.7335	26.3672	79.1783	26.3672	80.3527	26.3672	78.6884	26.3672	81.0307	26.3672	78.2628	26.3672	81.7552	26.3672	77.8997	26.3672	82.5021	26.3672	77.5966	26.3672	83.2293	26.3672	77.3513	26.3672	83.8704	26.3672	77.1617	26.3672	84.3334	26.3672	77.026	26.3672	84.5166	26.3672	76.9427	26.3672	84.3517	26.3672	76.9108	26.3672	83.8585	26.3672	76.9298	26.3672	83.1492	26.3672	76.9996	26.3672	82.3566	26.3672	77.1205	26.3672	81.5691	26.3672	77.2936	26.3672	80.8287	26.3672	77.5201	26.3672	80.1526	26.3672	77.8023	26.3672	79.5468	26.3672	78.1428	26.3672	79.0115	26.3672	78.5447
29.2969	81.3141	29.2969	80.8087	29.2969	81.874	29.2969	80.3598	29.2969	82.4832	29.2969	79.9673	29.2969	83.1304	29.2969	79.6303	29.2969	83.7945	29.2969	79.3475	29.2969	84.4388	29.2969	79.1174	29.2969	85.0058	29.2969	78.9389	29.2969	85.4155	29.2969	78.8108	29.2969	85.5781	29.2969	78.7322	29.2969	85.4333	29.2969	78.7027	29.2969	85.0021	29.2969	78.7219	29.2969	84.3864	29.2969	78.7899	29.2969	83.6982	29.2969	78.9071	29.2969	83.0085	29.2969	79.0741	29.2969	82.3518	29.2969	79.2919	29.2969	81.7441	29.2969	79.5617	29.2969	81.1923	29.2969	79.885	29.2969	80.6988	29.2969	80.2635
32.2266	81.8241	32.2266	81.3554	32.2266	82.3426	32.2266	80.9388	32.2266	82.9056	32.2266	80.5748	32.2266	83.5029	32.2266	80.2632	32.2266	84.1155	32.2266	80.0033	32.2266	84.712	32.2266	79.7943	32.2266	85.2427	32.2266	79.6354	32.2266	85.6384	32.2266	79.5259	32.2266	85.8202	32.2266	79.4652	32.2266	85.7352	32.2266	79.4529	32.2266	85.4034	32.2266	79.4888	32.2266	84.9083	32.2266	79.573	32.2266	84.3321	32.2266	79.7056	32.2266	83.7276	32.2266	79.8869	32.2266	83.1285	32.2266	80.1174	32.2266	82.557	32.2266	80.3977	32.2266	82.0263	32.2266	80.7284	32.2266	81.5431	32.2266	81.1102
35.1562	82.5601	35.1562	82.1122	35.1562	83.0529	35.1562	81.7121	35.1562	83.585	35.1562	81.3612	35.1562	84.1457	35.1562	81.0595	35.1562	84.7167	35.1562	80.8072	35.1562	85.2677	35.1562	80.6036	35.1562	85.7518	35.1562	80.4485	35.1562	86.1044	35.1562	80.3414	35.1562	86.2552	35.1562	80.2821	35.1562	86.1633	35.1562	80.2702	35.1562	85.855	35.1562	80.3056	35.1562	85.4047	35.1562	80.3884	35.1562	84.88	35.1562	80.5185	35.1562	84.3261	35.1562	80.696	35.1562	83.7737	35.1562	80.9209	35.1562	83.2433	35.1562	81.1933	35.1562	82.747	35.1562	81.5128	35.1562	82.2911	35.1562	81.8791
38.0859	82.9881	38.0859	82.5679	38.0859	83.4489	38.0859	82.1917	38.0859	83.9438	38.0859	81.8616	38.0859	84.4624	38.0859	81.5786	38.0859	84.9876	38.0859	81.343	38.0859	85.4928	38.0859	81.155	38.0859	85.9384	38.0859	81.0144	38.0859	86.2719	38.0859	80.9211	38.0859	86.4363	38.0859	80.8749	38.0859	86.3983	38.0859	80.8756	38.0859	86.1777	38.0859	80.923	38.0859	85.8273	38.0859	81.0171	38.0859	85.3899	38.0859	81.1576	38.0859	84.8995	38.0859	81.3443	38.0859	84.3887	38.0859	81.5771	38.0859	83.8841	38.0859	81.8555	38.0859	83.4029	38.0859	82.1789	38.0859	82.9551	38.0859	82.546
41.0156	83.8415	41.0156	83.4309	41.0156	84.2882	41.0156	83.0606	41.0156	84.7644	41.0156	82.7331	41.0156	85.2594	41.0156	82.4498	41.0156	85.7564	41.0156	82.2117	41.0156	86.23	41.0156	82.0193	41.0156	86.6428	41.0156	81.8728	41.0156	86.9455	41.0156	81.7726	41.0156	87.0852	41.0156	81.7187	41.0156	87.0338	41.0156	81.7113	41.0156	86.8151	41.0156	81.7505	41.0156	86.479	41.0156	81.8362	41.0156	86.0618	41.0156	81.9686	41.0156	85.5922	41.0156	82.1472	41.0156	85.101	41.0156	82.372	41.0156	84.6138	41.0156	82.6422	41.0156	84.1478	41.0156	82.9569	41.0156	83.7127	41.0156	83.3145
43.9453	84.5155	43.9453	84.1227	43.9453	84.9426	43.9453	83.7685	43.9453	85.397	43.9453	83.4559	43.9453	85.8683	43.9453	83.1865	43.9453	86.3405	43.9453	82.9615	43.9453	86.7901	43.9453	82.7815	43.9453	87.1845	43.9453	82.6468	43.9453	87.4808	43.9453	82.5577	43.9453	87.633	43.9453	82.5143	43.9453	87.6141	43.9453	82.5166	43.9453	87.4385	43.9453	82.5645	43.9453	87.1447	43.9453	82.658	43.9453	86.7642	43.9453	82.7967	43.9453	86.3268	43.9453	82.9803	43.9453	85.8637	43.9453	83.208	43.9453	85.4005	43.9453	83.4788	43.9453	84.9533	43.9453	83.7914	43.9453	84.5322	43.9453	84.1435
46.875	85.1088	46.875	84.7167	46.875	85.5318	46.875	84.3603	46.875	85.978	46.875	84.043	46.875	86.4365	46.875	83.767	46.875	86.891	46.875	83.5337	46.875	87.3181	46.875	83.3442	46.875	87.6856	46.875	83.1992	46.875	87.9525	46.875	83.0993	46.875	88.076	46.875	83.0448	46.875	88.0333	46.875	83.0361	46.875	87.8439	46.875	83.0733	46.875	87.5476	46.875	83.1565	46.875	87.1725	46.875	83.2855	46.875	86.7436	46.875	83.46	46.875	86.2891	46.875	83.6795	46.875	85.8333	46.875	83.9429	46.875	85.3926	46.875	84.2487	46.875	84.9775	46.875	84.5946
49.8047	85.7212	49.8047	85.341	49.8047	86.1301	49.8047	84.9949	49.8047	86.56	49.8047	84.6865	49.8047	86.9992	49.8047	84.4182	49.8047	87.4316	49.8047	84.1918	49.8047	87.8345	49.8047	84.0083	49.8047	88.1779	49.8047	83.8686	49.8047	88.4259	49.8047	83.7734	49.8047	88.544	49.8047	83.7229	49.8047	88.5153	49.8047	83.7175	49.8047	88.3539	49.8047	83.7573	49.8047	88.0871	49.8047	83.8423	49.8047	87.7379	49.8047	83.9722	49.8047	87.3325	49.8047	84.1466	49.8047	86.9	49.8047	84.3646	49.8047	86.4639	49.8047	84.625	49.8047	86.0397	49.8047	84.926	49.8047	85.6377	49.8047	85.2648
52.7344	86.3668	52.7344	85.9894	52.7344	86.771	52.7344	85.6448	52.7344	87.1941	52.7344	85.3367	52.7344	87.6243	52.7344	85.0679	52.7344	88.0451	52.7344	84.8403	52.7344	88.4339	52.7344	84.6553	52.7344	88.7616	52.7344	84.5138	52.7344	88.9935	52.7344	84.4165	52.7344	89.0976	52.7344	84.3641	52.7344	89.0613	52.7344	84.3568	52.7344	88.902	52.7344	84.3947	52.7344	88.6454	52.7344	84.4779	52.7344	88.3094	52.7344	84.6061	52.7344	87.9167	52.7344	84.7787	52.7344	87.4952	52.7344	84.9949	52.7344	87.0683	52.7344	85.2531	52.7344	86.6515	52.7344	85.5513	52.7344	86.2552	52.7344	85.8867
55.6641	86.8893	55.6641	86.5184	55.6641	87.2848	55.6641	86.178	55.6641	87.6964	55.6641	85.8725	55.6641	88.1122	55.6641	85.6046	55.6641	88.5159	55.6641	85.3765	55.6641	88.8857	55.6641	85.1898	55.6641	89.1943	55.6641	85.0456	55.6641	89.4109	55.6641	84.9446	55.6641	89.507	55.6641	84.8877	55.6641	89.4698	55.6641	84.8751	55.6641	89.3119	55.6641	84.9072	55.6641	89.0558	55.6641	84.9839	55.6641	88.7213	55.6641	85.1051	55.6641	88.3327	55.6641	85.2703	55.6641	87.9178	55.6641	85.4786	55.6641	87.499	55.6641	85.7286	55.6641	87.0912	55.6641	86.0182	55.6641	86.7041	55.6641	86.3447
58.5938	87.3307	58.5938	86.9599	58.5938	87.7265	58.5938	86.6201	58.5938	88.1389	58.5938	86.3156	58.5938	88.5558	58.5938	86.0494	58.5938	88.9611	58.5938	85.8237	58.5938	89.3333	58.5938	85.64	58.5938	89.6455	58.5938	85.4996	58.5938	89.8676	58.5938	85.4032	58.5938	89.9722	58.5938	85.3516	58.5938	89.948	58.5938	85.3451	58.5938	89.8063	58.5938	85.384	58.5938	89.5661	58.5938	85.4682	58.5938	89.2453	58.5938	85.5974	58.5938	88.8675	58.5938	85.7709	58.5938	88.4598	58.5938	85.9878	58.5938	88.0439	58.5938	86.2464	58.5938	87.635	58.5938	86.5443	58.5938	87.2439	58.5938	86.8783
61.5234	87.6488	61.5234	87.2822	61.5234	88.0398	61.5234	86.9461	61.5234	88.4467	61.5234	86.6447	61.5234	88.8576	61.5234	86.3813	61.5234	89.2567	61.5234	86.158	61.5234	89.6235	61.5234	85.9766	61.5234	89.933	61.5234	85.8383	61.5234	90.1579	61.5234	85.744	61.5234	90.273	61.5234	85.6945	61.5234	90.2642	61.5234	85.6903	61.5234	90.1351	61.5234	85.7314	61.5234	89.9006	61.5234	85.818	61.5234	89.5827	61.5234	85.9498	61.5234	89.2096	61.5234	86.1259	61.5234	88.8084	61.5234	86.3453	61.5234	88.3987	61.5234	86.6061	61.5234	87.9943	61.5234	86.9058	61.5234	87.6056	61.5234	87.2406
64.4531	87.8556	64.4531	87.4865	64.4531	88.2477	64.4531	87.1468	64.4531	88.6538	64.4531	86.8412	64.4531	89.0614	64.4531	86.5729	64.4531	89.4539	64.4531	86.3444	64.4531	89.8101	64.4531	86.1576	64.4531	90.1042	64.4531	86.0136	64.4531	90.3103	64.4531	85.9137	64.4531	90.4075	64.4531	85.8584	64.4531	90.3862	64.4531	85.8484	64.4531	90.246	64.4531	85.8839	64.4531	89.997	64.4531	85.9648	64.4531	89.6653	64.4531	86.0907	64.4531	89.2858	64.4531	86.261	64.4531	88.886	64.4531	86.4743	64.4531	88.4827	64.4531	86.7289	64.4531	88.0866	64.4531	87.0217	64.4531	87.7063	64.4531	87.3492
67.3828	87.9915	67.3828	87.6234	67.3828	88.3821	67.3828	87.2842	67.3828	88.7859	67.3828	86.9789	67.3828	89.1904	67.3828	86.7108	67.3828	89.5788	67.3828	86.4824	67.3828	89.9301	67.3828	86.2955	67.3828	90.2193	67.3828	86.1515	67.3828	90.4212	67.3828	86.0513	67.3828	90.515	67.3828	85.9955	67.3828	90.4877	67.3828	85.9846	67.3828	90.3357	67.3828	86.0187	67.3828	90.0715	67.3828	86.0975	67.3828	89.7285	67.3828	86.2207	67.3828	89.3456	67.3828	86.3871	67.3828	88.9495	67.3828	86.5956	67.3828	88.5541	67.3828	86.8442	67.3828	88.1675	67.3828	87.1299	67.3828	87.797	67.3828	87.4491
70.3125	88.1877	70.3125	87.8245	70.3125	88.5736	70.3125	87.4906	70.3125	88.9731	70.3125	87.1907	70.3125	89.374	70.3125	86.9284	70.3125	89.7604	70.3125	86.7063	70.3125	90.1125	70.3125	86.5261	70.3125	90.4079	70.3125	86.3894	70.3125	90.6246	70.3125	86.2973	70.3125	90.745	70.3125	86.2503	70.3125	90.7545	70.3125	86.2488	70.3125	90.6398	70.3125	86.2931	70.3125	90.404	70.3125	86.3826	70.3125	90.0793	70.3125	86.5169	70.3125	89.7071	70.3125	86.6948	70.3125	89.316	70.3125	86.9146	70.3125	88.921	70.3125	87.1742	70.3125	88.5313	70.3125	87.4704	70.3125	88.1549	70.3125	87.7991
73.2422	88.3811	73.2422	88.0175	73.2422	88.7654	73.2422	87.6813	73.2422	89.1607	73.2422	87.3777	73.2422	89.5548	73.2422	87.1106	73.2422	89.9313	73.2422	86.8827	73.2422	90.2707	73.2422	86.6965	73.2422	90.5514	73.2422	86.5537	73.2422	90.754	73.2422	86.4555	73.2422	90.8666	73.2422	86.4031	73.2422	90.88	73.2422	86.397	73.2422	90.7782	73.2422	86.4376	73.2422	90.5554	73.2422	86.5248	73.2422	90.2389	73.2422	86.658	73.2422	89.8708	73.2422	86.8361	73.2422	89.481	73.2422	87.0575	73.2422	89.0851	73.2422	87.3198	73.2422	88.6927	73.2422	87.6196	73.2422	88.3125	73.2422	87.9524
76.1719	88.5514	76.1719	88.1919	76.1719	88.9306	76.1719	87.859	76.1719	89.3202	76.1719	87.5577	76.1719	89.7081	76.1719	87.292	76.1719	90.0787	76.1719	87.0648	76.1719	90.4135	76.1719	86.8783	76.1719	90.6923	76.1719	86.7346	76.1719	90.8976	76.1719	86.635	76.1719	91.0166	76.1719	86.5806	76.1719	91.0359	76.1719	86.5722	76.1719	90.9347	76.1719	86.6102	76.1719	90.7069	76.1719	86.6945	76.1719	90.3843	76.1719	86.8248	76.1719	90.0129	76.1719	87	76.1719	89.6229	76.1719	87.2184	76.1719	89.2287	76.1719	87.4777	76.1719	88.839	76.1719	87.7746	76.1719	88.4617	76.1719	88.1045
79.1016	88.7494	79.1016	88.382	79.1016	89.1352	79.1016	88.0402	79.1016	89.5298	79.1016	87.7292	79.1016	89.9205	79.1016	87.4531	79.1016	90.2911	79.1016	87.215	79.1016	90.6217	79.1016	87.0172	79.1016	90.8905	79.1016	86.862	79.1016	91.0781	79.1016	86.7508	79.1016	91.1724	79.1016	86.6849	79.1016	91.1641	79.1016	86.6653	79.1016	91.0371	79.1016	86.6925	79.1016	90.7872	79.1016	86.7666	79.1016	90.4472	79.1016	86.8875	79.1016	90.0633	79.1016	87.0543	79.1016	89.6651	79.1016	87.2655	79.1016	89.2657	79.1016	87.5189	79.1016	88.873	79.1016	87.8113	79.1016	88.4947	79.1016	88.1385
82.0312	88.7928	82.0312	88.4249	82.0312	89.178	82.0312	88.0818	82.0312	89.5707	82.0312	87.7693	82.0312	89.9573	82.0312	87.4914	82.0312	90.3209	82.0312	87.2514	82.0312	90.6407	82.0312	87.052	82.0312	90.8946	82.0312	86.895	82.0312	91.0653	82.0312	86.7822	82.0312	91.1471	82.0312	86.7148	82.0312	91.1363	82.0312	86.6936	82.0312	91.0122	82.0312	86.7192	82.0312	90.7623	82.0312	86.7916	82.0312	90.4214	82.0312	86.9106	82.0312	90.0406	82.0312	87.0752	82.0312	89.649	82.0312	87.2841	82.0312	89.2574	82.0312	87.5348	82.0312	88.8718	82.0312	87.8242	82.0312	88.4993	82.0312	88.1476
84.9609	88.8205	84.9609	88.4505	84.9609	89.2092	84.9609	88.1069	84.9609	89.6063	84.9609	87.7953	84.9609	89.9979	84.9609	87.5198	84.9609	90.3662	84.9609	87.2833	84.9609	90.6891	84.9609	87.0881	84.9609	90.9424	84.9609	86.936	84.9609	91.1053	84.9609	86.8279	84.9609	91.1679	84.9609	86.7646	84.9609	91.1228	84.9609	86.7464	84.9609	90.9504	84.9609	86.7732	84.9609	90.6507	84.9609	86.8445	84.9609	90.2762	84.9609	86.9594	84.9609	89.8864	84.9609	87.1164	84.9609	89.5069	84.9609	87.3136	84.9609	89.1398	84.9609	87.5486	84.9609	88.7837	84.9609	87.8178	84.9609	88.441	84.9609	88.1171
87.8906	88.7877	87.8906	88.4332	87.8906	89.1611	87.8906	88.1049	87.8906	89.5438	87.8906	87.8083	87.8906	89.9228	87.8906	87.5473	87.8906	90.2817	87.8906	87.325	87.8906	90.6007	87.8906	87.1437	87.8906	90.859	87.8906	87.005	87.8906	91.0401	87.8906	86.9103	87.8906	91.1363	87.8906	86.8603	87.8906	91.1355	87.8906	86.8553	87.8906	91.007	87.8906	86.8951	87.8906	90.7436	87.8906	86.9791	87.8906	90.3976	87.8906	87.1062	87.8906	90.03	87.8906	87.2745	87.8906	89.6674	87.8906	87.4817	87.8906	89.3125	87.8906	87.7247	87.8906	88.9642	87.8906	87.9998	87.8906	88.6255	87.8906	88.302
90.8203	88.4961	90.8203	88.1549	90.8203	88.8584	90.8203	87.8417	90.8203	89.2327	90.8203	87.5619	90.8203	89.6068	90.8203	87.3192	90.8203	89.9655	90.8203	87.1168	90.8203	90.2908	90.8203	86.9571	90.8203	90.5645	90.8203	86.8417	90.8203	90.7755	90.8203	86.7721	90.8203	90.9246	90.8203	86.7489	90.8203	91.0039	90.8203	86.7723	90.8203	90.9681	90.8203	86.8419	90.8203	90.786	90.8203	86.9566	90.8203	90.4977	90.8203	87.1147	90.8203	90.1664	90.8203	87.3138	90.8203	89.8242	90.8203	87.5505	90.8203	89.4777	90.8203	87.821	90.8203	89.1287	90.8203	88.1204	90.8203	88.7814	90.8203	88.4428
93.75	88.714	93.75	88.3927	93.75	89.046	93.75	88.0897	93.75	89.3791	93.75	87.8112	93.75	89.7018	93.75	87.5621	93.75	90.0012	93.75	87.3467	93.75	90.2651	93.75	87.1684	93.75	90.4874	93.75	87.0302	93.75	90.6751	93.75	86.9347	93.75	90.8476	93.75	86.8841	93.75	90.9984	93.75	86.88	93.75	91.0553	93.75	86.9235	93.75	90.9499	93.75	87.0152	93.75	90.7025	93.75	87.1548	93.75	90.3774	93.75	87.3415	93.75	90.0168	93.75	87.5733	93.75	89.6385	93.75	87.8472	93.75	89.2528	93.75	88.159	93.75	88.8706	93.75	88.5028
96.6797	88.5699	96.6797	88.2339	96.6797	88.9205	96.6797	87.9203	96.6797	89.2761	96.6797	87.6351	96.6797	89.6243	96.6797	87.3829	96.6797	89.9505	96.6797	87.1674	96.6797	90.2391	96.6797	86.9917	96.6797	90.4767	96.6797	86.8581	96.6797	90.6594	96.6797	86.7684	96.6797	90.794	96.6797	86.7238	96.6797	90.8704	96.6797	86.725	96.6797	90.8307	96.6797	86.7719	96.6797	90.6344	96.6797	86.8639	96.6797	90.326	96.6797	86.9997	96.6797	89.9771	96.6797	87.1774	96.6797	89.6229	96.6797	87.3944	96.6797	89.2698	96.6797	87.6472	96.6797	88.9189	96.6797	87.9318	96.6797	88.5744	96.6797	88.243
102.539	88.2971	102.539	87.9728	102.539	88.6305	102.539	87.6658	102.539	88.9624	102.539	87.3831	102.539	89.2802	102.539	87.1301	102.539	89.5695	102.539	86.9114	102.539	89.8159	102.539	86.7309	102.539	90.0097	102.539	86.5918	102.539	90.1531	102.539	86.4965	102.539	90.262	102.539	86.4469	102.539	90.3322	102.539	86.4439	102.539	90.3019	102.539	86.4878	102.539	90.1224	102.539	86.5777	102.539	89.8373	102.539	86.7118	102.539	89.5191	102.539	86.8875	102.539	89.1994	102.539	87.1013	102.539	88.8798	102.539	87.3489	102.539	88.558	102.539	87.625	102.539	88.237	102.539	87.9234
105.469	88.2384	105.469	87.9168	105.469	88.565	105.469	87.6089	105.469	88.8858	105.469	87.3218	105.469	89.188	105.469	87.0613	105.469	89.4574	105.469	86.8326	105.469	89.6806	105.469	86.6398	105.469	89.8497	105.469	86.4868	105.469	89.9705	105.469	86.3766	105.469	90.0624	105.469	86.3116	105.469	90.1217	105.469	86.2934	105.469	90.083	105.469	86.3227	105.469	89.8958	105.469	86.3991	105.469	89.6054	105.469	86.5211	105.469	89.2846	105.469	86.6863	105.469	88.9645	105.469	86.8913	105.469	88.6455	105.469	87.1316	105.469	88.3251	105.469	87.4019	105.469	88.0063	105.469	87.6959
108.398	88.415	108.398	88.1007	108.398	88.7306	108.398	87.7968	108.398	89.0367	108.398	87.5107	108.398	89.3202	108.398	87.2486	108.398	89.5673	108.398	87.0159	108.398	89.7654	108.398	86.8171	108.398	89.9085	108.398	86.6564	108.398	90.0057	108.398	86.5371	108.398	90.0799	108.398	86.4621	108.398	90.1271	108.398	86.4333	108.398	90.0788	108.398	86.4516	108.398	89.8852	108.398	86.5171	108.398	89.5956	108.398	86.6283	108.398	89.2831	108.398	86.7831	108.398	88.975	108.398	86.9778	108.398	88.6687	108.398	87.2082	108.398	88.3602	108.398	87.4686	108.398	88.0525	108.398	87.7525
