"SPL Horizontal"
"On-Axis"		"10°"		"-10°"		"20°"		"-20°"		"30°"		"-30°"		"40°"		"-40°"		"50°"		"-50°"		"60°"		"-60°"		"70°"		"-70°"		"80°"		"-80°"		"90°"		"-90°"		"100°"		"-100°"		"110°"		"-110°"		"120°"		"-120°"		"130°"		"-130°"		"140°"		"-140°"		"150°"		"-150°"		"160°"		"-160°"		"170°"		"-170°"		"180°"
"Frequency [Hz]"	"Sound Pessure Level [dB]  / [2.83V 1m] "	"Frequency [Hz]"	"Sound Pessure Level [dB]  / [2.83V 1m] "	"Frequency [Hz]"	"Sound Pessure Level [dB]  / [2.83V 1m] "	"Frequency [Hz]"	"Sound Pessure Level [dB]  / [2.83V 1m] "	"Frequency [Hz]"	"Sound Pessure Level [dB]  / [2.83V 1m] "	"Frequency [Hz]"	"Sound Pessure Level [dB]  / [2.83V 1m] "	"Frequency [Hz]"	"Sound Pessure Level [dB]  / [2.83V 1m] "	"Frequency [Hz]"	"Sound Pessure Level [dB]  / [2.83V 1m] "	"Frequency [Hz]"	"Sound Pessure Level [dB]  / [2.83V 1m] "	"Frequency [Hz]"	"Sound Pessure Level [dB]  / [2.83V 1m] "	"Frequency [Hz]"	"Sound Pessure Level [dB]  / [2.83V 1m] "	"Frequency [Hz]"	"Sound Pessure Level [dB]  / [2.83V 1m] "	"Frequency [Hz]"	"Sound Pessure Level [dB]  / [2.83V 1m] "	"Frequency [Hz]"	"Sound Pessure Level [dB]  / [2.83V 1m] "	"Frequency [Hz]"	"Sound Pessure Level [dB]  / [2.83V 1m] "	"Frequency [Hz]"	"Sound Pessure Level [dB]  / [2.83V 1m] "	"Frequency [Hz]"	"Sound Pessure Level [dB]  / [2.83V 1m] "	"Frequency [Hz]"	"Sound Pessure Level [dB]  / [2.83V 1m] "	"Frequency [Hz]"	"Sound Pessure Level [dB]  / [2.83V 1m] "	"Frequency [Hz]"	"Sound Pessure Level [dB]  / [2.83V 1m] "	"Frequency [Hz]"	"Sound Pessure Level [dB]  / [2.83V 1m] "	"Frequency [Hz]"	"Sound Pessure Level [dB]  / [2.83V 1m] "	"Frequency [Hz]"	"Sound Pessure Level [dB]  / [2.83V 1m] "	"Frequency [Hz]"	"Sound Pessure Level [dB]  / [2.83V 1m] "	"Frequency [Hz]"	"Sound Pessure Level [dB]  / [2.83V 1m] "	"Frequency [Hz]"	"Sound Pessure Level [dB]  / [2.83V 1m] "	"Frequency [Hz]"	"Sound Pessure Level [dB]  / [2.83V 1m] "	"Frequency [Hz]"	"Sound Pessure Level [dB]  / [2.83V 1m] "	"Frequency [Hz]"	"Sound Pessure Level [dB]  / [2.83V 1m] "	"Frequency [Hz]"	"Sound Pessure Level [dB]  / [2.83V 1m] "	"Frequency [Hz]"	"Sound Pessure Level [dB]  / [2.83V 1m] "	"Frequency [Hz]"	"Sound Pessure Level [dB]  / [2.83V 1m] "	"Frequency [Hz]"	"Sound Pessure Level [dB]  / [2.83V 1m] "	"Frequency [Hz]"	"Sound Pessure Level [dB]  / [2.83V 1m] "	"Frequency [Hz]"	"Sound Pessure Level [dB]  / [2.83V 1m] "	"Frequency [Hz]"	"Sound Pessure Level [dB]  / [2.83V 1m] "
20.5078	72.2397	20.5078	72.2151	20.5078	72.2434	20.5078	72.1701	20.5078	72.226	20.5078	72.1052	20.5078	72.188	20.5078	72.0215	20.5078	72.1296	20.5078	71.9206	20.5078	72.0518	20.5078	71.8044	20.5078	71.9559	20.5078	71.6755	20.5078	71.8436	20.5078	71.5369	20.5078	71.7172	20.5078	71.3924	20.5078	71.5796	20.5078	71.2462	20.5078	71.4344	20.5078	71.1028	20.5078	71.2858	20.5078	70.9674	20.5078	71.1387	20.5078	70.845	20.5078	70.9984	20.5078	70.7403	20.5078	70.8703	20.5078	70.658	20.5078	70.7597	20.5078	70.6016	20.5078	70.6715	20.5078	70.574	20.5078	70.6096	20.5078	70.5766
23.4375	77.3191	23.4375	77.2983	23.4375	77.3218	23.4375	77.2597	23.4375	77.3064	23.4375	77.2038	23.4375	77.273	23.4375	77.1318	23.4375	77.2222	23.4375	77.0448	23.4375	77.1549	23.4375	76.9448	23.4375	77.0723	23.4375	76.8341	23.4375	76.976	23.4375	76.7155	23.4375	76.8682	23.4375	76.5925	23.4375	76.7517	23.4375	76.4689	23.4375	76.6297	23.4375	76.3488	23.4375	76.5059	23.4375	76.2366	23.4375	76.3844	23.4375	76.1364	23.4375	76.2695	23.4375	76.0521	23.4375	76.1653	23.4375	75.9868	23.4375	76.0758	23.4375	75.9432	23.4375	76.0045	23.4375	75.9228	23.4375	75.954	23.4375	75.9265
26.3672	79.7335	26.3672	79.7155	26.3672	79.7349	26.3672	79.6815	26.3672	79.7197	26.3672	79.6321	26.3672	79.6881	26.3672	79.5686	26.3672	79.6406	26.3672	79.4924	26.3672	79.5782	26.3672	79.4055	26.3672	79.5023	26.3672	79.3102	26.3672	79.4148	26.3672	79.2093	26.3672	79.3178	26.3672	79.1057	26.3672	79.2143	26.3672	79.0026	26.3672	79.1075	26.3672	78.9035	26.3672	79.0009	26.3672	78.8114	26.3672	78.8984	26.3672	78.7294	26.3672	78.8036	26.3672	78.66	26.3672	78.7199	26.3672	78.6054	26.3672	78.6503	26.3672	78.5672	26.3672	78.597	26.3672	78.5467	26.3672	78.5615	26.3672	78.5447
29.2969	81.3141	29.2969	81.296	29.2969	81.3183	29.2969	81.2641	29.2969	81.3087	29.2969	81.219	29.2969	81.2855	29.2969	81.1613	29.2969	81.2494	29.2969	81.0921	29.2969	81.201	29.2969	81.013	29.2969	81.1414	29.2969	80.9258	29.2969	81.0718	29.2969	80.8329	29.2969	80.9938	29.2969	80.7372	29.2969	80.9093	29.2969	80.6416	29.2969	80.8205	29.2969	80.5497	29.2969	80.7296	29.2969	80.4649	29.2969	80.6393	29.2969	80.3907	29.2969	80.5523	29.2969	80.3301	29.2969	80.4714	29.2969	80.2857	29.2969	80.3994	29.2969	80.2594	29.2969	80.3391	29.2969	80.2519	29.2969	80.2931	29.2969	80.2635
32.2266	81.8241	32.2266	81.8185	32.2266	81.8188	32.2266	81.8021	32.2266	81.8026	32.2266	81.7755	32.2266	81.7757	32.2266	81.7396	32.2266	81.7388	32.2266	81.6955	32.2266	81.6929	32.2266	81.6446	32.2266	81.6394	32.2266	81.5884	32.2266	81.5799	32.2266	81.5287	32.2266	81.5163	32.2266	81.4675	32.2266	81.4509	32.2266	81.4067	32.2266	81.386	32.2266	81.3481	32.2266	81.324	32.2266	81.2934	32.2266	81.267	32.2266	81.2439	32.2266	81.217	32.2266	81.2009	32.2266	81.1755	32.2266	81.1653	32.2266	81.1437	32.2266	81.1379	32.2266	81.1221	32.2266	81.1193	32.2266	81.111	32.2266	81.1102
35.1562	82.5601	35.1562	82.5469	35.1562	82.5632	35.1562	82.5239	35.1562	82.5563	35.1562	82.4917	35.1562	82.5395	35.1562	82.4512	35.1562	82.5132	35.1562	82.4034	35.1562	82.4783	35.1562	82.3498	35.1562	82.4356	35.1562	82.2919	35.1562	82.3863	35.1562	82.2315	35.1562	82.332	35.1562	82.1707	35.1562	82.2741	35.1562	82.1113	35.1562	82.2144	35.1562	82.0552	35.1562	82.1548	35.1562	82.0044	35.1562	82.097	35.1562	81.9603	35.1562	82.0429	35.1562	81.9244	35.1562	81.9942	35.1562	81.8977	35.1562	81.9522	35.1562	81.881	35.1562	81.9184	35.1562	81.8747	35.1562	81.8938	35.1562	81.8791
38.0859	82.9881	38.0859	82.9716	38.0859	82.9973	38.0859	82.9481	38.0859	82.9989	38.0859	82.9181	38.0859	82.9932	38.0859	82.8827	38.0859	82.9804	38.0859	82.8429	38.0859	82.961	38.0859	82.8002	38.0859	82.9359	38.0859	82.756	38.0859	82.9058	38.0859	82.712	38.0859	82.8719	38.0859	82.6698	38.0859	82.8353	38.0859	82.6311	38.0859	82.7969	38.0859	82.5971	38.0859	82.7581	38.0859	82.5691	38.0859	82.7197	38.0859	82.5477	38.0859	82.6827	38.0859	82.5334	38.0859	82.648	38.0859	82.5263	38.0859	82.6162	38.0859	82.5263	38.0859	82.5882	38.0859	82.5331	38.0859	82.5646	38.0859	82.546
41.0156	83.8415	41.0156	83.8303	41.0156	83.8442	41.0156	83.811	41.0156	83.8386	41.0156	83.784	41.0156	83.8249	41.0156	83.7501	41.0156	83.8035	41.0156	83.7103	41.0156	83.7753	41.0156	83.6659	41.0156	83.7411	41.0156	83.6185	41.0156	83.7022	41.0156	83.5695	41.0156	83.6596	41.0156	83.5209	41.0156	83.6148	41.0156	83.4742	41.0156	83.5693	41.0156	83.4312	41.0156	83.5242	41.0156	83.3932	41.0156	83.481	41.0156	83.3614	41.0156	83.4408	41.0156	83.3367	41.0156	83.4046	41.0156	83.3196	41.0156	83.3731	41.0156	83.3102	41.0156	83.3472	41.0156	83.3086	41.0156	83.3275	41.0156	83.3145
43.9453	84.5155	43.9453	84.5135	43.9453	84.5107	43.9453	84.5048	43.9453	84.4994	43.9453	84.4898	43.9453	84.4819	43.9453	84.4691	43.9453	84.459	43.9453	84.4436	43.9453	84.4315	43.9453	84.4144	43.9453	84.4005	43.9453	84.3827	43.9453	84.3672	43.9453	84.3498	43.9453	84.333	43.9453	84.3169	43.9453	84.299	43.9453	84.2851	43.9453	84.2665	43.9453	84.2554	43.9453	84.2365	43.9453	84.2285	43.9453	84.21	43.9453	84.2049	43.9453	84.1875	43.9453	84.1849	43.9453	84.1695	43.9453	84.1686	43.9453	84.1562	43.9453	84.1563	43.9453	84.1475	43.9453	84.1479	43.9453	84.1433	43.9453	84.1435
46.875	85.1088	46.875	85.105	46.875	85.1045	46.875	85.093	46.875	85.092	46.875	85.0736	46.875	85.0716	46.875	85.0472	46.875	85.0439	46.875	85.0149	46.875	85.0097	46.875	84.9777	46.875	84.9703	46.875	84.9368	46.875	84.9268	46.875	84.8935	46.875	84.8809	46.875	84.8493	46.875	84.8342	46.875	84.8054	46.875	84.7883	46.875	84.7631	46.875	84.7447	46.875	84.7238	46.875	84.705	46.875	84.6883	46.875	84.6703	46.875	84.6576	46.875	84.6414	46.875	84.6324	46.875	84.6192	46.875	84.6132	46.875	84.6039	46.875	84.6005	46.875	84.5957	46.875	84.5946
49.8047	85.7212	49.8047	85.7136	49.8047	85.7213	49.8047	85.6989	49.8047	85.7138	49.8047	85.6777	49.8047	85.6989	49.8047	85.6507	49.8047	85.6771	49.8047	85.6189	49.8047	85.649	49.8047	85.5835	49.8047	85.6156	49.8047	85.5456	49.8047	85.578	49.8047	85.5066	49.8047	85.5375	49.8047	85.4677	49.8047	85.4956	49.8047	85.43	49.8047	85.4539	49.8047	85.3945	49.8047	85.4138	49.8047	85.3621	49.8047	85.3767	49.8047	85.3335	49.8047	85.3437	49.8047	85.3093	49.8047	85.3159	49.8047	85.29	49.8047	85.2938	49.8047	85.2759	49.8047	85.2778	49.8047	85.2674	49.8047	85.2682	49.8047	85.2648
52.7344	86.3668	52.7344	86.3609	52.7344	86.3647	52.7344	86.3474	52.7344	86.3548	52.7344	86.3269	52.7344	86.3372	52.7344	86.3001	52.7344	86.3124	52.7344	86.2681	52.7344	86.2814	52.7344	86.2319	52.7344	86.245	52.7344	86.1929	52.7344	86.2046	52.7344	86.1522	52.7344	86.1617	52.7344	86.1112	52.7344	86.1177	52.7344	86.0711	52.7344	86.0743	52.7344	86.0329	52.7344	86.0329	52.7344	85.9977	52.7344	85.995	52.7344	85.9663	52.7344	85.9617	52.7344	85.9395	52.7344	85.934	52.7344	85.9177	52.7344	85.9124	52.7344	85.9014	52.7344	85.8973	52.7344	85.891	52.7344	85.8888	52.7344	85.8867
55.6641	86.8893	55.6641	86.8869	55.6641	86.8832	55.6641	86.8765	55.6641	86.8687	55.6641	86.8584	55.6641	86.8461	55.6641	86.8335	55.6641	86.8158	55.6641	86.8025	55.6641	86.7788	55.6641	86.7666	55.6641	86.7361	55.6641	86.7268	55.6641	86.689	55.6641	86.6843	55.6641	86.6392	55.6641	86.6401	55.6641	86.5882	55.6641	86.5955	55.6641	86.5381	55.6641	86.5514	55.6641	86.4905	55.6641	86.5091	55.6641	86.4474	55.6641	86.4694	55.6641	86.4102	55.6641	86.4334	55.6641	86.3802	55.6641	86.402	55.6641	86.3583	55.6641	86.3762	55.6641	86.3451	55.6641	86.3568	55.6641	86.3407	55.6641	86.3447
58.5938	87.3307	58.5938	87.3175	58.5938	87.3365	58.5938	87.2974	58.5938	87.3345	58.5938	87.2712	58.5938	87.3248	58.5938	87.24	58.5938	87.3077	58.5938	87.2049	58.5938	87.2837	58.5938	87.1671	58.5938	87.2538	58.5938	87.128	58.5938	87.2188	58.5938	87.0887	58.5938	87.1801	58.5938	87.0504	58.5938	87.1391	58.5938	87.014	58.5938	87.0973	58.5938	86.9806	58.5938	87.056	58.5938	86.9508	58.5938	87.0167	58.5938	86.9253	58.5938	86.9807	58.5938	86.9046	58.5938	86.949	58.5938	86.8893	58.5938	86.9225	58.5938	86.8797	58.5938	86.9016	58.5938	86.8759	58.5938	86.8869	58.5938	86.8783
61.5234	87.6488	61.5234	87.6348	61.5234	87.6555	61.5234	87.6138	61.5234	87.6544	61.5234	87.587	61.5234	87.6457	61.5234	87.5554	61.5234	87.6296	61.5234	87.5202	61.5234	87.6069	61.5234	87.483	61.5234	87.5786	61.5234	87.4452	61.5234	87.5457	61.5234	87.408	61.5234	87.5095	61.5234	87.3726	61.5234	87.4716	61.5234	87.3402	61.5234	87.4334	61.5234	87.3115	61.5234	87.3963	61.5234	87.2871	61.5234	87.3615	61.5234	87.2674	61.5234	87.3302	61.5234	87.2526	61.5234	87.3029	61.5234	87.2425	61.5234	87.2803	61.5234	87.2373	61.5234	87.2623	61.5234	87.2366	61.5234	87.2491	61.5234	87.2406
64.4531	87.8556	64.4531	87.8392	64.4531	87.8634	64.4531	87.8147	64.4531	87.8623	64.4531	87.7832	64.4531	87.8521	64.4531	87.7459	64.4531	87.8334	64.4531	87.7042	64.4531	87.8067	64.4531	87.6597	64.4531	87.7731	64.4531	87.6139	64.4531	87.7337	64.4531	87.5684	64.4531	87.69	64.4531	87.5246	64.4531	87.6437	64.4531	87.4838	64.4531	87.5964	64.4531	87.447	64.4531	87.5499	64.4531	87.4152	64.4531	87.5058	64.4531	87.389	64.4531	87.4655	64.4531	87.3687	64.4531	87.4302	64.4531	87.3545	64.4531	87.4006	64.4531	87.3465	64.4531	87.3771	64.4531	87.3447	64.4531	87.36	64.4531	87.3492
67.3828	87.9915	67.3828	87.9714	67.3828	88.003	67.3828	87.9431	67.3828	88.0053	67.3828	87.9077	67.3828	87.9984	67.3828	87.8665	67.3828	87.9826	67.3828	87.8209	67.3828	87.9584	67.3828	87.7725	67.3828	87.9267	67.3828	87.7228	67.3828	87.8884	67.3828	87.6734	67.3828	87.8448	67.3828	87.6259	67.3828	87.7973	67.3828	87.5815	67.3828	87.7476	67.3828	87.5415	67.3828	87.6973	67.3828	87.507	67.3828	87.6481	67.3828	87.4788	67.3828	87.6016	67.3828	87.4576	67.3828	87.5591	67.3828	87.4439	67.3828	87.5218	67.3828	87.4378	67.3828	87.4906	67.3828	87.4396	67.3828	87.4662	67.3828	87.4491
70.3125	88.1877	70.3125	88.1607	70.3125	88.2074	70.3125	88.127	70.3125	88.2193	70.3125	88.0879	70.3125	88.2232	70.3125	88.0448	70.3125	88.2195	70.3125	87.9992	70.3125	88.2085	70.3125	87.9528	70.3125	88.1909	70.3125	87.9076	70.3125	88.1675	70.3125	87.865	70.3125	88.1394	70.3125	87.8268	70.3125	88.1074	70.3125	87.7943	70.3125	88.0727	70.3125	87.7687	70.3125	88.0364	70.3125	87.7506	70.3125	87.9992	70.3125	87.7405	70.3125	87.9622	70.3125	87.7385	70.3125	87.9258	70.3125	87.7442	70.3125	87.8907	70.3125	87.7568	70.3125	87.8575	70.3125	87.7754	70.3125	87.8267	70.3125	87.7991
73.2422	88.3811	73.2422	88.352	73.2422	88.4015	73.2422	88.3148	73.2422	88.4128	73.2422	88.2707	73.2422	88.4153	73.2422	88.2211	73.2422	88.4094	73.2422	88.168	73.2422	88.3959	73.2422	88.1135	73.2422	88.3758	73.2422	88.0599	73.2422	88.3501	73.2422	88.0095	73.2422	88.3198	73.2422	87.9644	73.2422	88.2861	73.2422	87.9265	73.2422	88.25	73.2422	87.8974	73.2422	88.2123	73.2422	87.8781	73.2422	88.1738	73.2422	87.869	73.2422	88.1351	73.2422	87.8698	73.2422	88.0965	73.2422	87.88	73.2422	88.0584	73.2422	87.8981	73.2422	88.0212	73.2422	87.9228	73.2422	87.9856	73.2422	87.9524
76.1719	88.5514	76.1719	88.5349	76.1719	88.5587	76.1719	88.5096	76.1719	88.5568	76.1719	88.4762	76.1719	88.5463	76.1719	88.436	76.1719	88.5281	76.1719	88.3907	76.1719	88.5034	76.1719	88.3422	76.1719	88.4735	76.1719	88.2924	76.1719	88.44	76.1719	88.2435	76.1719	88.4043	76.1719	88.1974	76.1719	88.3677	76.1719	88.1563	76.1719	88.3316	76.1719	88.1217	76.1719	88.2966	76.1719	88.095	76.1719	88.2633	76.1719	88.0769	76.1719	88.2321	76.1719	88.0678	76.1719	88.2028	76.1719	88.067	76.1719	88.1753	76.1719	88.0738	76.1719	88.1495	76.1719	88.0868	76.1719	88.1258	76.1719	88.1045
79.1016	88.7494	79.1016	88.7374	79.1016	88.7498	79.1016	88.7142	79.1016	88.739	79.1016	88.6805	79.1016	88.7174	79.1016	88.6376	79.1016	88.6864	79.1016	88.5871	79.1016	88.6474	79.1016	88.5311	79.1016	88.6021	79.1016	88.4715	79.1016	88.5525	79.1016	88.4107	79.1016	88.5005	79.1016	88.3511	79.1016	88.4482	79.1016	88.2952	79.1016	88.3973	79.1016	88.2449	79.1016	88.3492	79.1016	88.2024	79.1016	88.305	79.1016	88.1688	79.1016	88.2654	79.1016	88.1449	79.1016	88.2306	79.1016	88.1307	79.1016	88.2005	79.1016	88.1256	79.1016	88.175	79.1016	88.1286	79.1016	88.1542	79.1016	88.1385
82.0312	88.7928	82.0312	88.7935	82.0312	88.7799	82.0312	88.7824	82.0312	88.7551	82.0312	88.7603	82.0312	88.7192	82.0312	88.7284	82.0312	88.6735	82.0312	88.6881	82.0312	88.6198	82.0312	88.6411	82.0312	88.5604	82.0312	88.5892	82.0312	88.4977	82.0312	88.5343	82.0312	88.4344	82.0312	88.478	82.0312	88.3731	82.0312	88.4223	82.0312	88.3163	82.0312	88.3688	82.0312	88.2661	82.0312	88.3191	82.0312	88.2239	82.0312	88.2745	82.0312	88.1906	82.0312	88.2359	82.0312	88.1662	82.0312	88.2039	82.0312	88.1504	82.0312	88.1786	82.0312	88.1425	82.0312	88.1599	82.0312	88.1417	82.0312	88.1476
84.9609	88.8205	84.9609	88.8112	84.9609	88.8179	84.9609	88.7908	84.9609	88.8032	84.9609	88.7606	84.9609	88.7765	84.9609	88.7219	84.9609	88.7386	84.9609	88.6763	84.9609	88.6906	84.9609	88.6256	84.9609	88.6342	84.9609	88.5712	84.9609	88.5714	84.9609	88.5148	84.9609	88.5047	84.9609	88.4578	84.9609	88.4367	84.9609	88.4015	84.9609	88.3701	84.9609	88.3472	84.9609	88.3076	84.9609	88.2964	84.9609	88.2517	84.9609	88.25	84.9609	88.2042	84.9609	88.2093	84.9609	88.1664	84.9609	88.175	84.9609	88.1389	84.9609	88.1478	84.9609	88.1218	84.9609	88.1283	84.9609	88.1147	84.9609	88.1171
87.8906	88.7877	87.8906	88.7695	87.8906	88.7967	87.8906	88.7431	87.8906	88.7962	87.8906	88.7099	87.8906	88.7861	87.8906	88.6714	87.8906	88.7669	87.8906	88.6294	87.8906	88.7395	87.8906	88.5855	87.8906	88.705	87.8906	88.5413	87.8906	88.6649	87.8906	88.4983	87.8906	88.6209	87.8906	88.4577	87.8906	88.5748	87.8906	88.4203	87.8906	88.5286	87.8906	88.387	87.8906	88.4839	87.8906	88.3585	87.8906	88.4425	87.8906	88.3352	87.8906	88.4054	87.8906	88.3174	87.8906	88.3735	87.8906	88.3053	87.8906	88.3472	87.8906	88.2988	87.8906	88.3266	87.8906	88.2977	87.8906	88.3116	87.8906	88.302
90.8203	88.4961	90.8203	88.472	90.8203	88.5155	90.8203	88.4443	90.8203	88.5297	90.8203	88.4146	90.8203	88.5387	90.8203	88.3849	90.8203	88.5429	90.8203	88.357	90.8203	88.5429	90.8203	88.3329	90.8203	88.5398	90.8203	88.3142	90.8203	88.5345	90.8203	88.3019	90.8203	88.528	90.8203	88.2965	90.8203	88.5211	90.8203	88.2981	90.8203	88.5143	90.8203	88.3062	90.8203	88.508	90.8203	88.3198	90.8203	88.502	90.8203	88.3377	90.8203	88.4961	90.8203	88.3585	90.8203	88.4896	90.8203	88.3808	90.8203	88.4816	90.8203	88.4031	90.8203	88.4715	90.8203	88.4241	90.8203	88.4587	90.8203	88.4428
93.75	88.714	93.75	88.7135	93.75	88.7034	93.75	88.702	93.75	88.6826	93.75	88.6805	93.75	88.6533	93.75	88.6505	93.75	88.6178	93.75	88.6145	93.75	88.579	93.75	88.5751	93.75	88.5402	93.75	88.5355	93.75	88.5045	93.75	88.4987	93.75	88.4748	93.75	88.4676	93.75	88.4534	93.75	88.4444	93.75	88.4416	93.75	88.4307	93.75	88.4395	93.75	88.427	93.75	88.4459	93.75	88.4323	93.75	88.4584	93.75	88.4447	93.75	88.4739	93.75	88.4614	93.75	88.4888	93.75	88.4787	93.75	88.5	93.75	88.4934	93.75	88.505	93.75	88.5028
96.6797	88.5699	96.6797	88.5666	96.6797	88.5628	96.6797	88.5538	96.6797	88.5452	96.6797	88.533	96.6797	88.5178	96.6797	88.5063	96.6797	88.4819	96.6797	88.4757	96.6797	88.4395	96.6797	88.4437	96.6797	88.3931	96.6797	88.4123	96.6797	88.3454	96.6797	88.3831	96.6797	88.2996	96.6797	88.3575	96.6797	88.2584	96.6797	88.3359	96.6797	88.2246	96.6797	88.3186	96.6797	88.1999	96.6797	88.3052	96.6797	88.1854	96.6797	88.2948	96.6797	88.1809	96.6797	88.2861	96.6797	88.1851	96.6797	88.2777	96.6797	88.1959	96.6797	88.2683	96.6797	88.2108	96.6797	88.2569	96.6797	88.2272	96.6797	88.243
102.539	88.2971	102.539	88.2842	102.539	88.2968	102.539	88.2592	102.539	88.2831	102.539	88.224	102.539	88.2566	102.539	88.1811	102.539	88.219	102.539	88.1335	102.539	88.1726	102.539	88.0843	102.539	88.1205	102.539	88.0367	102.539	88.066	102.539	87.9937	102.539	88.0131	102.539	87.9575	102.539	87.9655	102.539	87.93	102.539	87.9266	102.539	87.912	102.539	87.8985	102.539	87.9033	102.539	87.8825	102.539	87.9025	102.539	87.8778	102.539	87.9073	102.539	87.8823	102.539	87.9147	102.539	87.8928	102.539	87.9215	102.539	87.9053	102.539	87.925	102.539	87.9164	102.539	87.9234
105.469	88.2384	105.469	88.2163	105.469	88.2466	105.469	88.1813	105.469	88.2402	105.469	88.1355	105.469	88.2196	105.469	88.0812	105.469	88.1859	105.469	88.0213	105.469	88.1407	105.469	87.9588	105.469	88.0865	105.469	87.8969	105.469	88.0262	105.469	87.8384	105.469	87.9634	105.469	87.7864	105.469	87.9017	105.469	87.7432	105.469	87.845	105.469	87.7104	105.469	87.7964	105.469	87.6886	105.469	87.7581	105.469	87.6774	105.469	87.7308	105.469	87.6748	105.469	87.7139	105.469	87.6783	105.469	87.7049	105.469	87.6846	105.469	87.701	105.469	87.6911	105.469	87.6988	105.469	87.6959
108.398	88.415	108.398	88.3982	108.398	88.4174	108.398	88.3676	108.398	88.4054	108.398	88.3249	108.398	88.3796	108.398	88.2718	108.398	88.3412	108.398	88.2108	108.398	88.2923	108.398	88.1444	108.398	88.2351	108.398	88.0753	108.398	88.1725	108.398	88.0065	108.398	88.1074	108.398	87.9409	108.398	88.0431	108.398	87.8813	108.398	87.9826	108.398	87.8304	108.398	87.9284	108.398	87.7901	108.398	87.8823	108.398	87.7613	108.398	87.8451	108.398	87.744	108.398	87.8163	108.398	87.7367	108.398	87.7944	108.398	87.7373	108.398	87.7775	108.398	87.7432	108.398	87.764	108.398	87.7525
