"SPL Horizontal"
"On-Axis"		"10°"		"-10°"		"20°"		"-20°"		"30°"		"-30°"		"40°"		"-40°"		"50°"		"-50°"		"60°"		"-60°"		"70°"		"-70°"		"80°"		"-80°"		"90°"		"-90°"		"100°"		"-100°"		"110°"		"-110°"		"120°"		"-120°"		"130°"		"-130°"		"140°"		"-140°"		"150°"		"-150°"		"160°"		"-160°"		"170°"		"-170°"		"180°"
"Frequency [Hz]"	"Sound Pessure Level [dB]  / [2.83V 1m] "	"Frequency [Hz]"	"Sound Pessure Level [dB]  / [2.83V 1m] "	"Frequency [Hz]"	"Sound Pessure Level [dB]  / [2.83V 1m] "	"Frequency [Hz]"	"Sound Pessure Level [dB]  / [2.83V 1m] "	"Frequency [Hz]"	"Sound Pessure Level [dB]  / [2.83V 1m] "	"Frequency [Hz]"	"Sound Pessure Level [dB]  / [2.83V 1m] "	"Frequency [Hz]"	"Sound Pessure Level [dB]  / [2.83V 1m] "	"Frequency [Hz]"	"Sound Pessure Level [dB]  / [2.83V 1m] "	"Frequency [Hz]"	"Sound Pessure Level [dB]  / [2.83V 1m] "	"Frequency [Hz]"	"Sound Pessure Level [dB]  / [2.83V 1m] "	"Frequency [Hz]"	"Sound Pessure Level [dB]  / [2.83V 1m] "	"Frequency [Hz]"	"Sound Pessure Level [dB]  / [2.83V 1m] "	"Frequency [Hz]"	"Sound Pessure Level [dB]  / [2.83V 1m] "	"Frequency [Hz]"	"Sound Pessure Level [dB]  / [2.83V 1m] "	"Frequency [Hz]"	"Sound Pessure Level [dB]  / [2.83V 1m] "	"Frequency [Hz]"	"Sound Pessure Level [dB]  / [2.83V 1m] "	"Frequency [Hz]"	"Sound Pessure Level [dB]  / [2.83V 1m] "	"Frequency [Hz]"	"Sound Pessure Level [dB]  / [2.83V 1m] "	"Frequency [Hz]"	"Sound Pessure Level [dB]  / [2.83V 1m] "	"Frequency [Hz]"	"Sound Pessure Level [dB]  / [2.83V 1m] "	"Frequency [Hz]"	"Sound Pessure Level [dB]  / [2.83V 1m] "	"Frequency [Hz]"	"Sound Pessure Level [dB]  / [2.83V 1m] "	"Frequency [Hz]"	"Sound Pessure Level [dB]  / [2.83V 1m] "	"Frequency [Hz]"	"Sound Pessure Level [dB]  / [2.83V 1m] "	"Frequency [Hz]"	"Sound Pessure Level [dB]  / [2.83V 1m] "	"Frequency [Hz]"	"Sound Pessure Level [dB]  / [2.83V 1m] "	"Frequency [Hz]"	"Sound Pessure Level [dB]  / [2.83V 1m] "	"Frequency [Hz]"	"Sound Pessure Level [dB]  / [2.83V 1m] "	"Frequency [Hz]"	"Sound Pessure Level [dB]  / [2.83V 1m] "	"Frequency [Hz]"	"Sound Pessure Level [dB]  / [2.83V 1m] "	"Frequency [Hz]"	"Sound Pessure Level [dB]  / [2.83V 1m] "	"Frequency [Hz]"	"Sound Pessure Level [dB]  / [2.83V 1m] "	"Frequency [Hz]"	"Sound Pessure Level [dB]  / [2.83V 1m] "	"Frequency [Hz]"	"Sound Pessure Level [dB]  / [2.83V 1m] "	"Frequency [Hz]"	"Sound Pessure Level [dB]  / [2.83V 1m] "	"Frequency [Hz]"	"Sound Pessure Level [dB]  / [2.83V 1m] "
20.5078	54.4315	20.5078	54.5908	20.5078	54.3063	20.5078	54.767	20.5078	54.2329	20.5078	54.9453	20.5078	54.2278	20.5078	55.1146	20.5078	54.3018	20.5078	55.2681	20.5078	54.455	20.5078	55.404	20.5078	54.6738	20.5078	55.523	20.5078	54.9319	20.5078	55.6247	20.5078	55.1969	20.5078	55.705	20.5078	55.4384	20.5078	55.7582	20.5078	55.6355	20.5078	55.7814	20.5078	55.7786	20.5078	55.7801	20.5078	55.8685	20.5078	55.7677	20.5078	55.913	20.5078	55.7606	20.5078	55.9241	20.5078	55.7685	20.5078	55.9147	20.5078	55.791	20.5078	55.8959	20.5078	55.8203	20.5078	55.8736	20.5078	55.8487
21.9727	48.0357	21.9727	48.2747	21.9727	47.8327	21.9727	48.5259	21.9727	47.6937	21.9727	48.7694	21.9727	47.6466	21.9727	48.9891	21.9727	47.711	21.9727	49.1737	21.9727	47.889	21.9727	49.3171	21.9727	48.1598	21.9727	49.4185	21.9727	48.4829	21.9727	49.4797	21.9727	48.8086	21.9727	49.503	21.9727	49.0917	21.9727	49.4922	21.9727	49.3021	21.9727	49.4545	21.9727	49.4294	21.9727	49.4022	21.9727	49.4814	21.9727	49.3504	21.9727	49.4773	21.9727	49.3109	21.9727	49.4398	21.9727	49.2875	21.9727	49.3893	21.9727	49.2771	21.9727	49.3414	21.9727	49.276	21.9727	49.3053	21.9727	49.2842
23.4375	51.9915	23.4375	51.9882	23.4375	52.0071	23.4375	51.9941	23.4375	52.038	23.4375	52.0065	23.4375	52.0857	23.4375	52.0231	23.4375	52.1482	23.4375	52.0421	23.4375	52.2195	23.4375	52.0613	23.4375	52.2894	23.4375	52.0783	23.4375	52.3447	23.4375	52.0891	23.4375	52.3713	23.4375	52.0884	23.4375	52.3563	23.4375	52.0704	23.4375	52.2909	23.4375	52.0301	23.4375	52.172	23.4375	51.9636	23.4375	52.0045	23.4375	51.867	23.4375	51.8015	23.4375	51.7381	23.4375	51.5844	23.4375	51.5807	23.4375	51.3817	23.4375	51.4109	23.4375	51.2263	23.4375	51.2587	23.4375	51.1477	23.4375	51.1612
24.9023	51.2349	24.9023	51.3637	24.9023	51.0869	24.9023	51.4652	24.9023	50.9272	24.9023	51.5316	24.9023	50.7631	24.9023	51.557	24.9023	50.6014	24.9023	51.5387	24.9023	50.4474	24.9023	51.4779	24.9023	50.3042	24.9023	51.3776	24.9023	50.1696	24.9023	51.2393	24.9023	50.0342	24.9023	51.0604	24.9023	49.8825	24.9023	50.8341	24.9023	49.6975	24.9023	50.5529	24.9023	49.4693	24.9023	50.2153	24.9023	49.2018	24.9023	49.8302	24.9023	48.9155	24.9023	49.4201	24.9023	48.6426	24.9023	49.0198	24.9023	48.4174	24.9023	48.6704	24.9023	48.2667	24.9023	48.4077	24.9023	48.2078	24.9023	48.2524
26.3672	51.6683	26.3672	51.7473	26.3672	51.5758	26.3672	51.8108	26.3672	51.4709	26.3672	51.8565	26.3672	51.3544	26.3672	51.8814	26.3672	51.2269	26.3672	51.8825	26.3672	51.089	26.3672	51.8564	26.3672	50.9414	26.3672	51.7983	26.3672	50.7847	26.3672	51.7013	26.3672	50.6169	26.3672	51.5568	26.3672	50.4319	26.3672	51.3559	26.3672	50.2199	26.3672	51.0928	26.3672	49.9721	26.3672	50.7676	26.3672	49.6873	26.3672	50.3885	26.3672	49.3761	26.3672	49.972	26.3672	49.063	26.3672	49.5438	26.3672	48.7846	26.3672	49.1396	26.3672	48.5856	26.3672	48.8041	26.3672	48.5097	26.3672	48.5836
27.832	55.6578	27.832	55.6763	27.832	55.619	27.832	55.6706	27.832	55.5635	27.832	55.6371	27.832	55.4944	27.832	55.5723	27.832	55.4147	27.832	55.4745	27.832	55.327	27.832	55.3439	27.832	55.2333	27.832	55.1827	27.832	55.1347	27.832	54.9951	27.832	55.0304	27.832	54.7876	27.832	54.9181	27.832	54.5695	27.832	54.794	27.832	54.3538	27.832	54.6554	27.832	54.156	27.832	54.5024	27.832	53.9898	27.832	54.3401	27.832	53.8632	27.832	54.1782	27.832	53.7779	27.832	54.0286	27.832	53.7312	27.832	53.9021	27.832	53.7206	27.832	53.8064	27.832	53.7456
29.2969	55.7741	29.2969	55.7766	29.2969	55.7545	29.2969	55.7603	29.2969	55.719	29.2969	55.7237	29.2969	55.6693	29.2969	55.6658	29.2969	55.6067	29.2969	55.5858	29.2969	55.5329	29.2969	55.4838	29.2969	55.4488	29.2969	55.3605	29.2969	55.3544	29.2969	55.2175	29.2969	55.2486	29.2969	55.0575	29.2969	55.1305	29.2969	54.8858	29.2969	55	29.2969	54.7105	29.2969	54.8597	29.2969	54.5418	29.2969	54.7147	29.2969	54.3894	29.2969	54.5717	29.2969	54.2611	29.2969	54.4372	29.2969	54.1624	29.2969	54.3163	29.2969	54.098	29.2969	54.2136	29.2969	54.0718	29.2969	54.1342	29.2969	54.0848
30.7617	57.0459	30.7617	57.074	30.7617	57.0033	30.7617	57.0874	30.7617	56.9456	30.7617	57.0854	30.7617	56.8727	30.7617	57.0669	30.7617	56.7851	30.7617	57.0307	30.7617	56.685	30.7617	56.9764	30.7617	56.5763	30.7617	56.904	30.7617	56.464	30.7617	56.8143	30.7617	56.3528	30.7617	56.7087	30.7617	56.2456	30.7617	56.5888	30.7617	56.1428	30.7617	56.457	30.7617	56.0437	30.7617	56.3161	30.7617	55.9484	30.7617	56.1704	30.7617	55.859	30.7617	56.0258	30.7617	55.7791	30.7617	55.8908	30.7617	55.7126	30.7617	55.7762	30.7617	55.6641	30.7617	55.693	30.7617	55.64	30.7617	55.6477
32.2266	58.9725	32.2266	58.9769	32.2266	58.9613	32.2266	58.9747	32.2266	58.9428	32.2266	58.9659	32.2266	58.9165	32.2266	58.9503	32.2266	58.8828	32.2266	58.9272	32.2266	58.8431	32.2266	58.8959	32.2266	58.8	32.2266	58.8559	32.2266	58.7572	32.2266	58.8074	32.2266	58.7187	32.2266	58.7512	32.2266	58.6871	32.2266	58.689	32.2266	58.6635	32.2266	58.6232	32.2266	58.6469	32.2266	58.5571	32.2266	58.6344	32.2266	58.4958	32.2266	58.6213	32.2266	58.4454	32.2266	58.6021	32.2266	58.412	32.2266	58.5726	32.2266	58.4002	32.2266	58.5323	32.2266	58.4114	32.2266	58.486	32.2266	58.4425
33.6914	60.7072	33.6914	60.7285	33.6914	60.6706	33.6914	60.7348	33.6914	60.6185	33.6914	60.7258	33.6914	60.5506	33.6914	60.701	33.6914	60.4671	33.6914	60.66	33.6914	60.3691	33.6914	60.6029	33.6914	60.2594	33.6914	60.5301	33.6914	60.1415	33.6914	60.4424	33.6914	60.0202	33.6914	60.3416	33.6914	59.9002	33.6914	60.2298	33.6914	59.786	33.6914	60.1101	33.6914	59.6819	33.6914	59.9862	33.6914	59.5922	33.6914	59.8628	33.6914	59.5203	33.6914	59.7455	33.6914	59.4681	33.6914	59.6403	33.6914	59.4354	33.6914	59.553	33.6914	59.4208	33.6914	59.4875	33.6914	59.4235	33.6914	59.4449
35.1562	62.1239	35.1562	62.1226	35.1562	62.1137	35.1562	62.1106	35.1562	62.0912	35.1562	62.088	35.1562	62.0554	35.1562	62.0547	35.1562	62.006	35.1562	62.01	35.1562	61.9435	35.1562	61.9533	35.1562	61.8698	35.1562	61.8844	35.1562	61.7874	35.1562	61.8038	35.1562	61.6994	35.1562	61.7129	35.1562	61.6087	35.1562	61.614	35.1562	61.5173	35.1562	61.5097	35.1562	61.4268	35.1562	61.4027	35.1562	61.3379	35.1562	61.2963	35.1562	61.2513	35.1562	61.1944	35.1562	61.1681	35.1562	61.1025	35.1562	61.0911	35.1562	61.0282	35.1562	61.0258	35.1562	60.9797	35.1562	60.9804	35.1562	60.9635
36.6211	63.6784	36.6211	63.6934	36.6211	63.6465	36.6211	63.6915	36.6211	63.5978	36.6211	63.6722	36.6211	63.5322	36.6211	63.6347	36.6211	63.45	36.6211	63.5782	36.6211	63.3523	36.6211	63.5021	36.6211	63.241	36.6211	63.4063	36.6211	63.1189	36.6211	63.292	36.6211	62.9893	36.6211	63.1618	36.6211	62.8557	36.6211	63.0196	36.6211	62.7217	36.6211	62.8703	36.6211	62.591	36.6211	62.7191	36.6211	62.4673	36.6211	62.5715	36.6211	62.3544	36.6211	62.4333	36.6211	62.2561	36.6211	62.3105	36.6211	62.1764	36.6211	62.2097	36.6211	62.1201	36.6211	62.1371	36.6211	62.0923	36.6211	62.0974
38.0859	64.9807	38.0859	64.9655	38.0859	64.9739	38.0859	64.9274	38.0859	64.9457	38.0859	64.8652	38.0859	64.8967	38.0859	64.7777	38.0859	64.8271	38.0859	64.6641	38.0859	64.7376	38.0859	64.5237	38.0859	64.6292	38.0859	64.3572	38.0859	64.5031	38.0859	64.1671	38.0859	64.3611	38.0859	63.9581	38.0859	64.2054	38.0859	63.7382	38.0859	64.0387	38.0859	63.5183	38.0859	63.865	38.0859	63.3111	38.0859	63.6888	38.0859	63.1296	38.0859	63.5151	38.0859	62.9843	38.0859	63.3485	38.0859	62.8826	38.0859	63.1934	38.0859	62.8283	38.0859	63.0556	38.0859	62.8221	38.0859	62.9422	38.0859	62.8619
39.5508	66.0294	39.5508	66.0108	39.5508	66.0246	39.5508	65.9676	39.5508	65.997	39.5508	65.8975	39.5508	65.9463	39.5508	65.798	39.5508	65.8722	39.5508	65.6663	39.5508	65.7741	39.5508	65.4998	39.5508	65.6519	39.5508	65.2971	39.5508	65.506	39.5508	65.0592	39.5508	65.3376	39.5508	64.7912	39.5508	65.1485	39.5508	64.5033	39.5508	64.9419	39.5508	64.2109	39.5508	64.7222	39.5508	63.9337	39.5508	64.4948	39.5508	63.691	39.5508	64.2646	39.5508	63.4974	39.5508	64.0362	39.5508	63.361	39.5508	63.8154	39.5508	63.2851	39.5508	63.6128	39.5508	63.2729	39.5508	63.4443	39.5508	63.327
41.0156	70.3308	41.0156	70.3414	41.0156	70.3242	41.0156	70.3543	41.0156	70.3228	41.0156	70.3675	41.0156	70.3276	41.0156	70.379	41.0156	70.3391	41.0156	70.3871	41.0156	70.3575	41.0156	70.3903	41.0156	70.3827	41.0156	70.3878	41.0156	70.4138	41.0156	70.3795	41.0156	70.4494	41.0156	70.3656	41.0156	70.4872	41.0156	70.3462	41.0156	70.5242	41.0156	70.3215	41.0156	70.5571	41.0156	70.2921	41.0156	70.5826	41.0156	70.2615	41.0156	70.597	41.0156	70.2384	41.0156	70.597	41.0156	70.2361	41.0156	70.5792	41.0156	70.2651	41.0156	70.5404	41.0156	70.3252	41.0156	70.4798	41.0156	70.4031
42.4805	69.0336	42.4805	69.0274	42.4805	69.0259	42.4805	69.0074	42.4805	69.0042	42.4805	68.9742	42.4805	68.9684	42.4805	68.9281	42.4805	68.9187	42.4805	68.8697	42.4805	68.8554	42.4805	68.7997	42.4805	68.7789	42.4805	68.7188	42.4805	68.6894	42.4805	68.6287	42.4805	68.587	42.4805	68.5319	42.4805	68.4716	42.4805	68.4318	42.4805	68.3434	42.4805	68.3327	42.4805	68.2039	42.4805	68.2378	42.4805	68.0581	42.4805	68.1489	42.4805	67.9165	42.4805	68.0658	42.4805	67.7955	42.4805	67.9863	42.4805	67.7136	42.4805	67.9077	42.4805	67.6826	42.4805	67.8294	42.4805	67.7014	42.4805	67.7563
43.9453	70.3932	43.9453	70.3902	43.9453	70.3923	43.9453	70.3837	43.9453	70.3873	43.9453	70.3743	43.9453	70.3786	43.9453	70.3633	43.9453	70.3669	43.9453	70.3523	43.9453	70.3534	43.9453	70.3431	43.9453	70.3397	43.9453	70.3377	43.9453	70.328	43.9453	70.338	43.9453	70.3207	43.9453	70.3454	43.9453	70.3198	43.9453	70.3606	43.9453	70.3263	43.9453	70.3834	43.9453	70.3404	43.9453	70.4118	43.9453	70.361	43.9453	70.4431	43.9453	70.3868	43.9453	70.4738	43.9453	70.4166	43.9453	70.5003	43.9453	70.4487	43.9453	70.5193	43.9453	70.4801	43.9453	70.5277	43.9453	70.5066	43.9453	70.5235
45.4102	71.8463	45.4102	71.852	45.4102	71.8344	45.4102	71.8515	45.4102	71.8163	45.4102	71.8455	45.4102	71.7928	45.4102	71.8347	45.4102	71.7649	45.4102	71.8204	45.4102	71.7342	45.4102	71.8039	45.4102	71.7029	45.4102	71.787	45.4102	71.6731	45.4102	71.7712	45.4102	71.6473	45.4102	71.7583	45.4102	71.6276	45.4102	71.7493	45.4102	71.6157	45.4102	71.7448	45.4102	71.6122	45.4102	71.7439	45.4102	71.6171	45.4102	71.7453	45.4102	71.6295	45.4102	71.7471	45.4102	71.6479	45.4102	71.7479	45.4102	71.6702	45.4102	71.7463	45.4102	71.6934	45.4102	71.741	45.4102	71.7144	45.4102	71.7306
46.875	73.2354	46.875	73.2373	46.875	73.2245	46.875	73.2304	46.875	73.2043	46.875	73.2155	46.875	73.1746	46.875	73.193	46.875	73.136	46.875	73.1638	46.875	73.0891	46.875	73.1287	46.875	73.0354	46.875	73.0887	46.875	72.9769	46.875	73.0449	46.875	72.9159	46.875	72.9988	46.875	72.855	46.875	72.9515	46.875	72.797	46.875	72.904	46.875	72.7441	46.875	72.8568	46.875	72.6986	46.875	72.8103	46.875	72.6621	46.875	72.7654	46.875	72.6359	46.875	72.7237	46.875	72.6206	46.875	72.6871	46.875	72.616	46.875	72.6573	46.875	72.6212	46.875	72.6352
48.3398	74.2462	48.3398	74.2454	48.3398	74.2398	48.3398	74.2376	48.3398	74.2262	48.3398	74.2231	48.3398	74.2057	48.3398	74.2024	48.3398	74.1787	48.3398	74.1762	48.3398	74.1461	48.3398	74.1455	48.3398	74.109	48.3398	74.1112	48.3398	74.0689	48.3398	74.0749	48.3398	74.0276	48.3398	74.038	48.3398	73.9868	48.3398	74.0024	48.3398	73.9485	48.3398	73.9693	48.3398	73.9144	48.3398	73.9399	48.3398	73.8859	48.3398	73.9145	48.3398	73.8638	48.3398	73.8932	48.3398	73.8487	48.3398	73.8758	48.3398	73.8401	48.3398	73.8621	48.3398	73.8372	48.3398	73.8515	48.3398	73.8389	48.3398	73.8438
51.2695	76.7451	51.2695	76.7494	51.2695	76.7325	51.2695	76.7453	51.2695	76.7117	51.2695	76.733	51.2695	76.6834	51.2695	76.7129	51.2695	76.6484	51.2695	76.6856	51.2695	76.6078	51.2695	76.652	51.2695	76.5631	51.2695	76.6132	51.2695	76.5158	51.2695	76.5707	51.2695	76.4677	51.2695	76.5259	51.2695	76.4206	51.2695	76.4809	51.2695	76.3762	51.2695	76.4371	51.2695	76.3361	51.2695	76.3961	51.2695	76.3014	51.2695	76.3589	51.2695	76.2731	51.2695	76.3261	51.2695	76.2521	51.2695	76.2979	51.2695	76.2388	51.2695	76.2746	51.2695	76.2332	51.2695	76.2561	51.2695	76.2348	51.2695	76.2427
52.7344	77.9246	52.7344	77.9263	52.7344	77.9151	52.7344	77.92	52.7344	77.8977	52.7344	77.9062	52.7344	77.873	52.7344	77.8852	52.7344	77.8417	52.7344	77.8577	52.7344	77.8045	52.7344	77.8246	52.7344	77.7629	52.7344	77.787	52.7344	77.7183	52.7344	77.7461	52.7344	77.6724	52.7344	77.7036	52.7344	77.6271	52.7344	77.6611	52.7344	77.5841	52.7344	77.6201	52.7344	77.5449	52.7344	77.582	52.7344	77.511	52.7344	77.5475	52.7344	77.4834	52.7344	77.5174	52.7344	77.4626	52.7344	77.4921	52.7344	77.4489	52.7344	77.4717	52.7344	77.442	52.7344	77.4563	52.7344	77.4413	52.7344	77.4462
54.1992	78.9729	54.1992	78.9718	54.1992	78.9669	54.1992	78.9636	54.1992	78.954	54.1992	78.9485	54.1992	78.9346	54.1992	78.9271	54.1992	78.9094	54.1992	78.9	54.1992	78.8792	54.1992	78.8683	54.1992	78.8451	54.1992	78.8331	54.1992	78.8082	54.1992	78.7961	54.1992	78.7701	54.1992	78.7588	54.1992	78.7321	54.1992	78.7228	54.1992	78.6958	54.1992	78.6896	54.1992	78.6628	54.1992	78.6602	54.1992	78.6343	54.1992	78.6352	54.1992	78.6113	54.1992	78.6148	54.1992	78.5944	54.1992	78.5991	54.1992	78.5832	54.1992	78.5877	54.1992	78.5771	54.1992	78.5802	54.1992	78.575	54.1992	78.5761
55.6641	79.9306	55.6641	79.9294	55.6641	79.9244	55.6641	79.921	55.6641	79.9112	55.6641	79.9059	55.6641	79.8916	55.6641	79.8846	55.6641	79.8662	55.6641	79.8582	55.6641	79.8362	55.6641	79.8279	55.6641	79.8029	55.6641	79.7951	55.6641	79.7677	55.6641	79.7614	55.6641	79.7322	55.6641	79.7285	55.6641	79.6979	55.6641	79.698	55.6641	79.6663	55.6641	79.671	55.6641	79.6389	55.6641	79.6485	55.6641	79.6167	55.6641	79.6304	55.6641	79.6003	55.6641	79.6165	55.6641	79.5897	55.6641	79.606	55.6641	79.5843	55.6641	79.5981	55.6641	79.583	55.6641	79.5921	55.6641	79.5845	55.6641	79.5877
58.5938	81.8976	58.5938	81.8912	58.5938	81.895	58.5938	81.8761	58.5938	81.8838	58.5938	81.8528	58.5938	81.8647	58.5938	81.8222	58.5938	81.8387	58.5938	81.7857	58.5938	81.8071	58.5938	81.745	58.5938	81.7712	58.5938	81.702	58.5938	81.7324	58.5938	81.6588	58.5938	81.6923	58.5938	81.6173	58.5938	81.6523	58.5938	81.5792	58.5938	81.6138	58.5938	81.5458	58.5938	81.5781	58.5938	81.5177	58.5938	81.5461	58.5938	81.4952	58.5938	81.5185	58.5938	81.478	58.5938	81.4956	58.5938	81.4656	58.5938	81.4776	58.5938	81.4575	58.5938	81.4647	58.5938	81.4533	58.5938	81.4565	58.5938	81.4529
60.0586	82.8086	60.0586	82.8044	60.0586	82.8036	60.0586	82.7911	60.0586	82.7894	60.0586	82.7692	60.0586	82.7667	60.0586	82.7397	60.0586	82.7361	60.0586	82.7038	60.0586	82.6987	60.0586	82.663	60.0586	82.6559	60.0586	82.6191	60.0586	82.6091	60.0586	82.5739	60.0586	82.5601	60.0586	82.5292	60.0586	82.5107	60.0586	82.4869	60.0586	82.4631	60.0586	82.4484	60.0586	82.4192	60.0586	82.4146	60.0586	82.3809	60.0586	82.386	60.0586	82.3497	60.0586	82.3624	60.0586	82.3263	60.0586	82.3433	60.0586	82.311	60.0586	82.3278	60.0586	82.3033	60.0586	82.3156	60.0586	82.3023	60.0586	82.3068
62.9883	84.2659	62.9883	84.2594	62.9883	84.2634	62.9883	84.2443	62.9883	84.2521	62.9883	84.2212	62.9883	84.2324	62.9883	84.1912	62.9883	84.2052	62.9883	84.1556	62.9883	84.1714	62.9883	84.116	62.9883	84.1326	62.9883	84.0744	62.9883	84.0902	62.9883	84.0327	62.9883	84.0461	62.9883	83.9927	62.9883	84.0021	62.9883	83.9561	62.9883	83.96	62.9883	83.9241	62.9883	83.9216	62.9883	83.8974	62.9883	83.8884	62.9883	83.8759	62.9883	83.8613	62.9883	83.859	62.9883	83.841	62.9883	83.8459	62.9883	83.8274	62.9883	83.8355	62.9883	83.8202	62.9883	83.8272	62.9883	83.8185	62.9883	83.8213
64.4531	84.8528	64.4531	84.8425	64.4531	84.8542	64.4531	84.8237	64.4531	84.847	64.4531	84.7973	64.4531	84.8314	64.4531	84.7642	64.4531	84.8081	64.4531	84.726	64.4531	84.7783	64.4531	84.6845	64.4531	84.7431	64.4531	84.6417	64.4531	84.7041	64.4531	84.5997	64.4531	84.6628	64.4531	84.5607	64.4531	84.621	64.4531	84.5262	64.4531	84.5805	64.4531	84.4975	64.4531	84.5429	64.4531	84.4751	64.4531	84.5097	64.4531	84.4587	64.4531	84.482	64.4531	84.4474	64.4531	84.4604	64.4531	84.4399	64.4531	84.445	64.4531	84.435	64.4531	84.4356	64.4531	84.4317	64.4531	84.431	64.4531	84.4302
67.3828	85.7319	67.3828	85.7165	67.3828	85.7389	67.3828	85.6927	67.3828	85.7377	67.3828	85.6612	67.3828	85.729	67.3828	85.623	67.3828	85.7135	67.3828	85.5797	67.3828	85.6925	67.3828	85.5332	67.3828	85.6672	67.3828	85.4859	67.3828	85.6387	67.3828	85.4402	67.3828	85.6083	67.3828	85.3988	67.3828	85.5775	67.3828	85.3638	67.3828	85.5474	67.3828	85.3371	67.3828	85.5189	67.3828	85.3199	67.3828	85.4928	67.3828	85.3124	67.3828	85.4692	67.3828	85.3139	67.3828	85.448	67.3828	85.3228	67.3828	85.4284	67.3828	85.337	67.3828	85.4097	67.3828	85.3542	67.3828	85.3913	67.3828	85.3727
68.8477	86.128	68.8477	86.1145	68.8477	86.1321	68.8477	86.0919	68.8477	86.1274	68.8477	86.0605	68.8477	86.1146	68.8477	86.0214	68.8477	86.095	68.8477	85.9762	68.8477	86.0699	68.8477	85.927	68.8477	86.0407	68.8477	85.8762	68.8477	86.0087	68.8477	85.8265	68.8477	85.9755	68.8477	85.7805	68.8477	85.9422	68.8477	85.7408	68.8477	85.9101	68.8477	85.7094	68.8477	85.88	68.8477	85.6876	68.8477	85.8526	68.8477	85.6758	68.8477	85.8278	68.8477	85.6736	68.8477	85.8055	68.8477	85.6796	68.8477	85.785	68.8477	85.6919	68.8477	85.7654	68.8477	85.7083	68.8477	85.7461	68.8477	85.7268
