"SPL Vertical"
"On-Axis"		"10°"		"-10°"		"20°"		"-20°"		"30°"		"-30°"		"40°"		"-40°"		"50°"		"-50°"		"60°"		"-60°"		"70°"		"-70°"		"80°"		"-80°"		"90°"		"-90°"		"100°"		"-100°"		"110°"		"-110°"		"120°"		"-120°"		"130°"		"-130°"		"140°"		"-140°"		"150°"		"-150°"		"160°"		"-160°"		"170°"		"-170°"		"180°"
"Frequency [Hz]"	"Sound Pessure Level [dB]  / [2.83V 1m] "	"Frequency [Hz]"	"Sound Pessure Level [dB]  / [2.83V 1m] "	"Frequency [Hz]"	"Sound Pessure Level [dB]  / [2.83V 1m] "	"Frequency [Hz]"	"Sound Pessure Level [dB]  / [2.83V 1m] "	"Frequency [Hz]"	"Sound Pessure Level [dB]  / [2.83V 1m] "	"Frequency [Hz]"	"Sound Pessure Level [dB]  / [2.83V 1m] "	"Frequency [Hz]"	"Sound Pessure Level [dB]  / [2.83V 1m] "	"Frequency [Hz]"	"Sound Pessure Level [dB]  / [2.83V 1m] "	"Frequency [Hz]"	"Sound Pessure Level [dB]  / [2.83V 1m] "	"Frequency [Hz]"	"Sound Pessure Level [dB]  / [2.83V 1m] "	"Frequency [Hz]"	"Sound Pessure Level [dB]  / [2.83V 1m] "	"Frequency [Hz]"	"Sound Pessure Level [dB]  / [2.83V 1m] "	"Frequency [Hz]"	"Sound Pessure Level [dB]  / [2.83V 1m] "	"Frequency [Hz]"	"Sound Pessure Level [dB]  / [2.83V 1m] "	"Frequency [Hz]"	"Sound Pessure Level [dB]  / [2.83V 1m] "	"Frequency [Hz]"	"Sound Pessure Level [dB]  / [2.83V 1m] "	"Frequency [Hz]"	"Sound Pessure Level [dB]  / [2.83V 1m] "	"Frequency [Hz]"	"Sound Pessure Level [dB]  / [2.83V 1m] "	"Frequency [Hz]"	"Sound Pessure Level [dB]  / [2.83V 1m] "	"Frequency [Hz]"	"Sound Pessure Level [dB]  / [2.83V 1m] "	"Frequency [Hz]"	"Sound Pessure Level [dB]  / [2.83V 1m] "	"Frequency [Hz]"	"Sound Pessure Level [dB]  / [2.83V 1m] "	"Frequency [Hz]"	"Sound Pessure Level [dB]  / [2.83V 1m] "	"Frequency [Hz]"	"Sound Pessure Level [dB]  / [2.83V 1m] "	"Frequency [Hz]"	"Sound Pessure Level [dB]  / [2.83V 1m] "	"Frequency [Hz]"	"Sound Pessure Level [dB]  / [2.83V 1m] "	"Frequency [Hz]"	"Sound Pessure Level [dB]  / [2.83V 1m] "	"Frequency [Hz]"	"Sound Pessure Level [dB]  / [2.83V 1m] "	"Frequency [Hz]"	"Sound Pessure Level [dB]  / [2.83V 1m] "	"Frequency [Hz]"	"Sound Pessure Level [dB]  / [2.83V 1m] "	"Frequency [Hz]"	"Sound Pessure Level [dB]  / [2.83V 1m] "	"Frequency [Hz]"	"Sound Pessure Level [dB]  / [2.83V 1m] "	"Frequency [Hz]"	"Sound Pessure Level [dB]  / [2.83V 1m] "	"Frequency [Hz]"	"Sound Pessure Level [dB]  / [2.83V 1m] "	"Frequency [Hz]"	"Sound Pessure Level [dB]  / [2.83V 1m] "	"Frequency [Hz]"	"Sound Pessure Level [dB]  / [2.83V 1m] "
20.5078	54.4315	20.5078	54.433	20.5078	54.453	20.5078	54.4505	20.5078	54.5035	20.5078	54.4762	20.5078	54.5889	20.5078	54.5026	20.5078	54.715	20.5078	54.5242	20.5078	54.8872	20.5078	54.5391	20.5078	55.1078	20.5078	54.5497	20.5078	55.3735	20.5078	54.5621	20.5078	55.6724	20.5078	54.5853	20.5078	55.9828	20.5078	54.6286	20.5078	56.2741	20.5078	54.7002	20.5078	56.5111	20.5078	54.8047	20.5078	56.6613	20.5078	54.941	20.5078	56.7043	20.5078	55.1024	20.5078	56.6393	20.5078	55.2789	20.5078	56.4869	20.5078	55.462	20.5078	56.2823	20.5078	55.6503	20.5078	56.0616	20.5078	55.8487
21.9727	48.0357	21.9727	47.8977	21.9727	48.1913	21.9727	47.7769	21.9727	48.3656	21.9727	47.6726	21.9727	48.5611	21.9727	47.5832	21.9727	48.7829	21.9727	47.5067	21.9727	49.0368	21.9727	47.4413	21.9727	49.3256	21.9727	47.3865	21.9727	49.6453	21.9727	47.3436	21.9727	49.9817	21.9727	47.3173	21.9727	50.3095	21.9727	47.3178	21.9727	50.5951	21.9727	47.3604	21.9727	50.8006	21.9727	47.4633	21.9727	50.8916	21.9727	47.6406	21.9727	50.8475	21.9727	47.8928	21.9727	50.6698	21.9727	48.2049	21.9727	50.3845	21.9727	48.5525	21.9727	50.034	21.9727	48.9152	21.9727	49.6592	21.9727	49.2842
23.4375	51.9915	23.4375	52.0101	23.4375	51.9616	23.4375	52.0126	23.4375	51.9266	23.4375	51.9952	23.4375	51.8939	23.4375	51.955	23.4375	51.8716	23.4375	51.8897	23.4375	51.8657	23.4375	51.798	23.4375	51.8797	23.4375	51.6807	23.4375	51.9125	23.4375	51.5406	23.4375	51.9588	23.4375	51.3836	23.4375	52.0088	23.4375	51.2194	23.4375	52.049	23.4375	51.0613	23.4375	52.0639	23.4375	50.9258	23.4375	52.0396	23.4375	50.8303	23.4375	51.9678	23.4375	50.7887	23.4375	51.8495	23.4375	50.8073	23.4375	51.6947	23.4375	50.8833	23.4375	51.5184	23.4375	51.0059	23.4375	51.3361	23.4375	51.1612
24.9023	51.2349	24.9023	51.2168	24.9023	51.2324	24.9023	51.1746	24.9023	51.2104	24.9023	51.1023	24.9023	51.1688	24.9023	50.9932	24.9023	51.1082	24.9023	50.8406	24.9023	51.0309	24.9023	50.6404	24.9023	50.9394	24.9023	50.3917	24.9023	50.8352	24.9023	50.0977	24.9023	50.7176	24.9023	49.7659	24.9023	50.5828	24.9023	49.4081	24.9023	50.4241	24.9023	49.0416	24.9023	50.2333	24.9023	48.6906	24.9023	50.0038	24.9023	48.3846	24.9023	49.7348	24.9023	48.1535	24.9023	49.4333	24.9023	48.02	24.9023	49.1138	24.9023	47.9952	24.9023	48.7954	24.9023	48.077	24.9023	48.5002	24.9023	48.2524
26.3672	51.6683	26.3672	51.674	26.3672	51.6384	26.3672	51.6506	26.3672	51.5906	26.3672	51.5944	26.3672	51.5318	26.3672	51.5031	26.3672	51.469	26.3672	51.3748	26.3672	51.4071	26.3672	51.208	26.3672	51.3477	26.3672	51.0017	26.3672	51.2882	26.3672	50.7556	26.3672	51.2216	26.3672	50.4715	26.3672	51.1368	26.3672	50.1548	26.3672	51.0196	26.3672	49.815	26.3672	50.8549	26.3672	49.4668	26.3672	50.6303	26.3672	49.13	26.3672	50.3401	26.3672	48.8292	26.3672	49.9898	26.3672	48.5942	26.3672	49.5991	26.3672	48.4577	26.3672	49.2027	26.3672	48.4495	26.3672	48.8474	26.3672	48.5836
27.832	55.6578	27.832	55.6651	27.832	55.6345	27.832	55.6533	27.832	55.5968	27.832	55.6183	27.832	55.5457	27.832	55.5554	27.832	55.4818	27.832	55.4611	27.832	55.4061	27.832	55.3337	27.832	55.32	27.832	55.174	27.832	55.2256	27.832	54.9856	27.832	55.1242	27.832	54.775	27.832	55.016	27.832	54.5516	27.832	54.8993	27.832	54.3282	27.832	54.7707	27.832	54.12	27.832	54.6267	27.832	53.9427	27.832	54.4665	27.832	53.8084	27.832	54.2949	27.832	53.7229	27.832	54.1231	27.832	53.6861	27.832	53.966	27.832	53.6946	27.832	53.8373	27.832	53.7456
29.2969	55.7741	29.2969	55.6947	29.2969	55.8416	29.2969	55.605	29.2969	55.8946	29.2969	55.5061	29.2969	55.9297	29.2969	55.399	29.2969	55.9431	29.2969	55.2846	29.2969	55.9317	29.2969	55.1638	29.2969	55.8934	29.2969	55.0373	29.2969	55.8279	29.2969	54.9056	29.2969	55.7363	29.2969	54.7694	29.2969	55.6211	29.2969	54.6303	29.2969	55.4843	29.2969	54.491	29.2969	55.3281	29.2969	54.356	29.2969	55.1539	29.2969	54.2312	29.2969	54.9644	29.2969	54.1245	29.2969	54.7644	29.2969	54.0457	29.2969	54.5622	29.2969	54.0064	29.2969	54.3708	29.2969	54.0174	29.2969	54.2063	29.2969	54.0848
30.7617	57.0459	30.7617	57.0152	30.7617	57.0639	30.7617	56.9719	30.7617	57.0691	30.7617	56.9161	30.7617	57.0615	30.7617	56.8479	30.7617	57.0417	30.7617	56.7673	30.7617	57.0107	30.7617	56.6744	30.7617	56.9702	30.7617	56.5692	30.7617	56.9221	30.7617	56.452	30.7617	56.8676	30.7617	56.3238	30.7617	56.8069	30.7617	56.1869	30.7617	56.7378	30.7617	56.0454	30.7617	56.6557	30.7617	55.9057	30.7617	56.5549	30.7617	55.7758	30.7617	56.43	30.7617	55.666	30.7617	56.2798	30.7617	55.588	30.7617	56.11	30.7617	55.5535	30.7617	55.9346	30.7617	55.5723	30.7617	55.7736	30.7617	55.6477
32.2266	58.9725	32.2266	58.9164	32.2266	59.0204	32.2266	58.8552	32.2266	59.0574	32.2266	58.7924	32.2266	59.0814	32.2266	58.7314	32.2266	59.091	32.2266	58.6754	32.2266	59.0857	32.2266	58.6265	32.2266	59.0659	32.2266	58.5861	32.2266	59.0327	32.2266	58.5543	32.2266	58.9882	32.2266	58.5308	32.2266	58.9357	32.2266	58.5143	32.2266	58.8789	32.2266	58.5024	32.2266	58.8218	32.2266	58.4914	32.2266	58.7672	32.2266	58.477	32.2266	58.7154	32.2266	58.4569	32.2266	58.6635	32.2266	58.4341	32.2266	58.6079	32.2266	58.4173	32.2266	58.5479	32.2266	58.4178	32.2266	58.4892	32.2266	58.4425
33.6914	60.7072	33.6914	60.6685	33.6914	60.7332	33.6914	60.6179	33.6914	60.7457	33.6914	60.5561	33.6914	60.7438	33.6914	60.4834	33.6914	60.7269	33.6914	60.4	33.6914	60.6941	33.6914	60.3057	33.6914	60.6452	33.6914	60.2006	33.6914	60.5801	33.6914	60.0851	33.6914	60.4996	33.6914	59.9612	33.6914	60.4056	33.6914	59.8319	33.6914	60.3011	33.6914	59.7024	33.6914	60.1905	33.6914	59.5797	33.6914	60.0784	33.6914	59.4722	33.6914	59.9684	33.6914	59.3896	33.6914	59.8611	33.6914	59.3416	33.6914	59.7548	33.6914	59.3353	33.6914	59.6475	33.6914	59.372	33.6914	59.5413	33.6914	59.4449
35.1562	62.1239	35.1562	62.0704	35.1562	62.1705	35.1562	62.0106	35.1562	62.2088	35.1562	61.9447	35.1562	62.2364	35.1562	61.8727	35.1562	62.2502	35.1562	61.7943	35.1562	62.2469	35.1562	61.7091	35.1562	62.2234	35.1562	61.617	35.1562	62.1778	35.1562	61.5182	35.1562	62.1096	35.1562	61.4136	35.1562	62.0206	35.1562	61.305	35.1562	61.9142	35.1562	61.1955	35.1562	61.7959	35.1562	61.0898	35.1562	61.6715	35.1562	60.9946	35.1562	61.5457	35.1562	60.9186	35.1562	61.4209	35.1562	60.8715	35.1562	61.2974	35.1562	60.8619	35.1562	61.1761	35.1562	60.8937	35.1562	61.0616	35.1562	60.9635
36.6211	63.6784	36.6211	63.6217	36.6211	63.7209	36.6211	63.5511	36.6211	63.7486	36.6211	63.4668	36.6211	63.7602	36.6211	63.3687	36.6211	63.7539	36.6211	63.2571	36.6211	63.7276	36.6211	63.1322	36.6211	63.6794	36.6211	62.9945	36.6211	63.608	36.6211	62.8448	36.6211	63.514	36.6211	62.6853	36.6211	63.3997	36.6211	62.5197	36.6211	63.2692	36.6211	62.3542	36.6211	63.1281	36.6211	62.1978	36.6211	62.982	36.6211	62.063	36.6211	62.8348	36.6211	61.9639	36.6211	62.6877	36.6211	61.9142	36.6211	62.539	36.6211	61.9221	36.6211	62.3875	36.6211	61.9868	36.6211	62.2367	36.6211	62.0974
38.0859	64.9807	38.0859	64.9395	38.0859	65.0039	38.0859	64.881	38.0859	65.008	38.0859	64.8049	38.0859	64.9912	38.0859	64.711	38.0859	64.9516	38.0859	64.598	38.0859	64.8876	38.0859	64.4648	38.0859	64.798	38.0859	64.3102	38.0859	64.6832	38.0859	64.1339	38.0859	64.5453	38.0859	63.9371	38.0859	64.3881	38.0859	63.7235	38.0859	64.2173	38.0859	63.5004	38.0859	64.0394	38.0859	63.2791	38.0859	63.8603	38.0859	63.0752	38.0859	63.6834	38.0859	62.9072	38.0859	63.5086	38.0859	62.7934	38.0859	63.3342	38.0859	62.747	38.0859	63.1614	38.0859	62.7723	38.0859	62.9984	38.0859	62.8619
39.5508	66.0294	39.5508	65.9717	39.5508	66.0615	39.5508	65.8897	39.5508	66.0662	39.5508	65.7844	39.5508	66.042	39.5508	65.6563	39.5508	65.9872	39.5508	65.5053	39.5508	65.9003	39.5508	65.3311	39.5508	65.7805	39.5508	65.1335	39.5508	65.6279	39.5508	64.9133	39.5508	65.4442	39.5508	64.6734	39.5508	65.2333	39.5508	64.4194	39.5508	65.0015	39.5508	64.1603	39.5508	64.7571	39.5508	63.9092	39.5508	64.5088	39.5508	63.6812	39.5508	64.2638	39.5508	63.4923	39.5508	64.028	39.5508	63.3556	39.5508	63.8065	39.5508	63.2802	39.5508	63.6075	39.5508	63.2707	39.5508	63.4431	39.5508	63.327
41.0156	70.3308	41.0156	70.27	41.0156	70.4055	41.0156	70.2217	41.0156	70.4942	41.0156	70.1838	41.0156	70.5963	41.0156	70.1536	41.0156	70.71	41.0156	70.128	41.0156	70.8322	41.0156	70.1036	41.0156	70.9586	41.0156	70.0776	41.0156	71.0836	41.0156	70.0474	41.0156	71.2007	41.0156	70.0111	41.0156	71.3028	41.0156	69.968	41.0156	71.3824	41.0156	69.9196	41.0156	71.4311	41.0156	69.8712	41.0156	71.4402	41.0156	69.8339	41.0156	71.4008	41.0156	69.8254	41.0156	71.3045	41.0156	69.8671	41.0156	71.1464	41.0156	69.9773	41.0156	70.93	41.0156	70.1609	41.0156	70.672	41.0156	70.4031
42.4805	69.0336	42.4805	68.9476	42.4805	69.1139	42.4805	68.8571	42.4805	69.1863	42.4805	68.7633	42.4805	69.2478	42.4805	68.6669	42.4805	69.2951	42.4805	68.5683	42.4805	69.3242	42.4805	68.4681	42.4805	69.3313	42.4805	68.3667	42.4805	69.3128	42.4805	68.2645	42.4805	69.266	42.4805	68.1621	42.4805	69.1886	42.4805	68.0608	42.4805	69.0795	42.4805	67.9627	42.4805	68.9395	42.4805	67.8712	42.4805	68.7716	42.4805	67.7907	42.4805	68.5823	42.4805	67.7265	42.4805	68.3822	42.4805	67.6847	42.4805	68.1855	42.4805	67.6717	42.4805	68.0075	42.4805	67.6938	42.4805	67.8617	42.4805	67.7563
43.9453	70.3932	43.9453	70.3668	43.9453	70.4233	43.9453	70.3443	43.9453	70.4564	43.9453	70.3259	43.9453	70.4915	43.9453	70.3117	43.9453	70.5274	43.9453	70.3017	43.9453	70.5624	43.9453	70.2961	43.9453	70.5947	43.9453	70.2952	43.9453	70.6226	43.9453	70.2991	43.9453	70.6449	43.9453	70.3078	43.9453	70.6606	43.9453	70.3213	43.9453	70.6693	43.9453	70.3393	43.9453	70.6707	43.9453	70.3612	43.9453	70.6649	43.9453	70.386	43.9453	70.652	43.9453	70.4127	43.9453	70.6327	43.9453	70.4403	43.9453	70.6083	43.9453	70.4679	43.9453	70.5807	43.9453	70.4956	43.9453	70.552	43.9453	70.5235
45.4102	71.8463	45.4102	71.8158	45.4102	71.8763	45.4102	71.7856	45.4102	71.905	45.4102	71.7563	45.4102	71.9315	45.4102	71.7288	45.4102	71.9548	45.4102	71.7038	45.4102	71.9737	45.4102	71.6818	45.4102	71.9868	45.4102	71.663	45.4102	71.9933	45.4102	71.6476	45.4102	71.9925	45.4102	71.6356	45.4102	71.9844	45.4102	71.6271	45.4102	71.9694	45.4102	71.6226	45.4102	71.9483	45.4102	71.6225	45.4102	71.9222	45.4102	71.6276	45.4102	71.8924	45.4102	71.6384	45.4102	71.86	45.4102	71.655	45.4102	71.8265	45.4102	71.6766	45.4102	71.7931	45.4102	71.7022	45.4102	71.761	45.4102	71.7306
46.875	73.2354	46.875	73.2209	46.875	73.2451	46.875	73.2012	46.875	73.2501	46.875	73.1755	46.875	73.2505	46.875	73.1436	46.875	73.2459	46.875	73.1052	46.875	73.2359	46.875	73.0604	46.875	73.22	46.875	73.0098	46.875	73.1976	46.875	72.9541	46.875	73.1684	46.875	72.8948	46.875	73.1321	46.875	72.8335	46.875	73.0888	46.875	72.7725	46.875	73.0389	46.875	72.7145	46.875	72.9833	46.875	72.6633	46.875	72.9233	46.875	72.6229	46.875	72.8606	46.875	72.5977	46.875	72.7973	46.875	72.591	46.875	72.7362	46.875	72.604	46.875	72.6807	46.875	72.6352
48.3398	74.2462	48.3398	74.2273	48.3398	74.2623	48.3398	74.2056	48.3398	74.2753	48.3398	74.1809	48.3398	74.2849	48.3398	74.1528	48.3398	74.2907	48.3398	74.1209	48.3398	74.2924	48.3398	74.0849	48.3398	74.2896	48.3398	74.0447	48.3398	74.2819	48.3398	74.001	48.3398	74.2691	48.3398	73.9546	48.3398	74.2511	48.3398	73.9074	48.3398	74.2278	48.3398	73.8617	48.3398	74.1989	48.3398	73.8204	48.3398	74.1641	48.3398	73.7872	48.3398	74.1227	48.3398	73.7656	48.3398	74.0743	48.3398	73.7592	48.3398	74.0192	48.3398	73.7704	48.3398	73.9594	48.3398	73.7994	48.3398	73.8991	48.3398	73.8438
51.2695	76.7451	51.2695	76.7113	51.2695	76.7738	51.2695	76.6732	51.2695	76.7965	51.2695	76.6317	51.2695	76.8123	51.2695	76.5874	51.2695	76.8205	51.2695	76.5411	51.2695	76.8205	51.2695	76.4933	51.2695	76.8117	51.2695	76.4448	51.2695	76.7937	51.2695	76.3962	51.2695	76.7667	51.2695	76.3485	51.2695	76.7308	51.2695	76.3029	51.2695	76.6871	51.2695	76.261	51.2695	76.6367	51.2695	76.2249	51.2695	76.5813	51.2695	76.1968	51.2695	76.5226	51.2695	76.1792	51.2695	76.4623	51.2695	76.1743	51.2695	76.4019	51.2695	76.1834	51.2695	76.3434	51.2695	76.2066	51.2695	76.2893	51.2695	76.2427
52.7344	77.9246	52.7344	77.89	52.7344	77.9534	52.7344	77.8504	52.7344	77.9755	52.7344	77.8068	52.7344	77.9904	52.7344	77.7602	52.7344	77.9973	52.7344	77.7117	52.7344	77.996	52.7344	77.6623	52.7344	77.9861	52.7344	77.613	52.7344	77.9674	52.7344	77.5648	52.7344	77.9398	52.7344	77.519	52.7344	77.9037	52.7344	77.4768	52.7344	77.8599	52.7344	77.4399	52.7344	77.8098	52.7344	77.4099	52.7344	77.7554	52.7344	77.3888	52.7344	77.6987	52.7344	77.378	52.7344	77.6418	52.7344	77.3785	52.7344	77.5864	52.7344	77.3905	52.7344	77.5343	52.7344	77.4135	52.7344	77.487	52.7344	77.4462
54.1992	78.9729	54.1992	78.9413	54.1992	78.9998	54.1992	78.906	54.1992	79.0209	54.1992	78.8681	54.1992	79.0353	54.1992	78.8286	54.1992	79.0424	54.1992	78.7884	54.1992	79.0415	54.1992	78.7484	54.1992	79.0322	54.1992	78.7092	54.1992	79.0143	54.1992	78.6713	54.1992	78.988	54.1992	78.6354	54.1992	78.9538	54.1992	78.6024	54.1992	78.9131	54.1992	78.5735	54.1992	78.8676	54.1992	78.5502	54.1992	78.8195	54.1992	78.5338	54.1992	78.7711	54.1992	78.5256	54.1992	78.7242	54.1992	78.5262	54.1992	78.6804	54.1992	78.5354	54.1992	78.6407	54.1992	78.5524	54.1992	78.6058	54.1992	78.5761
55.6641	79.9306	55.6641	79.896	55.6641	79.9608	55.6641	79.8584	55.6641	79.9854	55.6641	79.8192	55.6641	80.0032	55.6641	79.7797	55.6641	80.0131	55.6641	79.7409	55.6641	80.0142	55.6641	79.7038	55.6641	80.0062	55.6641	79.669	55.6641	79.9887	55.6641	79.637	55.6641	79.9623	55.6641	79.6083	55.6641	79.9281	55.6641	79.5833	55.6641	79.8878	55.6641	79.5629	55.6641	79.8439	55.6641	79.5477	55.6641	79.7989	55.6641	79.5384	55.6641	79.7549	55.6641	79.5358	55.6641	79.7136	55.6641	79.5399	55.6641	79.676	55.6641	79.5504	55.6641	79.6425	55.6641	79.5666	55.6641	79.613	55.6641	79.5877
58.5938	81.8976	58.5938	81.8541	58.5938	81.934	58.5938	81.8051	58.5938	81.962	58.5938	81.7524	58.5938	81.9806	58.5938	81.6977	58.5938	81.9892	58.5938	81.6431	58.5938	81.9872	58.5938	81.5906	58.5938	81.9746	58.5938	81.5421	58.5938	81.9518	58.5938	81.4993	58.5938	81.9194	58.5938	81.4634	58.5938	81.8789	58.5938	81.4349	58.5938	81.8318	58.5938	81.4139	58.5938	81.7803	58.5938	81.3999	58.5938	81.7264	58.5938	81.3925	58.5938	81.6724	58.5938	81.3911	58.5938	81.62	58.5938	81.3961	58.5938	81.5708	58.5938	81.4077	58.5938	81.5258	58.5938	81.4266	58.5938	81.4862	58.5938	81.4529
60.0586	82.8086	60.0586	82.7703	60.0586	82.8393	60.0586	82.7256	60.0586	82.8614	60.0586	82.6755	60.0586	82.8741	60.0586	82.6215	60.0586	82.877	60.0586	82.565	60.0586	82.8697	60.0586	82.5079	60.0586	82.8524	60.0586	82.4519	60.0586	82.8256	60.0586	82.399	60.0586	82.7901	60.0586	82.3511	60.0586	82.7473	60.0586	82.3099	60.0586	82.6988	60.0586	82.2767	60.0586	82.6465	60.0586	82.2525	60.0586	82.5923	60.0586	82.2379	60.0586	82.5377	60.0586	82.2332	60.0586	82.4845	60.0586	82.2383	60.0586	82.4338	60.0586	82.2529	60.0586	82.3866	60.0586	82.2761	60.0586	82.344	60.0586	82.3068
62.9883	84.2659	62.9883	84.2232	62.9883	84.3	62.9883	84.1735	62.9883	84.3243	62.9883	84.1189	62.9883	84.338	62.9883	84.0614	62.9883	84.3407	62.9883	84.0033	62.9883	84.3327	62.9883	83.9468	62.9883	84.3145	62.9883	83.8942	62.9883	84.2872	62.9883	83.8472	62.9883	84.2522	62.9883	83.8074	62.9883	84.2112	62.9883	83.7759	62.9883	84.1659	62.9883	83.7533	62.9883	84.118	62.9883	83.7396	62.9883	84.0691	62.9883	83.7348	62.9883	84.0209	62.9883	83.7384	62.9883	83.9745	62.9883	83.7497	62.9883	83.931	62.9883	83.768	62.9883	83.8909	62.9883	83.7922	62.9883	83.8543	62.9883	83.8213
64.4531	84.8528	64.4531	84.8049	64.4531	84.8917	64.4531	84.75	64.4531	84.9203	64.4531	84.6902	64.4531	84.9379	64.4531	84.6279	64.4531	84.944	64.4531	84.5656	64.4531	84.9388	64.4531	84.5061	64.4531	84.9231	64.4531	84.4516	64.4531	84.8981	64.4531	84.4044	64.4531	84.8651	64.4531	84.3662	64.4531	84.8258	64.4531	84.3381	64.4531	84.782	64.4531	84.3205	64.4531	84.7353	64.4531	84.3131	64.4531	84.6871	64.4531	84.3154	64.4531	84.6389	64.4531	84.3262	64.4531	84.5919	64.4531	84.3444	64.4531	84.5471	64.4531	84.3685	64.4531	84.5051	64.4531	84.3974	64.4531	84.4661	64.4531	84.4302
67.3828	85.7319	67.3828	85.6789	67.3828	85.7753	67.3828	85.6181	67.3828	85.808	67.3828	85.5518	67.3828	85.8292	67.3828	85.4826	67.3828	85.839	67.3828	85.4136	67.3828	85.8377	67.3828	85.3478	67.3828	85.8263	67.3828	85.2886	67.3828	85.8061	67.3828	85.2385	67.3828	85.7789	67.3828	85.2001	67.3828	85.7464	67.3828	85.1749	67.3828	85.7102	67.3828	85.1637	67.3828	85.6715	67.3828	85.1664	67.3828	85.6312	67.3828	85.1818	67.3828	85.5899	67.3828	85.2082	67.3828	85.5477	67.3828	85.243	67.3828	85.5049	67.3828	85.2837	67.3828	85.4616	67.3828	85.3277	67.3828	85.4175	67.3828	85.3727
68.8477	86.128	68.8477	86.0785	68.8477	86.167	68.8477	86.0202	68.8477	86.1944	68.8477	85.9553	68.8477	86.2099	68.8477	85.8865	68.8477	86.2135	68.8477	85.8169	68.8477	86.206	68.8477	85.7499	68.8477	86.1884	68.8477	85.6886	68.8477	86.1624	68.8477	85.6359	68.8477	86.13	68.8477	85.5942	68.8477	86.0932	68.8477	85.5653	68.8477	86.0538	68.8477	85.5498	68.8477	86.0134	68.8477	85.5477	68.8477	85.9727	68.8477	85.5581	68.8477	85.932	68.8477	85.5793	68.8477	85.8914	68.8477	85.6092	68.8477	85.8508	68.8477	85.6454	68.8477	85.8099	68.8477	85.6853	68.8477	85.7686	68.8477	85.7268
