"SPL Vertical"
"On-Axis"		"10°"		"-10°"		"20°"		"-20°"		"30°"		"-30°"		"40°"		"-40°"		"50°"		"-50°"		"60°"		"-60°"		"70°"		"-70°"		"80°"		"-80°"		"90°"		"-90°"		"100°"		"-100°"		"110°"		"-110°"		"120°"		"-120°"		"130°"		"-130°"		"140°"		"-140°"		"150°"		"-150°"		"160°"		"-160°"		"170°"		"-170°"		"180°"
"Frequency / Hz"	"Sound Pressure Level / dB (re 20 µPa/V)  [2.83  V @ 1. m]"	"Frequency / Hz"	"Sound Pressure Level / dB (re 20 µPa/V)  [2.83  V @ 1. m]"	"Frequency / Hz"	"Sound Pressure Level / dB (re 20 µPa/V)  [2.83  V @ 1. m]"	"Frequency / Hz"	"Sound Pressure Level / dB (re 20 µPa/V)  [2.83  V @ 1. m]"	"Frequency / Hz"	"Sound Pressure Level / dB (re 20 µPa/V)  [2.83  V @ 1. m]"	"Frequency / Hz"	"Sound Pressure Level / dB (re 20 µPa/V)  [2.83  V @ 1. m]"	"Frequency / Hz"	"Sound Pressure Level / dB (re 20 µPa/V)  [2.83  V @ 1. m]"	"Frequency / Hz"	"Sound Pressure Level / dB (re 20 µPa/V)  [2.83  V @ 1. m]"	"Frequency / Hz"	"Sound Pressure Level / dB (re 20 µPa/V)  [2.83  V @ 1. m]"	"Frequency / Hz"	"Sound Pressure Level / dB (re 20 µPa/V)  [2.83  V @ 1. m]"	"Frequency / Hz"	"Sound Pressure Level / dB (re 20 µPa/V)  [2.83  V @ 1. m]"	"Frequency / Hz"	"Sound Pressure Level / dB (re 20 µPa/V)  [2.83  V @ 1. m]"	"Frequency / Hz"	"Sound Pressure Level / dB (re 20 µPa/V)  [2.83  V @ 1. m]"	"Frequency / Hz"	"Sound Pressure Level / dB (re 20 µPa/V)  [2.83  V @ 1. m]"	"Frequency / Hz"	"Sound Pressure Level / dB (re 20 µPa/V)  [2.83  V @ 1. m]"	"Frequency / Hz"	"Sound Pressure Level / dB (re 20 µPa/V)  [2.83  V @ 1. m]"	"Frequency / Hz"	"Sound Pressure Level / dB (re 20 µPa/V)  [2.83  V @ 1. m]"	"Frequency / Hz"	"Sound Pressure Level / dB (re 20 µPa/V)  [2.83  V @ 1. m]"	"Frequency / Hz"	"Sound Pressure Level / dB (re 20 µPa/V)  [2.83  V @ 1. m]"	"Frequency / Hz"	"Sound Pressure Level / dB (re 20 µPa/V)  [2.83  V @ 1. m]"	"Frequency / Hz"	"Sound Pressure Level / dB (re 20 µPa/V)  [2.83  V @ 1. m]"	"Frequency / Hz"	"Sound Pressure Level / dB (re 20 µPa/V)  [2.83  V @ 1. m]"	"Frequency / Hz"	"Sound Pressure Level / dB (re 20 µPa/V)  [2.83  V @ 1. m]"	"Frequency / Hz"	"Sound Pressure Level / dB (re 20 µPa/V)  [2.83  V @ 1. m]"	"Frequency / Hz"	"Sound Pressure Level / dB (re 20 µPa/V)  [2.83  V @ 1. m]"	"Frequency / Hz"	"Sound Pressure Level / dB (re 20 µPa/V)  [2.83  V @ 1. m]"	"Frequency / Hz"	"Sound Pressure Level / dB (re 20 µPa/V)  [2.83  V @ 1. m]"	"Frequency / Hz"	"Sound Pressure Level / dB (re 20 µPa/V)  [2.83  V @ 1. m]"	"Frequency / Hz"	"Sound Pressure Level / dB (re 20 µPa/V)  [2.83  V @ 1. m]"	"Frequency / Hz"	"Sound Pressure Level / dB (re 20 µPa/V)  [2.83  V @ 1. m]"	"Frequency / Hz"	"Sound Pressure Level / dB (re 20 µPa/V)  [2.83  V @ 1. m]"	"Frequency / Hz"	"Sound Pressure Level / dB (re 20 µPa/V)  [2.83  V @ 1. m]"	"Frequency / Hz"	"Sound Pressure Level / dB (re 20 µPa/V)  [2.83  V @ 1. m]"	"Frequency / Hz"	"Sound Pressure Level / dB (re 20 µPa/V)  [2.83  V @ 1. m]"	"Frequency / Hz"	"Sound Pressure Level / dB (re 20 µPa/V)  [2.83  V @ 1. m]"	"Frequency / Hz"	"Sound Pressure Level / dB (re 20 µPa/V)  [2.83  V @ 1. m]"
20.5078	56.4286	20.5078	55.9808	20.5078	56.7839	20.5078	55.4876	20.5078	57.0186	20.5078	55.026	20.5078	57.1149	20.5078	54.7106	20.5078	57.0625	20.5078	54.6758	20.5078	56.8619	20.5078	55.0153	20.5078	56.5334	20.5078	55.7203	20.5078	56.1386	20.5078	56.6854	20.5078	55.8083	20.5078	57.7765	20.5078	55.7478	20.5078	58.884	20.5078	56.1486	20.5078	59.9353	20.5078	57.028	20.5078	60.8859	20.5078	58.206	20.5078	61.7074	20.5078	59.4561	20.5078	62.3787	20.5078	60.6173	20.5078	62.8825	20.5078	61.6032	20.5078	63.2025	20.5078	62.3748	20.5078	63.3236	20.5078	62.9182	20.5078	63.2323
21.9727	58.8364	21.9727	58.5156	21.9727	59.1087	21.9727	58.1903	21.9727	59.3018	21.9727	57.9207	21.9727	59.395	21.9727	57.7804	21.9727	59.3763	21.9727	57.8414	21.9727	59.2444	21.9727	58.1477	21.9727	59.016	21.9727	58.6938	21.9727	58.7386	21.9727	59.4277	21.9727	58.5066	21.9727	60.2743	21.9727	58.4617	21.9727	61.1606	21.9727	58.7438	21.9727	62.0274	21.9727	59.3972	21.9727	62.8303	21.9727	60.3285	21.9727	63.5361	21.9727	61.3748	21.9727	64.1187	21.9727	62.3906	21.9727	64.556	21.9727	63.2813	21.9727	64.8288	21.9727	63.9956	21.9727	64.9204	21.9727	64.5099	21.9727	64.8172
23.4375	60.6257	23.4375	60.4476	23.4375	60.7905	23.4375	60.2988	23.4375	60.9113	23.4375	60.2316	23.4375	60.9693	23.4375	60.3006	23.4375	60.9584	23.4375	60.5482	23.4375	60.8892	23.4375	60.9895	23.4375	60.795	23.4375	61.6054	23.4375	60.7388	23.4375	62.3507	23.4375	60.812	23.4375	63.1697	23.4375	61.109	23.4375	64.0088	23.4375	61.6786	23.4375	64.8234	23.4375	62.4883	23.4375	65.5779	23.4375	63.4405	23.4375	66.2433	23.4375	64.4229	23.4375	66.7958	23.4375	65.3433	23.4375	67.2143	23.4375	66.1399	23.4375	67.4807	23.4375	66.7757	23.4375	67.5795	23.4375	67.231	23.4375	67.4987
24.9023	62.7601	24.9023	62.6495	24.9023	62.8744	24.9023	62.5749	24.9023	62.9676	24.9023	62.5742	24.9023	63.0247	24.9023	62.6842	24.9023	63.0415	24.9023	62.9328	24.9023	63.0274	24.9023	63.3297	24.9023	63.0092	24.9023	63.8632	24.9023	63.034	24.9023	64.5034	24.9023	63.1654	24.9023	65.2109	24.9023	63.4663	24.9023	65.9442	24.9023	63.9703	24.9023	66.6655	24.9023	64.6597	24.9023	67.3416	24.9023	65.4706	24.9023	67.944	24.9023	66.3199	24.9023	68.448	24.9023	67.1307	24.9023	68.8317	24.9023	67.8447	24.9023	69.0762	24.9023	68.4225	24.9023	69.1659	24.9023	68.8411	24.9023	69.0894
26.3672	65.3455	26.3672	65.2522	26.3672	65.4408	26.3672	65.1841	26.3672	65.5208	26.3672	65.1679	26.3672	65.5745	26.3672	65.2314	26.3672	65.599	26.3672	65.3979	26.3672	65.6014	26.3672	65.6811	26.3672	65.6012	26.3672	66.0805	26.3672	65.6317	26.3672	66.5808	26.3672	65.7382	26.3672	67.1557	26.3672	65.9672	26.3672	67.7724	26.3672	66.3494	26.3672	68.3967	26.3672	66.8826	26.3672	68.996	26.3672	67.529	26.3672	69.5403	26.3672	68.2275	26.3672	70.003	26.3672	68.913	26.3672	70.3605	26.3672	69.5298	26.3672	70.5926	26.3672	70.0362	26.3672	70.6835	26.3672	70.4052	26.3672	70.6224
27.832	67.0702	27.832	67.0017	27.832	67.1458	27.832	66.9595	27.832	67.2137	27.832	66.9659	27.832	67.2654	27.832	67.0435	27.832	67.2992	27.832	67.2111	27.832	67.3228	27.832	67.4796	27.832	67.3538	27.832	67.8488	27.832	67.4208	27.832	68.3072	27.832	67.5598	27.832	68.8333	27.832	67.8061	27.832	69.3997	27.832	68.1809	27.832	69.9766	27.832	68.6801	27.832	70.5342	27.832	69.2725	27.832	71.0444	27.832	69.9078	27.832	71.4813	27.832	70.5312	27.832	71.8216	27.832	71.0933	27.832	72.0456	27.832	71.5556	27.832	72.1377	27.832	71.892	27.832	72.0877
29.2969	68.6205	29.2969	68.5572	29.2969	68.6933	29.2969	68.5196	29.2969	68.7629	29.2969	68.5266	29.2969	68.8222	29.2969	68.5972	29.2969	68.8699	29.2969	68.7476	29.2969	68.9124	29.2969	68.9877	29.2969	68.9647	29.2969	69.3185	29.2969	69.0496	29.2969	69.7316	29.2969	69.1962	29.2969	70.2094	29.2969	69.4323	29.2969	70.7286	29.2969	69.7751	29.2969	71.2623	29.2969	70.2224	29.2969	71.7829	29.2969	70.75	29.2969	72.2632	29.2969	71.3173	29.2969	72.678	29.2969	71.8768	29.2969	73.0044	29.2969	72.3839	29.2969	73.2228	29.2969	72.8024	29.2969	73.3178	29.2969	73.1061	29.2969	73.2798
30.7617	70.1233	30.7617	70.0836	30.7617	70.1785	30.7617	70.0722	30.7617	70.2393	30.7617	70.1032	30.7617	70.2998	30.7617	70.1905	30.7617	70.3587	30.7617	70.346	30.7617	70.421	30.7617	70.5768	30.7617	70.4982	30.7617	70.8837	30.7617	70.6081	30.7617	71.2605	30.7617	70.7723	30.7617	71.6937	30.7617	71.0109	30.7617	72.1648	30.7617	71.336	30.7617	72.6511	30.7617	71.7453	30.7617	73.1284	30.7617	72.2203	30.7617	73.5715	30.7617	72.729	30.7617	73.9563	30.7617	73.2328	30.7617	74.2604	30.7617	73.693	30.7617	74.4643	30.7617	74.076	30.7617	74.553	30.7617	74.3562	30.7617	74.5176
32.2266	71.6137	32.2266	71.5855	32.2266	71.6589	32.2266	71.5833	32.2266	71.7143	32.2266	71.6178	32.2266	71.776	32.2266	71.6997	32.2266	71.8438	32.2266	71.8383	32.2266	71.9215	32.2266	72.0399	32.2266	72.0173	32.2266	72.3062	32.2266	72.143	32.2266	72.6334	32.2266	72.313	32.2266	73.0119	32.2266	72.5404	32.2266	73.4269	32.2266	72.8336	32.2266	73.8597	32.2266	73.1912	32.2266	74.2888	32.2266	73.6003	32.2266	74.6914	32.2266	74.0372	32.2266	75.0446	32.2266	74.4714	32.2266	75.3268	32.2266	74.8701	32.2266	75.5193	32.2266	75.2032	32.2266	75.6078	32.2266	75.4464	32.2266	75.5838
33.6914	72.8349	33.6914	72.8037	33.6914	72.8828	33.6914	72.797	33.6914	72.9416	33.6914	72.8233	33.6914	73.0075	33.6914	72.8913	33.6914	73.0797	33.6914	73.0087	33.6914	73.1604	33.6914	73.1812	33.6914	73.2556	33.6914	73.4107	33.6914	73.3742	33.6914	73.695	33.6914	73.5275	33.6914	74.0269	33.6914	73.7264	33.6914	74.3945	33.6914	73.9786	33.6914	74.7817	33.6914	74.2846	33.6914	75.1695	33.6914	74.6356	33.6914	75.5366	33.6914	75.0132	33.6914	75.8614	33.6914	75.3917	33.6914	76.1233	33.6914	75.7424	33.6914	76.304	33.6914	76.0371	33.6914	76.3898	33.6914	76.2526	33.6914	76.3728
35.1562	73.8773	35.1562	73.847	35.1562	73.9251	35.1562	73.8404	35.1562	73.9855	35.1562	73.8647	35.1562	74.0553	35.1562	73.927	35.1562	74.1335	35.1562	74.0337	35.1562	74.2217	35.1562	74.1895	35.1562	74.3242	35.1562	74.3965	35.1562	74.4479	35.1562	74.6531	35.1562	74.6013	35.1562	74.9537	35.1562	74.793	35.1562	75.2885	35.1562	75.0286	35.1562	75.6436	35.1562	75.3083	35.1562	76.0019	35.1562	75.625	35.1562	76.3443	35.1562	75.9632	35.1562	76.6504	35.1562	76.3009	35.1562	76.9004	35.1562	76.6126	35.1562	77.0769	35.1562	76.8731	35.1562	77.1664	35.1562	77.0611	35.1562	77.1613
36.6211	74.8208	36.6211	74.7947	36.6211	74.8641	36.6211	74.7908	36.6211	74.9209	36.6211	74.8145	36.6211	74.9885	36.6211	74.8715	36.6211	75.066	36.6211	74.967	36.6211	75.1543	36.6211	75.105	36.6211	75.2565	36.6211	75.2872	36.6211	75.3774	36.6211	75.513	36.6211	75.5231	36.6211	75.7782	36.6211	75.7	36.6211	76.0749	36.6211	75.9124	36.6211	76.3917	36.6211	76.1606	36.6211	76.7137	36.6211	76.4392	36.6211	77.0237	36.6211	76.7357	36.6211	77.3031	36.6211	77.032	36.6211	77.5334	36.6211	77.3059	36.6211	77.6981	36.6211	77.5349	36.6211	77.7843	36.6211	77.6993	36.6211	77.7848
38.0859	75.6138	38.0859	75.5874	38.0859	75.6575	38.0859	75.5821	38.0859	75.7155	38.0859	75.6023	38.0859	75.7856	38.0859	75.6523	38.0859	75.8667	38.0859	75.7362	38.0859	75.9591	38.0859	75.8573	38.0859	76.0645	38.0859	76.0176	38.0859	76.186	38.0859	76.2167	38.0859	76.3279	38.0859	76.4518	38.0859	76.4944	38.0859	76.7166	38.0859	76.6887	38.0859	77.0018	38.0859	76.9109	38.0859	77.2944	38.0859	77.1567	38.0859	77.579	38.0859	77.4161	38.0859	77.8386	38.0859	77.6738	38.0859	78.0557	38.0859	77.911	38.0859	78.2145	38.0859	78.1078	38.0859	78.3028	38.0859	78.2464	38.0859	78.3136
39.5508	76.3461	39.5508	76.3176	39.5508	76.3904	39.5508	76.3077	39.5508	76.4478	39.5508	76.3201	39.5508	76.5166	39.5508	76.3583	39.5508	76.5958	39.5508	76.4261	39.5508	76.6854	39.5508	76.5264	39.5508	76.7862	39.5508	76.6614	39.5508	76.9002	39.5508	76.8315	39.5508	77.0305	39.5508	77.0347	39.5508	77.1801	39.5508	77.2664	39.5508	77.3513	39.5508	77.5187	39.5508	77.5444	39.5508	77.7806	39.5508	77.7561	39.5508	78.0384	39.5508	77.9786	39.5508	78.2763	39.5508	78.1992	39.5508	78.4781	39.5508	78.4018	39.5508	78.6289	39.5508	78.5688	39.5508	78.717	39.5508	78.6841	39.5508	78.7355
41.0156	76.8858	41.0156	76.8599	41.0156	76.9292	41.0156	76.8541	41.0156	76.9882	41.0156	76.8709	41.0156	77.0611	41.0156	76.9131	41.0156	77.1467	41.0156	76.9831	41.0156	77.2447	41.0156	77.0831	41.0156	77.3553	41.0156	77.2145	41.0156	77.4795	41.0156	77.3773	41.0156	77.6189	41.0156	77.5696	41.0156	77.775	41.0156	77.7876	41.0156	77.9484	41.0156	78.0246	41.0156	78.1381	41.0156	78.2709	41.0156	78.3403	41.0156	78.5145	41.0156	78.5475	41.0156	78.7412	41.0156	78.7485	41.0156	78.9362	41.0156	78.9293	41.0156	79.0855	41.0156	79.0745	41.0156	79.1778	41.0156	79.1703	41.0156	79.2065
42.4805	77.4549	42.4805	77.4278	42.4805	77.4985	42.4805	77.4186	42.4805	77.5571	42.4805	77.4289	42.4805	77.6295	42.4805	77.4604	42.4805	77.7144	42.4805	77.5149	42.4805	77.8106	42.4805	77.5939	42.4805	77.917	42.4805	77.6988	42.4805	78.0331	42.4805	77.83	42.4805	78.1583	42.4805	77.9866	42.4805	78.2927	42.4805	78.166	42.4805	78.4363	42.4805	78.3634	42.4805	78.5885	42.4805	78.5712	42.4805	78.747	42.4805	78.7793	42.4805	78.9073	42.4805	78.9756	42.4805	79.0617	42.4805	79.1469	42.4805	79.1999	42.4805	79.2808	42.4805	79.3098	42.4805	79.3673	42.4805	79.3798	42.4805	79.4005
43.9453	77.9113	43.9453	77.8805	43.9453	77.9566	43.9453	77.8655	43.9453	78.0151	43.9453	77.868	43.9453	78.0856	43.9453	77.8894	43.9453	78.1667	43.9453	77.9315	43.9453	78.2572	43.9453	77.9958	43.9453	78.3558	43.9453	78.0837	43.9453	78.4618	43.9453	78.1958	43.9453	78.5744	43.9453	78.3318	43.9453	78.6935	43.9453	78.4897	43.9453	78.8189	43.9453	78.6654	43.9453	78.9502	43.9453	78.8524	43.9453	79.0858	43.9453	79.0417	43.9453	79.2221	43.9453	79.222	43.9453	79.3529	43.9453	79.3813	43.9453	79.4692	43.9453	79.5078	43.9453	79.5607	43.9453	79.592	43.9453	79.6165	43.9453	79.6284
45.4102	78.3523	45.4102	78.3197	45.4102	78.3996	45.4102	78.3029	45.4102	78.4602	45.4102	78.3031	45.4102	78.5327	45.4102	78.3215	45.4102	78.6156	45.4102	78.3594	45.4102	78.7075	45.4102	78.4179	45.4102	78.8067	45.4102	78.4978	45.4102	78.912	45.4102	78.5996	45.4102	79.0221	45.4102	78.7231	45.4102	79.1363	45.4102	78.8666	45.4102	79.254	45.4102	79.0269	45.4102	79.3744	45.4102	79.1984	45.4102	79.4959	45.4102	79.3733	45.4102	79.6156	45.4102	79.5417	45.4102	79.7281	45.4102	79.6927	45.4102	79.826	45.4102	79.8152	45.4102	79.9003	45.4102	79.9005	45.4102	79.9417	45.4102	79.9429
46.875	78.7197	46.875	78.6887	46.875	78.7655	46.875	78.6729	46.875	78.8249	46.875	78.673	46.875	78.8971	46.875	78.6896	46.875	78.9804	46.875	78.7234	46.875	79.0732	46.875	78.7752	46.875	79.1736	46.875	78.8456	46.875	79.2795	46.875	78.9352	46.875	79.389	46.875	79.0441	46.875	79.5005	46.875	79.1714	46.875	79.6127	46.875	79.3147	46.875	79.7244	46.875	79.4697	46.875	79.8338	46.875	79.6299	46.875	79.9384	46.875	79.7866	46.875	80.0338	46.875	79.9299	46.875	80.1138	46.875	80.0497	46.875	80.1708	46.875	80.1372	46.875	80.1971	46.875	80.1868
48.3398	78.9943	48.3398	78.9605	48.3398	79.0426	48.3398	78.9416	48.3398	79.1047	48.3398	78.9379	48.3398	79.1795	48.3398	78.9495	48.3398	79.2651	48.3398	78.9768	48.3398	79.3597	48.3398	79.0203	48.3398	79.4607	48.3398	79.0805	48.3398	79.5655	48.3398	79.1582	48.3398	79.6717	48.3398	79.2536	48.3398	79.7772	48.3398	79.3662	48.3398	79.8801	48.3398	79.4945	48.3398	79.9792	48.3398	79.6348	48.3398	80.0731	48.3398	79.7818	48.3398	80.1596	48.3398	79.9278	48.3398	80.2356	48.3398	80.0637	48.3398	80.2963	48.3398	80.1803	48.3398	80.3354	48.3398	80.2694	48.3398	80.3468	48.3398	80.3255
51.2695	79.5505	51.2695	79.5109	51.2695	79.6039	51.2695	79.4853	51.2695	79.6701	51.2695	79.4739	51.2695	79.7478	51.2695	79.4763	51.2695	79.8351	51.2695	79.4924	51.2695	79.9295	51.2695	79.5218	51.2695	80.0282	51.2695	79.5646	51.2695	80.1278	51.2695	79.6208	51.2695	80.2251	51.2695	79.6906	51.2695	80.3172	51.2695	79.774	51.2695	80.4015	51.2695	79.8702	51.2695	80.4759	51.2695	79.9776	51.2695	80.5392	51.2695	80.0931	51.2695	80.5901	51.2695	80.2117	51.2695	80.6272	51.2695	80.3271	51.2695	80.6483	51.2695	80.4324	51.2695	80.6507	51.2695	80.5211	51.2695	80.6313	51.2695	80.5882
52.7344	79.8768	52.7344	79.841	52.7344	79.9237	52.7344	79.8163	52.7344	79.9813	52.7344	79.8024	52.7344	80.0488	52.7344	79.7991	52.7344	80.125	52.7344	79.8061	52.7344	80.2078	52.7344	79.8235	52.7344	80.2948	52.7344	79.8512	52.7344	80.3826	52.7344	79.8896	52.7344	80.4681	52.7344	79.9395	52.7344	80.5477	52.7344	80.0012	52.7344	80.6187	52.7344	80.0749	52.7344	80.6788	52.7344	80.1599	52.7344	80.7266	52.7344	80.2542	52.7344	80.7612	52.7344	80.3541	52.7344	80.782	52.7344	80.4544	52.7344	80.7877	52.7344	80.5492	52.7344	80.7769	52.7344	80.6324	52.7344	80.7479	52.7344	80.6996
54.1992	80.1218	54.1992	80.0822	54.1992	80.1715	54.1992	80.0526	54.1992	80.2312	54.1992	80.0326	54.1992	80.3	54.1992	80.022	54.1992	80.3767	54.1992	80.0202	54.1992	80.459	54.1992	80.0274	54.1992	80.5443	54.1992	80.0436	54.1992	80.6292	54.1992	80.0695	54.1992	80.7101	54.1992	80.1058	54.1992	80.7831	54.1992	80.1535	54.1992	80.8453	54.1992	80.2133	54.1992	80.8943	54.1992	80.2851	54.1992	80.9285	54.1992	80.3679	54.1992	80.9475	54.1992	80.4587	54.1992	80.9511	54.1992	80.5534	54.1992	80.9392	54.1992	80.6466	54.1992	80.9115	54.1992	80.7329	54.1992	80.8676	54.1992	80.8076
55.6641	80.2589	55.6641	80.2215	55.6641	80.3078	55.6641	80.1951	55.6641	80.3684	55.6641	80.1785	55.6641	80.44	55.6641	80.1706	55.6641	80.5209	55.6641	80.1704	55.6641	80.6085	55.6641	80.1772	55.6641	80.6994	55.6641	80.1908	55.6641	80.7894	55.6641	80.2117	55.6641	80.8744	55.6641	80.241	55.6641	80.9499	55.6641	80.2798	55.6641	81.0123	55.6641	80.3297	55.6641	81.0589	55.6641	80.3915	55.6641	81.0881	55.6641	80.465	55.6641	81.0992	55.6641	80.5487	55.6641	81.0925	55.6641	80.6391	55.6641	81.0687	55.6641	80.7317	55.6641	81.0284	55.6641	80.8212	55.6641	80.9726	55.6641	80.9027
58.5938	80.6367	58.5938	80.5919	58.5938	80.6946	58.5938	80.5599	58.5938	80.7649	58.5938	80.5398	58.5938	80.8462	58.5938	80.5303	58.5938	80.936	58.5938	80.5301	58.5938	81.0307	58.5938	80.5378	58.5938	81.1263	58.5938	80.5525	58.5938	81.2182	58.5938	80.5738	58.5938	81.3016	58.5938	80.6019	58.5938	81.372	58.5938	80.6375	58.5938	81.4258	58.5938	80.6815	58.5938	81.4602	58.5938	80.7349	58.5938	81.4739	58.5938	80.7981	58.5938	81.4673	58.5938	80.8704	58.5938	81.4418	58.5938	80.95	58.5938	81.3998	58.5938	81.0339	58.5938	81.3439	58.5938	81.1188	58.5938	81.2767	58.5938	81.2007
60.0586	80.8124	60.0586	80.7656	60.0586	80.8716	60.0586	80.7307	60.0586	80.9425	60.0586	80.7069	60.0586	81.0236	60.0586	80.6929	60.0586	81.1124	60.0586	80.6871	60.0586	81.2054	60.0586	80.688	60.0586	81.2986	60.0586	80.6947	60.0586	81.3871	60.0586	80.7067	60.0586	81.4662	60.0586	80.7241	60.0586	81.531	60.0586	80.748	60.0586	81.5777	60.0586	80.7795	60.0586	81.6033	60.0586	80.8205	60.0586	81.6066	60.0586	80.8719	60.0586	81.5879	60.0586	80.9344	60.0586	81.5491	60.0586	81.007	60.0586	81.4934	60.0586	81.0877	60.0586	81.4242	60.0586	81.1734	60.0586	81.3453	60.0586	81.2605
62.9883	81.0526	62.9883	81.0019	62.9883	81.1146	62.9883	80.9623	62.9883	81.1873	62.9883	80.9333	62.9883	81.2692	62.9883	80.9134	62.9883	81.3579	62.9883	80.9014	62.9883	81.4504	62.9883	80.8959	62.9883	81.5427	62.9883	80.8958	62.9883	81.6304	62.9883	80.9005	62.9883	81.7088	62.9883	80.9103	62.9883	81.7729	62.9883	80.9261	62.9883	81.8182	62.9883	80.9495	62.9883	81.8413	62.9883	80.9825	62.9883	81.8402	62.9883	81.0271	62.9883	81.8146	62.9883	81.0846	62.9883	81.7662	62.9883	81.1553	62.9883	81.6984	62.9883	81.2377	62.9883	81.6157	62.9883	81.3293	62.9883	81.5232	62.9883	81.426
64.4531	81.0782	64.4531	81.0264	64.4531	81.1411	64.4531	80.9856	64.4531	81.2145	64.4531	80.9551	64.4531	81.2969	64.4531	80.9337	64.4531	81.3859	64.4531	80.9197	64.4531	81.4785	64.4531	80.9117	64.4531	81.5709	64.4531	80.9083	64.4531	81.6586	64.4531	80.9089	64.4531	81.7368	64.4531	80.9134	64.4531	81.8002	64.4531	80.923	64.4531	81.8442	64.4531	80.9393	64.4531	81.8648	64.4531	80.965	64.4531	81.8596	64.4531	81.0025	64.4531	81.8283	64.4531	81.054	64.4531	81.7724	64.4531	81.1207	64.4531	81.6957	64.4531	81.2019	64.4531	81.6034	64.4531	81.2953	64.4531	81.5018	64.4531	81.397
67.3828	81.2497	67.3828	81.198	67.3828	81.3124	67.3828	81.1573	67.3828	81.3858	67.3828	81.1263	67.3828	81.4684	67.3828	81.1037	67.3828	81.558	67.3828	81.0875	67.3828	81.6514	67.3828	81.0759	67.3828	81.7448	67.3828	81.0673	67.3828	81.8332	67.3828	81.0609	67.3828	81.9113	67.3828	81.0566	67.3828	81.9734	67.3828	81.0554	67.3828	82.0141	67.3828	81.0596	67.3828	82.0291	67.3828	81.0723	67.3828	82.0154	67.3828	81.097	67.3828	81.9726	67.3828	81.1372	67.3828	81.9028	67.3828	81.1952	67.3828	81.8108	67.3828	81.2719	67.3828	81.7032	67.3828	81.3658	67.3828	81.5879	67.3828	81.473
