"SPL Vertical"
"On-Axis"		"10°"		"-10°"		"20°"		"-20°"		"30°"		"-30°"		"40°"		"-40°"		"50°"		"-50°"		"60°"		"-60°"		"70°"		"-70°"		"80°"		"-80°"		"90°"		"-90°"		"100°"		"-100°"		"110°"		"-110°"		"120°"		"-120°"		"130°"		"-130°"		"140°"		"-140°"		"150°"		"-150°"		"160°"		"-160°"		"170°"		"-170°"		"180°"
"Frequency / Hz"	"Sound Pressure Level / dB (re 20 µPa/V)  [2.83  V @ 1. m]"	"Frequency / Hz"	"Sound Pressure Level / dB (re 20 µPa/V)  [2.83  V @ 1. m]"	"Frequency / Hz"	"Sound Pressure Level / dB (re 20 µPa/V)  [2.83  V @ 1. m]"	"Frequency / Hz"	"Sound Pressure Level / dB (re 20 µPa/V)  [2.83  V @ 1. m]"	"Frequency / Hz"	"Sound Pressure Level / dB (re 20 µPa/V)  [2.83  V @ 1. m]"	"Frequency / Hz"	"Sound Pressure Level / dB (re 20 µPa/V)  [2.83  V @ 1. m]"	"Frequency / Hz"	"Sound Pressure Level / dB (re 20 µPa/V)  [2.83  V @ 1. m]"	"Frequency / Hz"	"Sound Pressure Level / dB (re 20 µPa/V)  [2.83  V @ 1. m]"	"Frequency / Hz"	"Sound Pressure Level / dB (re 20 µPa/V)  [2.83  V @ 1. m]"	"Frequency / Hz"	"Sound Pressure Level / dB (re 20 µPa/V)  [2.83  V @ 1. m]"	"Frequency / Hz"	"Sound Pressure Level / dB (re 20 µPa/V)  [2.83  V @ 1. m]"	"Frequency / Hz"	"Sound Pressure Level / dB (re 20 µPa/V)  [2.83  V @ 1. m]"	"Frequency / Hz"	"Sound Pressure Level / dB (re 20 µPa/V)  [2.83  V @ 1. m]"	"Frequency / Hz"	"Sound Pressure Level / dB (re 20 µPa/V)  [2.83  V @ 1. m]"	"Frequency / Hz"	"Sound Pressure Level / dB (re 20 µPa/V)  [2.83  V @ 1. m]"	"Frequency / Hz"	"Sound Pressure Level / dB (re 20 µPa/V)  [2.83  V @ 1. m]"	"Frequency / Hz"	"Sound Pressure Level / dB (re 20 µPa/V)  [2.83  V @ 1. m]"	"Frequency / Hz"	"Sound Pressure Level / dB (re 20 µPa/V)  [2.83  V @ 1. m]"	"Frequency / Hz"	"Sound Pressure Level / dB (re 20 µPa/V)  [2.83  V @ 1. m]"	"Frequency / Hz"	"Sound Pressure Level / dB (re 20 µPa/V)  [2.83  V @ 1. m]"	"Frequency / Hz"	"Sound Pressure Level / dB (re 20 µPa/V)  [2.83  V @ 1. m]"	"Frequency / Hz"	"Sound Pressure Level / dB (re 20 µPa/V)  [2.83  V @ 1. m]"	"Frequency / Hz"	"Sound Pressure Level / dB (re 20 µPa/V)  [2.83  V @ 1. m]"	"Frequency / Hz"	"Sound Pressure Level / dB (re 20 µPa/V)  [2.83  V @ 1. m]"	"Frequency / Hz"	"Sound Pressure Level / dB (re 20 µPa/V)  [2.83  V @ 1. m]"	"Frequency / Hz"	"Sound Pressure Level / dB (re 20 µPa/V)  [2.83  V @ 1. m]"	"Frequency / Hz"	"Sound Pressure Level / dB (re 20 µPa/V)  [2.83  V @ 1. m]"	"Frequency / Hz"	"Sound Pressure Level / dB (re 20 µPa/V)  [2.83  V @ 1. m]"	"Frequency / Hz"	"Sound Pressure Level / dB (re 20 µPa/V)  [2.83  V @ 1. m]"	"Frequency / Hz"	"Sound Pressure Level / dB (re 20 µPa/V)  [2.83  V @ 1. m]"	"Frequency / Hz"	"Sound Pressure Level / dB (re 20 µPa/V)  [2.83  V @ 1. m]"	"Frequency / Hz"	"Sound Pressure Level / dB (re 20 µPa/V)  [2.83  V @ 1. m]"	"Frequency / Hz"	"Sound Pressure Level / dB (re 20 µPa/V)  [2.83  V @ 1. m]"	"Frequency / Hz"	"Sound Pressure Level / dB (re 20 µPa/V)  [2.83  V @ 1. m]"	"Frequency / Hz"	"Sound Pressure Level / dB (re 20 µPa/V)  [2.83  V @ 1. m]"	"Frequency / Hz"	"Sound Pressure Level / dB (re 20 µPa/V)  [2.83  V @ 1. m]"
20.5078	67.8557	20.5078	67.5828	20.5078	68.1836	20.5078	67.3652	20.5078	68.5588	20.5078	67.1977	20.5078	68.9651	20.5078	67.0729	20.5078	69.3794	20.5078	66.9836	20.5078	69.7746	20.5078	66.9242	20.5078	70.1232	20.5078	66.8907	20.5078	70.4007	20.5078	66.8811	20.5078	70.588	20.5078	66.8947	20.5078	70.6739	20.5078	66.9321	20.5078	70.6551	20.5078	66.9949	20.5078	70.5373	20.5078	67.0859	20.5078	70.3337	20.5078	67.2089	20.5078	70.0627	20.5078	67.3674	20.5078	69.7455	20.5078	67.5642	20.5078	69.4026	20.5078	67.8	20.5078	69.0515	20.5078	68.0725	20.5078	68.706	20.5078	68.3768
21.9727	71.1074	21.9727	70.7751	21.9727	71.4905	21.9727	70.5033	21.9727	71.9083	21.9727	70.2952	21.9727	72.3399	21.9727	70.1481	21.9727	72.7612	21.9727	70.0558	21.9727	73.1482	21.9727	70.0108	21.9727	73.4781	21.9727	70.0055	21.9727	73.7318	21.9727	70.0338	21.9727	73.8953	21.9727	70.0913	21.9727	73.9606	21.9727	70.1754	21.9727	73.9271	21.9727	70.2848	21.9727	73.8014	21.9727	70.4194	21.9727	73.597	21.9727	70.5795	21.9727	73.3321	21.9727	70.7653	21.9727	73.0275	21.9727	70.9767	21.9727	72.7031	21.9727	71.2129	21.9727	72.3757	21.9727	71.4728	21.9727	72.0572	21.9727	71.7549
23.4375	74.9425	23.4375	74.5675	23.4375	75.3442	23.4375	74.2297	23.4375	75.7591	23.4375	73.9359	23.4375	76.171	23.4375	73.6902	23.4375	76.5623	23.4375	73.4938	23.4375	76.9148	23.4375	73.3462	23.4375	77.2113	23.4375	73.2461	23.4375	77.4362	23.4375	73.192	23.4375	77.5776	23.4375	73.1828	23.4375	77.628	23.4375	73.2181	23.4375	77.5853	23.4375	73.2981	23.4375	77.4529	23.4375	73.4233	23.4375	77.2395	23.4375	73.5943	23.4375	76.958	23.4375	73.8111	23.4375	76.624	23.4375	74.0724	23.4375	76.2539	23.4375	74.3751	23.4375	75.8639	23.4375	74.714	23.4375	75.4688	23.4375	75.0817
24.9023	76.8861	24.9023	76.5558	24.9023	77.2379	24.9023	76.2549	24.9023	77.6007	24.9023	75.9885	24.9023	77.9608	24.9023	75.7594	24.9023	78.3027	24.9023	75.5685	24.9023	78.6097	24.9023	75.4158	24.9023	78.8648	24.9023	75.3007	24.9023	79.0528	24.9023	75.2224	24.9023	79.1611	24.9023	75.1808	24.9023	79.1815	24.9023	75.1757	24.9023	79.1115	24.9023	75.208	24.9023	78.954	24.9023	75.2789	24.9023	78.7183	24.9023	75.3898	24.9023	78.4182	24.9023	75.5426	24.9023	78.0712	24.9023	75.7388	24.9023	77.6963	24.9023	75.9787	24.9023	77.3125	24.9023	76.2612	24.9023	76.9367	24.9023	76.5828
26.3672	79.0974	26.3672	78.812	26.3672	79.4039	26.3672	78.5541	26.3672	79.7224	26.3672	78.3274	26.3672	80.0413	26.3672	78.1339	26.3672	80.3469	26.3672	77.9744	26.3672	80.6239	26.3672	77.8484	26.3672	80.8569	26.3672	77.7556	26.3672	81.0316	26.3672	77.6951	26.3672	81.1365	26.3672	77.6669	26.3672	81.1641	26.3672	77.6709	26.3672	81.1118	26.3672	77.7078	26.3672	80.9827	26.3672	77.7784	26.3672	80.785	26.3672	77.884	26.3672	80.5311	26.3672	78.0257	26.3672	80.2361	26.3672	78.2045	26.3672	79.916	26.3672	78.4202	26.3672	79.5867	26.3672	78.6712	26.3672	79.262	26.3672	78.9539
27.832	80.2112	27.832	79.9136	27.832	80.53	27.832	79.6439	27.832	80.8605	27.832	79.4061	27.832	81.1905	27.832	79.2023	27.832	81.5057	27.832	79.0332	27.832	81.7905	27.832	78.8986	27.832	82.0288	27.832	78.7979	27.832	82.2064	27.832	78.7309	27.832	82.3116	27.832	78.6973	27.832	82.3369	27.832	78.6975	27.832	82.2801	27.832	78.7322	27.832	82.1445	27.832	78.8027	27.832	81.9384	27.832	78.9104	27.832	81.6744	27.832	79.0568	27.832	81.3677	27.832	79.2429	27.832	81.0345	27.832	79.4685	27.832	80.6909	27.832	79.7318	27.832	80.3514	27.832	80.0284
29.2969	82.5287	29.2969	82.2127	29.2969	82.8591	29.2969	81.919	29.2969	83.1937	29.2969	81.6536	29.2969	83.5206	29.2969	81.4202	29.2969	83.8262	29.2969	81.2214	29.2969	84.0964	29.2969	81.0583	29.2969	84.3171	29.2969	80.9313	29.2969	84.4757	29.2969	80.8406	29.2969	84.5619	29.2969	80.7864	29.2969	84.5693	29.2969	80.7692	29.2969	84.4957	29.2969	80.7898	29.2969	84.3441	29.2969	80.8496	29.2969	84.122	29.2969	80.9504	29.2969	83.8411	29.2969	81.094	29.2969	83.516	29.2969	81.2816	29.2969	83.163	29.2969	81.5133	29.2969	82.7989	29.2969	81.7872	29.2969	82.4395	29.2969	82.0985
30.7617	84.7902	30.7617	84.544	30.7617	85.0463	30.7617	84.3136	30.7617	85.3047	30.7617	84.1034	30.7617	85.5564	30.7617	83.9166	30.7617	85.7909	30.7617	83.7555	30.7617	85.9971	30.7617	83.6215	30.7617	86.1636	30.7617	83.5157	30.7617	86.2801	30.7617	83.4387	30.7617	86.3384	30.7617	83.3914	30.7617	86.3335	30.7617	83.3742	30.7617	86.2645	30.7617	83.388	30.7617	86.1348	30.7617	83.4337	30.7617	85.9517	30.7617	83.5119	30.7617	85.7258	30.7617	83.6232	30.7617	85.4696	30.7617	83.7678	30.7617	85.1961	30.7617	83.945	30.7617	84.9176	30.7617	84.1528	30.7617	84.6452	30.7617	84.3879
32.2266	85.5545	32.2266	85.3108	32.2266	85.8079	32.2266	85.0825	32.2266	86.0634	32.2266	84.874	32.2266	86.3118	32.2266	84.6884	32.2266	86.5427	32.2266	84.5278	32.2266	86.7447	32.2266	84.3937	32.2266	86.9062	32.2266	84.287	32.2266	87.0169	32.2266	84.2084	32.2266	87.0685	32.2266	84.1583	32.2266	87.0562	32.2266	84.1374	32.2266	86.9794	32.2266	84.1464	32.2266	86.8421	32.2266	84.1859	32.2266	86.6523	32.2266	84.2568	32.2266	86.4212	32.2266	84.3598	32.2266	86.1616	32.2266	84.4954	32.2266	85.887	32.2266	84.6633	32.2266	85.6098	32.2266	84.8623	32.2266	85.3411	32.2266	85.0897
33.6914	87.2256	33.6914	86.9922	33.6914	87.4663	33.6914	86.7718	33.6914	87.7073	33.6914	86.5687	33.6914	87.9399	33.6914	86.3859	33.6914	88.1542	33.6914	86.2258	33.6914	88.3395	33.6914	86.0898	33.6914	88.485	33.6914	85.9792	33.6914	88.581	33.6914	85.8949	33.6914	88.6199	33.6914	85.8375	33.6914	88.5972	33.6914	85.8079	33.6914	88.5125	33.6914	85.8068	33.6914	88.3698	33.6914	85.8351	33.6914	88.1771	33.6914	85.8935	33.6914	87.9456	33.6914	85.9828	33.6914	87.6883	33.6914	86.1038	33.6914	87.4188	33.6914	86.2564	33.6914	87.1496	33.6914	86.4402	33.6914	86.8916	33.6914	86.6531
35.1562	88.6801	35.1562	88.4627	35.1562	88.9042	35.1562	88.2575	35.1562	89.128	35.1562	88.0688	35.1562	89.3435	35.1562	87.8999	35.1562	89.5412	35.1562	87.753	35.1562	89.7112	35.1562	87.6298	35.1562	89.8438	35.1562	87.5315	35.1562	89.9302	35.1562	87.4589	35.1562	89.9638	35.1562	87.4125	35.1562	89.9411	35.1562	87.3927	35.1562	89.8622	35.1562	87.3998	35.1562	89.7316	35.1562	87.4341	35.1562	89.5571	35.1562	87.4955	35.1562	89.3494	35.1562	87.5843	35.1562	89.1201	35.1562	87.7001	35.1562	88.8812	35.1562	87.8424	35.1562	88.6431	35.1562	88.0104	35.1562	88.4145	35.1562	88.2021
36.6211	90.0042	36.6211	89.7935	36.6211	90.219	36.6211	89.5924	36.6211	90.4314	36.6211	89.4052	36.6211	90.6335	36.6211	89.2353	36.6211	90.8165	36.6211	89.0853	36.6211	90.9712	36.6211	88.9569	36.6211	91.0883	36.6211	88.8516	36.6211	91.1598	36.6211	88.7705	36.6211	91.1796	36.6211	88.7142	36.6211	91.1444	36.6211	88.6834	36.6211	91.0549	36.6211	88.6784	36.6211	90.9156	36.6211	88.6997	36.6211	90.7346	36.6211	88.7476	36.6211	90.5224	36.6211	88.8224	36.6211	90.2912	36.6211	88.9244	36.6211	90.0527	36.6211	89.0535	36.6211	89.8176	36.6211	89.2093	36.6211	89.5948	36.6211	89.3906
38.0859	90.9767	38.0859	90.7601	38.0859	91.195	38.0859	90.5508	38.0859	91.4081	38.0859	90.3534	38.0859	91.6084	38.0859	90.1714	38.0859	91.7871	38.0859	90.0077	38.0859	91.9349	38.0859	89.8644	38.0859	92.043	38.0859	89.7433	38.0859	92.1032	38.0859	89.6457	38.0859	92.1095	38.0859	89.5725	38.0859	92.0589	38.0859	89.5246	38.0859	91.952	38.0859	89.5028	38.0859	91.7934	38.0859	89.5079	38.0859	91.5916	38.0859	89.5406	38.0859	91.3579	38.0859	89.6018	38.0859	91.1054	38.0859	89.6927	38.0859	90.8472	38.0859	89.8141	38.0859	90.5956	38.0859	89.9665	38.0859	90.3606	38.0859	90.1494
39.5508	92.5201	39.5508	92.317	39.5508	92.7263	39.5508	92.1223	39.5508	92.9292	39.5508	91.9403	39.5508	93.1214	39.5508	91.7744	39.5508	93.2947	39.5508	91.6272	39.5508	93.4405	39.5508	91.5006	39.5508	93.5503	39.5508	91.3961	39.5508	93.6167	39.5508	91.3147	39.5508	93.6342	39.5508	91.2572	39.5508	93.5999	39.5508	91.2244	39.5508	93.5143	39.5508	91.2166	39.5508	93.3816	39.5508	91.2344	39.5508	93.2089	39.5508	91.2784	39.5508	93.0058	39.5508	91.3491	39.5508	92.7832	39.5508	91.4471	39.5508	92.5521	39.5508	91.5727	39.5508	92.3229	39.5508	91.7253	39.5508	92.1044	39.5508	91.9036
41.0156	93.7114	41.0156	93.5161	41.0156	93.9086	41.0156	93.3282	41.0156	94.1015	41.0156	93.1523	41.0156	94.2828	41.0156	92.9921	41.0156	94.4448	41.0156	92.8506	41.0156	94.5794	41.0156	92.7303	41.0156	94.6789	41.0156	92.6329	41.0156	94.7368	41.0156	92.5594	41.0156	94.7482	41.0156	92.5107	41.0156	94.7112	41.0156	92.4871	41.0156	94.6273	41.0156	92.4885	41.0156	94.5008	41.0156	92.5147	41.0156	94.3394	41.0156	92.5651	41.0156	94.1523	41.0156	92.6393	41.0156	93.9497	41.0156	92.7367	41.0156	93.7414	41.0156	92.8566	41.0156	93.5361	41.0156	92.9982	41.0156	93.3407	41.0156	93.1603
42.4805	94.792	42.4805	94.5999	42.4805	94.9845	42.4805	94.4137	42.4805	95.1712	42.4805	94.2381	42.4805	95.3452	42.4805	94.0768	42.4805	95.4992	42.4805	93.9332	42.4805	95.6253	42.4805	93.8099	42.4805	95.7163	42.4805	93.7091	42.4805	95.7662	42.4805	93.6321	42.4805	95.7705	42.4805	93.58	42.4805	95.7279	42.4805	93.5534	42.4805	95.6399	42.4805	93.5521	42.4805	95.5117	42.4805	93.5762	42.4805	95.3507	42.4805	93.6248	42.4805	95.1664	42.4805	93.6974	42.4805	94.9687	42.4805	93.7929	42.4805	94.7668	42.4805	93.9104	42.4805	94.5687	42.4805	94.0485	42.4805	94.3802	42.4805	94.2058
43.9453	95.9203	43.9453	95.7309	43.9453	96.1077	43.9453	95.5444	43.9453	96.2871	43.9453	95.3657	43.9453	96.4518	43.9453	95.1985	43.9453	96.595	43.9453	95.0462	43.9453	96.7093	43.9453	94.9118	43.9453	96.7879	43.9453	94.7977	43.9453	96.8251	43.9453	94.7058	43.9453	96.817	43.9453	94.6377	43.9453	96.7623	43.9453	94.5944	43.9453	96.6629	43.9453	94.5767	43.9453	96.5237	43.9453	94.585	43.9453	96.3524	43.9453	94.6194	43.9453	96.1584	43.9453	94.6797	43.9453	95.9517	43.9453	94.7655	43.9453	95.7419	43.9453	94.8762	43.9453	95.5371	43.9453	95.0107	43.9453	95.344	43.9453	95.1674
45.4102	96.9596	45.4102	96.7755	45.4102	97.1411	45.4102	96.5938	45.4102	97.3141	45.4102	96.419	45.4102	97.4725	45.4102	96.2546	45.4102	97.6093	45.4102	96.1042	45.4102	97.7175	45.4102	95.9704	45.4102	97.7906	45.4102	95.8555	45.4102	97.823	45.4102	95.7616	45.4102	97.811	45.4102	95.6902	45.4102	97.7533	45.4102	95.6426	45.4102	97.652	45.4102	95.6197	45.4102	97.5118	45.4102	95.622	45.4102	97.3404	45.4102	95.6501	45.4102	97.1472	45.4102	95.7039	45.4102	96.9419	45.4102	95.7835	45.4102	96.7341	45.4102	95.8883	45.4102	96.532	45.4102	96.0174	45.4102	96.3422	45.4102	96.1695
46.875	97.8822	46.875	97.6943	46.875	98.0693	46.875	97.5111	46.875	98.2491	46.875	97.3373	46.875	98.4149	46.875	97.1768	46.875	98.5594	46.875	97.0325	46.875	98.6753	46.875	96.9068	46.875	98.7558	46.875	96.8015	46.875	98.7955	46.875	96.718	46.875	98.7907	46.875	96.6571	46.875	98.7403	46.875	96.6196	46.875	98.646	46.875	96.6059	46.875	98.5127	46.875	96.6165	46.875	98.3477	46.875	96.6515	46.875	98.1599	46.875	96.7112	46.875	97.9589	46.875	96.7954	46.875	97.754	46.875	96.9038	46.875	97.5533	46.875	97.0358	46.875	97.3636	46.875	97.1899
48.3398	98.8009	48.3398	98.6177	48.3398	98.9849	48.3398	98.4409	48.3398	99.1629	48.3398	98.2757	48.3398	99.3281	48.3398	98.1262	48.3398	99.4732	48.3398	97.9958	48.3398	99.5913	48.3398	97.8869	48.3398	99.676	48.3398	97.8012	48.3398	99.7225	48.3398	97.7398	48.3398	99.7279	48.3398	97.7032	48.3398	99.6918	48.3398	97.6913	48.3398	99.6166	48.3398	97.7038	48.3398	99.5072	48.3398	97.7398	48.3398	99.3703	48.3398	97.7984	48.3398	99.2138	48.3398	97.8782	48.3398	99.0455	48.3398	97.9776	48.3398	98.8724	48.3398	98.0949	48.3398	98.7001	48.3398	98.228	48.3398	98.5332	48.3398	98.3749
51.2695	100.559	51.2695	100.389	51.2695	100.722	51.2695	100.217	51.2695	100.871	51.2695	100.047	51.2695	101.002	51.2695	99.8843	51.2695	101.109	51.2695	99.7334	51.2695	101.186	51.2695	99.5979	51.2695	101.23	51.2695	99.4812	51.2695	101.236	51.2695	99.3857	51.2695	101.203	51.2695	99.3135	51.2695	101.132	51.2695	99.2656	51.2695	101.025	51.2695	99.2426	51.2695	100.889	51.2695	99.2445	51.2695	100.731	51.2695	99.2706	51.2695	100.558	51.2695	99.32	51.2695	100.379	51.2695	99.3916	51.2695	100.201	51.2695	99.4838	51.2695	100.03	51.2695	99.5953	51.2695	99.8704	51.2695	99.7248
52.7344	100.989	52.7344	100.82	52.7344	101.15	52.7344	100.648	52.7344	101.296	52.7344	100.477	52.7344	101.423	52.7344	100.313	52.7344	101.526	52.7344	100.159	52.7344	101.6	52.7344	100.02	52.7344	101.639	52.7344	99.8995	52.7344	101.643	52.7344	99.8	52.7344	101.607	52.7344	99.7239	52.7344	101.535	52.7344	99.6724	52.7344	101.427	52.7344	99.6461	52.7344	101.29	52.7344	99.6448	52.7344	101.131	52.7344	99.668	52.7344	100.957	52.7344	99.7145	52.7344	100.776	52.7344	99.7834	52.7344	100.596	52.7344	99.8735	52.7344	100.422	52.7344	99.9839	52.7344	100.26	52.7344	100.113
54.1992	101.333	54.1992	101.166	54.1992	101.492	54.1992	100.994	54.1992	101.637	54.1992	100.825	54.1992	101.763	54.1992	100.661	54.1992	101.864	54.1992	100.508	54.1992	101.935	54.1992	100.369	54.1992	101.972	54.1992	100.248	54.1992	101.971	54.1992	100.148	54.1992	101.932	54.1992	100.07	54.1992	101.854	54.1992	100.016	54.1992	101.742	54.1992	99.9877	54.1992	101.601	54.1992	99.984	54.1992	101.44	54.1992	100.005	54.1992	101.265	54.1992	100.049	54.1992	101.086	54.1992	100.115	54.1992	100.909	54.1992	100.203	54.1992	100.739	54.1992	100.311	54.1992	100.581	54.1992	100.438
55.6641	101.69	55.6641	101.522	55.6641	101.851	55.6641	101.353	55.6641	101.998	55.6641	101.186	55.6641	102.128	55.6641	101.026	55.6641	102.233	55.6641	100.878	55.6641	102.308	55.6641	100.744	55.6641	102.349	55.6641	100.627	55.6641	102.351	55.6641	100.53	55.6641	102.312	55.6641	100.455	55.6641	102.235	55.6641	100.403	55.6641	102.122	55.6641	100.374	55.6641	101.978	55.6641	100.369	55.6641	101.813	55.6641	100.388	55.6641	101.634	55.6641	100.429	55.6641	101.451	55.6641	100.491	55.6641	101.272	55.6641	100.575	55.6641	101.101	55.6641	100.679	55.6641	100.944	55.6641	100.802
58.5938	102.065	58.5938	101.897	58.5938	102.227	58.5938	101.727	58.5938	102.377	58.5938	101.561	58.5938	102.508	58.5938	101.404	58.5938	102.616	58.5938	101.258	58.5938	102.695	58.5938	101.128	58.5938	102.74	58.5938	101.015	58.5938	102.748	58.5938	100.923	58.5938	102.717	58.5938	100.852	58.5938	102.647	58.5938	100.804	58.5938	102.543	58.5938	100.779	58.5938	102.409	58.5938	100.778	58.5938	102.252	58.5938	100.801	58.5938	102.08	58.5938	100.846	58.5938	101.901	58.5938	100.914	58.5938	101.723	58.5938	101.003	58.5938	101.55	58.5938	101.113	58.5938	101.389	58.5938	101.243
60.0586	102.062	60.0586	101.895	60.0586	102.223	60.0586	101.727	60.0586	102.372	60.0586	101.565	60.0586	102.504	60.0586	101.412	60.0586	102.613	60.0586	101.273	60.0586	102.693	60.0586	101.15	60.0586	102.74	60.0586	101.048	60.0586	102.751	60.0586	100.968	60.0586	102.726	60.0586	100.911	60.0586	102.665	60.0586	100.877	60.0586	102.572	60.0586	100.868	60.0586	102.452	60.0586	100.882	60.0586	102.311	60.0586	100.919	60.0586	102.157	60.0586	100.977	60.0586	101.996	60.0586	101.054	60.0586	101.835	60.0586	101.15	60.0586	101.678	60.0586	101.262	60.0586	101.528	60.0586	101.389
62.9883	101.922	62.9883	101.757	62.9883	102.079	62.9883	101.59	62.9883	102.222	62.9883	101.426	62.9883	102.346	62.9883	101.27	62.9883	102.445	62.9883	101.126	62.9883	102.515	62.9883	100.999	62.9883	102.552	62.9883	100.892	62.9883	102.554	62.9883	100.807	62.9883	102.521	62.9883	100.746	62.9883	102.453	62.9883	100.711	62.9883	102.356	62.9883	100.7	62.9883	102.235	62.9883	100.713	62.9883	102.096	62.9883	100.749	62.9883	101.946	62.9883	100.807	62.9883	101.791	62.9883	100.884	62.9883	101.636	62.9883	100.978	62.9883	101.486	62.9883	101.087	62.9883	101.343	62.9883	101.21
64.4531	101.823	64.4531	101.657	64.4531	101.981	64.4531	101.488	64.4531	102.125	64.4531	101.322	64.4531	102.249	64.4531	101.164	64.4531	102.349	64.4531	101.019	64.4531	102.419	64.4531	100.891	64.4531	102.456	64.4531	100.784	64.4531	102.458	64.4531	100.699	64.4531	102.425	64.4531	100.638	64.4531	102.358	64.4531	100.603	64.4531	102.262	64.4531	100.594	64.4531	102.142	64.4531	100.609	64.4531	102.005	64.4531	100.648	64.4531	101.856	64.4531	100.707	64.4531	101.702	64.4531	100.787	64.4531	101.549	64.4531	100.883	64.4531	101.398	64.4531	100.995	64.4531	101.254	64.4531	101.119
67.3828	101.596	67.3828	101.428	67.3828	101.755	67.3828	101.258	67.3828	101.898	67.3828	101.089	67.3828	102.021	67.3828	100.929	67.3828	102.118	67.3828	100.782	67.3828	102.185	67.3828	100.652	67.3828	102.219	67.3828	100.543	67.3828	102.218	67.3828	100.458	67.3828	102.181	67.3828	100.398	67.3828	102.113	67.3828	100.365	67.3828	102.016	67.3828	100.358	67.3828	101.896	67.3828	100.376	67.3828	101.761	67.3828	100.417	67.3828	101.616	67.3828	100.48	67.3828	101.467	67.3828	100.563	67.3828	101.318	67.3828	100.661	67.3828	101.172	67.3828	100.774	67.3828	101.031	67.3828	100.898
