"SPL Horizontal"
"On-Axis"		"10°"		"-10°"		"20°"		"-20°"		"30°"		"-30°"		"40°"		"-40°"		"50°"		"-50°"		"60°"		"-60°"		"70°"		"-70°"		"80°"		"-80°"		"90°"		"-90°"		"100°"		"-100°"		"110°"		"-110°"		"120°"		"-120°"		"130°"		"-130°"		"140°"		"-140°"		"150°"		"-150°"		"160°"		"-160°"		"170°"		"-170°"		"180°"
"Frequency / Hz"	"Sound Pressure Level / dB (re 20 µPa/V)  [2.83  V @ 1. m]"	"Frequency / Hz"	"Sound Pressure Level / dB (re 20 µPa/V)  [2.83  V @ 1. m]"	"Frequency / Hz"	"Sound Pressure Level / dB (re 20 µPa/V)  [2.83  V @ 1. m]"	"Frequency / Hz"	"Sound Pressure Level / dB (re 20 µPa/V)  [2.83  V @ 1. m]"	"Frequency / Hz"	"Sound Pressure Level / dB (re 20 µPa/V)  [2.83  V @ 1. m]"	"Frequency / Hz"	"Sound Pressure Level / dB (re 20 µPa/V)  [2.83  V @ 1. m]"	"Frequency / Hz"	"Sound Pressure Level / dB (re 20 µPa/V)  [2.83  V @ 1. m]"	"Frequency / Hz"	"Sound Pressure Level / dB (re 20 µPa/V)  [2.83  V @ 1. m]"	"Frequency / Hz"	"Sound Pressure Level / dB (re 20 µPa/V)  [2.83  V @ 1. m]"	"Frequency / Hz"	"Sound Pressure Level / dB (re 20 µPa/V)  [2.83  V @ 1. m]"	"Frequency / Hz"	"Sound Pressure Level / dB (re 20 µPa/V)  [2.83  V @ 1. m]"	"Frequency / Hz"	"Sound Pressure Level / dB (re 20 µPa/V)  [2.83  V @ 1. m]"	"Frequency / Hz"	"Sound Pressure Level / dB (re 20 µPa/V)  [2.83  V @ 1. m]"	"Frequency / Hz"	"Sound Pressure Level / dB (re 20 µPa/V)  [2.83  V @ 1. m]"	"Frequency / Hz"	"Sound Pressure Level / dB (re 20 µPa/V)  [2.83  V @ 1. m]"	"Frequency / Hz"	"Sound Pressure Level / dB (re 20 µPa/V)  [2.83  V @ 1. m]"	"Frequency / Hz"	"Sound Pressure Level / dB (re 20 µPa/V)  [2.83  V @ 1. m]"	"Frequency / Hz"	"Sound Pressure Level / dB (re 20 µPa/V)  [2.83  V @ 1. m]"	"Frequency / Hz"	"Sound Pressure Level / dB (re 20 µPa/V)  [2.83  V @ 1. m]"	"Frequency / Hz"	"Sound Pressure Level / dB (re 20 µPa/V)  [2.83  V @ 1. m]"	"Frequency / Hz"	"Sound Pressure Level / dB (re 20 µPa/V)  [2.83  V @ 1. m]"	"Frequency / Hz"	"Sound Pressure Level / dB (re 20 µPa/V)  [2.83  V @ 1. m]"	"Frequency / Hz"	"Sound Pressure Level / dB (re 20 µPa/V)  [2.83  V @ 1. m]"	"Frequency / Hz"	"Sound Pressure Level / dB (re 20 µPa/V)  [2.83  V @ 1. m]"	"Frequency / Hz"	"Sound Pressure Level / dB (re 20 µPa/V)  [2.83  V @ 1. m]"	"Frequency / Hz"	"Sound Pressure Level / dB (re 20 µPa/V)  [2.83  V @ 1. m]"	"Frequency / Hz"	"Sound Pressure Level / dB (re 20 µPa/V)  [2.83  V @ 1. m]"	"Frequency / Hz"	"Sound Pressure Level / dB (re 20 µPa/V)  [2.83  V @ 1. m]"	"Frequency / Hz"	"Sound Pressure Level / dB (re 20 µPa/V)  [2.83  V @ 1. m]"	"Frequency / Hz"	"Sound Pressure Level / dB (re 20 µPa/V)  [2.83  V @ 1. m]"	"Frequency / Hz"	"Sound Pressure Level / dB (re 20 µPa/V)  [2.83  V @ 1. m]"	"Frequency / Hz"	"Sound Pressure Level / dB (re 20 µPa/V)  [2.83  V @ 1. m]"	"Frequency / Hz"	"Sound Pressure Level / dB (re 20 µPa/V)  [2.83  V @ 1. m]"	"Frequency / Hz"	"Sound Pressure Level / dB (re 20 µPa/V)  [2.83  V @ 1. m]"	"Frequency / Hz"	"Sound Pressure Level / dB (re 20 µPa/V)  [2.83  V @ 1. m]"	"Frequency / Hz"	"Sound Pressure Level / dB (re 20 µPa/V)  [2.83  V @ 1. m]"
20.5078	67.8557	20.5078	68.0207	20.5078	67.6876	20.5078	68.1837	20.5078	67.5151	20.5078	68.3458	20.5078	67.3377	20.5078	68.5078	20.5078	67.1559	20.5078	68.6702	20.5078	66.9727	20.5078	68.8324	20.5078	66.7936	20.5078	68.9925	20.5078	66.6274	20.5078	69.1461	20.5078	66.4857	20.5078	69.2863	20.5078	66.3823	20.5078	69.4041	20.5078	66.3318	20.5078	69.4888	20.5078	66.3476	20.5078	69.5291	20.5078	66.4399	20.5078	69.5136	20.5078	66.6141	20.5078	69.4318	20.5078	66.8689	20.5078	69.2762	20.5078	67.1952	20.5078	69.0439	20.5078	67.574	20.5078	68.7396	20.5078	67.9784	20.5078	68.3768
21.9727	71.1074	21.9727	71.1713	21.9727	71.0471	21.9727	71.2393	21.9727	70.9899	21.9727	71.3117	21.9727	70.9353	21.9727	71.3888	21.9727	70.8835	21.9727	71.4709	21.9727	70.8347	21.9727	71.558	21.9727	70.79	21.9727	71.65	21.9727	70.7513	21.9727	71.7456	21.9727	70.7212	21.9727	71.8418	21.9727	70.7037	21.9727	71.9339	21.9727	70.7047	21.9727	72.0155	21.9727	70.7312	21.9727	72.0793	21.9727	70.7905	21.9727	72.1179	21.9727	70.888	21.9727	72.1244	21.9727	71.0243	21.9727	72.0932	21.9727	71.1933	21.9727	72.0206	21.9727	71.3826	21.9727	71.9065	21.9727	71.5755	21.9727	71.7549
23.4375	74.9425	23.4375	74.9723	23.4375	74.9118	23.4375	75.0013	23.4375	74.8798	23.4375	75.0299	23.4375	74.8463	23.4375	75.0584	23.4375	74.8114	23.4375	75.0871	23.4375	74.7757	23.4375	75.1164	23.4375	74.7402	23.4375	75.1463	23.4375	74.7066	23.4375	75.1767	23.4375	74.6773	23.4375	75.2069	23.4375	74.655	23.4375	75.2353	23.4375	74.6433	23.4375	75.2598	23.4375	74.6454	23.4375	75.2774	23.4375	74.6645	23.4375	75.2847	23.4375	74.7022	23.4375	75.2782	23.4375	74.7582	23.4375	75.2551	23.4375	74.8298	23.4375	75.214	23.4375	74.9121	23.4375	75.1552	23.4375	74.9985	23.4375	75.0817
24.9023	76.8861	24.9023	76.9011	24.9023	76.8687	24.9023	76.9143	24.9023	76.8485	24.9023	76.9259	24.9023	76.8247	24.9023	76.9358	24.9023	76.797	24.9023	76.9438	24.9023	76.765	24.9023	76.9497	24.9023	76.7288	24.9023	76.9528	24.9023	76.689	24.9023	76.9523	24.9023	76.6467	24.9023	76.947	24.9023	76.6035	24.9023	76.9358	24.9023	76.5618	24.9023	76.9173	24.9023	76.5243	24.9023	76.8904	24.9023	76.4939	24.9023	76.8546	24.9023	76.4737	24.9023	76.8097	24.9023	76.4664	24.9023	76.7571	24.9023	76.4738	24.9023	76.6991	24.9023	76.4966	24.9023	76.6395	24.9023	76.5338	24.9023	76.5828
26.3672	79.0974	26.3672	79.1128	26.3672	79.0815	26.3672	79.1275	26.3672	79.0649	26.3672	79.1417	26.3672	79.0473	26.3672	79.1548	26.3672	79.0287	26.3672	79.1666	26.3672	79.0089	26.3672	79.1765	26.3672	78.988	26.3672	79.1837	26.3672	78.9666	26.3672	79.1874	26.3672	78.9453	26.3672	79.1865	26.3672	78.9252	26.3672	79.1803	26.3672	78.9074	26.3672	79.1678	26.3672	78.8933	26.3672	79.1487	26.3672	78.8839	26.3672	79.1233	26.3672	78.8799	26.3672	79.0925	26.3672	78.8819	26.3672	79.0579	26.3672	78.8903	26.3672	79.0216	26.3672	78.9051	26.3672	78.9862	26.3672	78.9265	26.3672	78.9539
27.832	80.2112	27.832	80.2239	27.832	80.1965	27.832	80.2346	27.832	80.1798	27.832	80.2433	27.832	80.1611	27.832	80.2501	27.832	80.1406	27.832	80.2549	27.832	80.1185	27.832	80.2575	27.832	80.0954	27.832	80.2575	27.832	80.0717	27.832	80.2546	27.832	80.0484	27.832	80.2483	27.832	80.0263	27.832	80.2379	27.832	80.0065	27.832	80.2229	27.832	79.9901	27.832	80.2031	27.832	79.978	27.832	80.1786	27.832	79.9711	27.832	80.1503	27.832	79.9701	27.832	80.1192	27.832	79.9754	27.832	80.0872	27.832	79.9871	27.832	80.0563	27.832	80.005	27.832	80.0284
29.2969	82.5287	29.2969	82.5278	29.2969	82.525	29.2969	82.5223	29.2969	82.5165	29.2969	82.5121	29.2969	82.5034	29.2969	82.4974	29.2969	82.4856	29.2969	82.4783	29.2969	82.4632	29.2969	82.455	29.2969	82.4363	29.2969	82.4279	29.2969	82.4053	29.2969	82.3972	29.2969	82.3706	29.2969	82.3637	29.2969	82.3329	29.2969	82.3279	29.2969	82.2934	29.2969	82.2907	29.2969	82.2533	29.2969	82.2533	29.2969	82.2142	29.2969	82.2168	29.2969	82.178	29.2969	82.1826	29.2969	82.1464	29.2969	82.1523	29.2969	82.1215	29.2969	82.1273	29.2969	82.1047	29.2969	82.109	29.2969	82.0969	29.2969	82.0985
30.7617	84.7902	30.7617	84.7983	30.7617	84.7775	30.7617	84.8016	30.7617	84.7604	30.7617	84.8	30.7617	84.7391	30.7617	84.7934	30.7617	84.7139	30.7617	84.7816	30.7617	84.6854	30.7617	84.7646	30.7617	84.654	30.7617	84.7424	30.7617	84.6207	30.7617	84.7152	30.7617	84.5863	30.7617	84.6832	30.7617	84.5519	30.7617	84.6473	30.7617	84.5184	30.7617	84.6083	30.7617	84.4867	30.7617	84.5676	30.7617	84.4576	30.7617	84.5268	30.7617	84.432	30.7617	84.488	30.7617	84.4106	30.7617	84.453	30.7617	84.3945	30.7617	84.4238	30.7617	84.3848	30.7617	84.4018	30.7617	84.3823	30.7617	84.3879
32.2266	85.5545	32.2266	85.5517	32.2266	85.5522	32.2266	85.5435	32.2266	85.5446	32.2266	85.5301	32.2266	85.5321	32.2266	85.5114	32.2266	85.5146	32.2266	85.4877	32.2266	85.4925	32.2266	85.459	32.2266	85.466	32.2266	85.4257	32.2266	85.4356	32.2266	85.3886	32.2266	85.4017	32.2266	85.3483	32.2266	85.365	32.2266	85.306	32.2266	85.3264	32.2266	85.2631	32.2266	85.2867	32.2266	85.2214	32.2266	85.247	32.2266	85.1825	32.2266	85.2086	32.2266	85.1484	32.2266	85.1729	32.2266	85.1208	32.2266	85.1416	32.2266	85.1011	32.2266	85.1162	32.2266	85.0905	32.2266	85.0985	32.2266	85.0897
33.6914	87.2256	33.6914	87.2209	33.6914	87.223	33.6914	87.2091	33.6914	87.2133	33.6914	87.1903	33.6914	87.1967	33.6914	87.1647	33.6914	87.1735	33.6914	87.1327	33.6914	87.144	33.6914	87.095	33.6914	87.109	33.6914	87.0522	33.6914	87.0693	33.6914	87.0053	33.6914	87.0258	33.6914	86.9555	33.6914	86.9796	33.6914	86.9041	33.6914	86.9318	33.6914	86.8528	33.6914	86.8837	33.6914	86.8033	33.6914	86.8365	33.6914	86.7577	33.6914	86.7915	33.6914	86.7181	33.6914	86.7501	33.6914	86.6864	33.6914	86.714	33.6914	86.6644	33.6914	86.6848	33.6914	86.6531	33.6914	86.664	33.6914	86.6531
35.1562	88.6801	35.1562	88.6749	35.1562	88.6788	35.1562	88.6632	35.1562	88.6714	35.1562	88.6451	35.1562	88.6581	35.1562	88.6208	35.1562	88.6393	35.1562	88.5906	35.1562	88.6156	35.1562	88.5552	35.1562	88.5876	35.1562	88.5153	35.1562	88.5562	35.1562	88.4721	35.1562	88.5221	35.1562	88.4269	35.1562	88.4862	35.1562	88.3811	35.1562	88.4491	35.1562	88.3364	35.1562	88.4116	35.1562	88.2948	35.1562	88.3743	35.1562	88.2582	35.1562	88.3377	35.1562	88.2285	35.1562	88.3027	35.1562	88.2074	35.1562	88.2703	35.1562	88.1958	35.1562	88.2417	35.1562	88.1942	35.1562	88.2184	35.1562	88.2021
36.6211	90.0042	36.6211	89.9976	36.6211	90.003	36.6211	89.9833	36.6211	89.994	36.6211	89.9614	36.6211	89.9776	36.6211	89.9324	36.6211	89.9539	36.6211	89.8965	36.6211	89.9235	36.6211	89.8547	36.6211	89.8871	36.6211	89.8077	36.6211	89.8454	36.6211	89.7566	36.6211	89.7994	36.6211	89.7028	36.6211	89.7502	36.6211	89.6479	36.6211	89.699	36.6211	89.5934	36.6211	89.6471	36.6211	89.5415	36.6211	89.5958	36.6211	89.494	36.6211	89.5465	36.6211	89.4531	36.6211	89.5009	36.6211	89.4209	36.6211	89.4607	36.6211	89.3991	36.6211	89.4278	36.6211	89.3888	36.6211	89.4039	36.6211	89.3906
38.0859	90.9767	38.0859	90.966	38.0859	90.9775	38.0859	90.9455	38.0859	90.9683	38.0859	90.9153	38.0859	90.9494	38.0859	90.8759	38.0859	90.9209	38.0859	90.8277	38.0859	90.8834	38.0859	90.7716	38.0859	90.8374	38.0859	90.7086	38.0859	90.7837	38.0859	90.64	38.0859	90.7233	38.0859	90.5674	38.0859	90.6574	38.0859	90.4928	38.0859	90.5878	38.0859	90.4186	38.0859	90.516	38.0859	90.3476	38.0859	90.4443	38.0859	90.2829	38.0859	90.3749	38.0859	90.2276	38.0859	90.3102	38.0859	90.1846	38.0859	90.2528	38.0859	90.1565	38.0859	90.2053	38.0859	90.1446	38.0859	90.1701	38.0859	90.1494
39.5508	92.5201	39.5508	92.5117	39.5508	92.5206	39.5508	92.4954	39.5508	92.5132	39.5508	92.4713	39.5508	92.4982	39.5508	92.44	39.5508	92.476	39.5508	92.402	39.5508	92.4471	39.5508	92.3582	39.5508	92.4121	39.5508	92.3095	39.5508	92.3719	39.5508	92.2573	39.5508	92.3272	39.5508	92.2029	39.5508	92.2789	39.5508	92.1479	39.5508	92.2278	39.5508	92.0941	39.5508	92.1752	39.5508	92.0434	39.5508	92.1222	39.5508	91.9976	39.5508	92.0707	39.5508	91.9587	39.5508	92.0225	39.5508	91.9285	39.5508	91.9797	39.5508	91.9086	39.5508	91.9445	39.5508	91.9001	39.5508	91.9186	39.5508	91.9036
41.0156	93.7114	41.0156	93.705	41.0156	93.7096	41.0156	93.6908	41.0156	93.7	41.0156	93.6688	41.0156	93.6826	41.0156	93.6398	41.0156	93.6581	41.0156	93.6045	41.0156	93.6271	41.0156	93.5638	41.0156	93.5905	41.0156	93.519	41.0156	93.5494	41.0156	93.4717	41.0156	93.5051	41.0156	93.4233	41.0156	93.4587	41.0156	93.3755	41.0156	93.4116	41.0156	93.3297	41.0156	93.365	41.0156	93.2872	41.0156	93.3201	41.0156	93.2491	41.0156	93.2784	41.0156	93.2165	41.0156	93.241	41.0156	93.1904	41.0156	93.2094	41.0156	93.1717	41.0156	93.1848	41.0156	93.1615	41.0156	93.1681	41.0156	93.1603
42.4805	94.792	42.4805	94.7856	42.4805	94.789	42.4805	94.77	42.4805	94.7769	42.4805	94.7454	42.4805	94.756	42.4805	94.7127	42.4805	94.7271	42.4805	94.6727	42.4805	94.6911	42.4805	94.6266	42.4805	94.6492	42.4805	94.5761	42.4805	94.6027	42.4805	94.5229	42.4805	94.553	42.4805	94.4689	42.4805	94.5018	42.4805	94.4163	42.4805	94.4506	42.4805	94.3671	42.4805	94.4011	42.4805	94.3229	42.4805	94.3549	42.4805	94.285	42.4805	94.3134	42.4805	94.2542	42.4805	94.2777	42.4805	94.2308	42.4805	94.2486	42.4805	94.2149	42.4805	94.2269	42.4805	94.2066	42.4805	94.2125	42.4805	94.2058
43.9453	95.9203	43.9453	95.9147	43.9453	95.9148	43.9453	95.8981	43.9453	95.8982	43.9453	95.8711	43.9453	95.8709	43.9453	95.8344	43.9453	95.8334	43.9453	95.7891	43.9453	95.7867	43.9453	95.7364	43.9453	95.732	43.9453	95.6779	43.9453	95.6711	43.9453	95.6154	43.9453	95.6057	43.9453	95.5508	43.9453	95.5378	43.9453	95.4863	43.9453	95.4699	43.9453	95.4237	43.9453	95.4042	43.9453	95.3651	43.9453	95.343	43.9453	95.3119	43.9453	95.2885	43.9453	95.2654	43.9453	95.2426	43.9453	95.2268	43.9453	95.2068	43.9453	95.1971	43.9453	95.1821	43.9453	95.177	43.9453	95.169	43.9453	95.1674
45.4102	96.9596	45.4102	96.9518	45.4102	96.9561	45.4102	96.9328	45.4102	96.9412	45.4102	96.9033	45.4102	96.9151	45.4102	96.8639	45.4102	96.8784	45.4102	96.8157	45.4102	96.8318	45.4102	96.7601	45.4102	96.7765	45.4102	96.6985	45.4102	96.714	45.4102	96.6329	45.4102	96.6461	45.4102	96.5652	45.4102	96.575	45.4102	96.4975	45.4102	96.503	45.4102	96.4319	45.4102	96.4328	45.4102	96.3703	45.4102	96.367	45.4102	96.3146	45.4102	96.3079	45.4102	96.2662	45.4102	96.2576	45.4102	96.2266	45.4102	96.2179	45.4102	96.1967	45.4102	96.1897	45.4102	96.1774	45.4102	96.1735	45.4102	96.1695
46.875	97.8822	46.875	97.871	46.875	97.8837	46.875	97.8502	46.875	97.8752	46.875	97.8203	46.875	97.8569	46.875	97.7822	46.875	97.8291	46.875	97.7368	46.875	97.7926	46.875	97.6853	46.875	97.748	46.875	97.6291	46.875	97.6967	46.875	97.5698	46.875	97.64	46.875	97.5093	46.875	97.5798	46.875	97.4492	46.875	97.518	46.875	97.3916	46.875	97.4566	46.875	97.3381	46.875	97.3978	46.875	97.2906	46.875	97.3435	46.875	97.2507	46.875	97.2954	46.875	97.2199	46.875	97.255	46.875	97.1991	46.875	97.2234	46.875	97.189	46.875	97.2015	46.875	97.1899
48.3398	98.8009	48.3398	98.7956	48.3398	98.7987	48.3398	98.7829	48.3398	98.789	48.3398	98.7633	48.3398	98.7722	48.3398	98.7376	48.3398	98.7489	48.3398	98.7066	48.3398	98.72	48.3398	98.6716	48.3398	98.6868	48.3398	98.6337	48.3398	98.6506	48.3398	98.5943	48.3398	98.6128	48.3398	98.5549	48.3398	98.575	48.3398	98.5168	48.3398	98.5385	48.3398	98.4815	48.3398	98.5045	48.3398	98.4501	48.3398	98.4738	48.3398	98.4235	48.3398	98.447	48.3398	98.4025	48.3398	98.4242	48.3398	98.3873	48.3398	98.4055	48.3398	98.3778	48.3398	98.391	48.3398	98.3738	48.3398	98.3808	48.3398	98.3749
51.2695	100.559	51.2695	100.562	51.2695	100.542	51.2695	100.551	51.2695	100.511	51.2695	100.527	51.2695	100.467	51.2695	100.489	51.2695	100.411	51.2695	100.441	51.2695	100.345	51.2695	100.383	51.2695	100.272	51.2695	100.318	51.2695	100.194	51.2695	100.248	51.2695	100.113	51.2695	100.177	51.2695	100.034	51.2695	100.105	51.2695	99.9583	51.2695	100.037	51.2695	99.8896	51.2695	99.9722	51.2695	99.8303	51.2695	99.9131	51.2695	99.7822	51.2695	99.8604	51.2695	99.7463	51.2695	99.8147	51.2695	99.7231	51.2695	99.7764	51.2695	99.7122	51.2695	99.7462	51.2695	99.7131	51.2695	99.7248
52.7344	100.989	52.7344	100.984	52.7344	100.98	52.7344	100.966	52.7344	100.956	52.7344	100.933	52.7344	100.918	52.7344	100.89	52.7344	100.867	52.7344	100.835	52.7344	100.805	52.7344	100.773	52.7344	100.733	52.7344	100.704	52.7344	100.653	52.7344	100.633	52.7344	100.569	52.7344	100.56	52.7344	100.483	52.7344	100.489	52.7344	100.4	52.7344	100.421	52.7344	100.322	52.7344	100.358	52.7344	100.253	52.7344	100.3	52.7344	100.195	52.7344	100.248	52.7344	100.151	52.7344	100.203	52.7344	100.121	52.7344	100.164	52.7344	100.105	52.7344	100.134	52.7344	100.103	52.7344	100.113
54.1992	101.333	54.1992	101.315	54.1992	101.337	54.1992	101.283	54.1992	101.325	54.1992	101.237	54.1992	101.299	54.1992	101.18	54.1992	101.258	54.1992	101.113	54.1992	101.205	54.1992	101.038	54.1992	101.14	54.1992	100.959	54.1992	101.067	54.1992	100.877	54.1992	100.986	54.1992	100.796	54.1992	100.903	54.1992	100.719	54.1992	100.819	54.1992	100.648	54.1992	100.739	54.1992	100.585	54.1992	100.666	54.1992	100.533	54.1992	100.602	54.1992	100.491	54.1992	100.548	54.1992	100.461	54.1992	100.505	54.1992	100.443	54.1992	100.472	54.1992	100.435	54.1992	100.45	54.1992	100.438
55.6641	101.69	55.6641	101.677	55.6641	101.689	55.6641	101.65	55.6641	101.675	55.6641	101.611	55.6641	101.647	55.6641	101.56	55.6641	101.606	55.6641	101.5	55.6641	101.553	55.6641	101.431	55.6641	101.491	55.6641	101.356	55.6641	101.42	55.6641	101.278	55.6641	101.343	55.6641	101.199	55.6641	101.263	55.6641	101.122	55.6641	101.183	55.6641	101.048	55.6641	101.105	55.6641	100.981	55.6641	101.033	55.6641	100.923	55.6641	100.968	55.6641	100.876	55.6641	100.913	55.6641	100.84	55.6641	100.869	55.6641	100.815	55.6641	100.835	55.6641	100.803	55.6641	100.813	55.6641	100.802
58.5938	102.065	58.5938	102.053	58.5938	102.064	58.5938	102.029	58.5938	102.05	58.5938	101.993	58.5938	102.023	58.5938	101.946	58.5938	101.986	58.5938	101.89	58.5938	101.938	58.5938	101.825	58.5938	101.881	58.5938	101.755	58.5938	101.818	58.5938	101.68	58.5938	101.75	58.5938	101.605	58.5938	101.68	58.5938	101.531	58.5938	101.609	58.5938	101.461	58.5938	101.54	58.5938	101.398	58.5938	101.475	58.5938	101.343	58.5938	101.415	58.5938	101.299	58.5938	101.363	58.5938	101.267	58.5938	101.318	58.5938	101.247	58.5938	101.283	58.5938	101.239	58.5938	101.258	58.5938	101.243
60.0586	102.062	60.0586	102.05	60.0586	102.062	60.0586	102.026	60.0586	102.05	60.0586	101.991	60.0586	102.026	60.0586	101.947	60.0586	101.991	60.0586	101.895	60.0586	101.948	60.0586	101.837	60.0586	101.896	60.0586	101.776	60.0586	101.839	60.0586	101.713	60.0586	101.778	60.0586	101.652	60.0586	101.716	60.0586	101.594	60.0586	101.655	60.0586	101.542	60.0586	101.598	60.0586	101.497	60.0586	101.547	60.0586	101.459	60.0586	101.502	60.0586	101.43	60.0586	101.464	60.0586	101.408	60.0586	101.434	60.0586	101.394	60.0586	101.411	60.0586	101.388	60.0586	101.396	60.0586	101.389
62.9883	101.922	62.9883	101.915	62.9883	101.916	62.9883	101.894	62.9883	101.896	62.9883	101.861	62.9883	101.864	62.9883	101.817	62.9883	101.82	62.9883	101.764	62.9883	101.766	62.9883	101.705	62.9883	101.704	62.9883	101.641	62.9883	101.637	62.9883	101.576	62.9883	101.568	62.9883	101.512	62.9883	101.5	62.9883	101.452	62.9883	101.434	62.9883	101.398	62.9883	101.375	62.9883	101.35	62.9883	101.324	62.9883	101.31	62.9883	101.282	62.9883	101.277	62.9883	101.25	62.9883	101.251	62.9883	101.227	62.9883	101.231	62.9883	101.214	62.9883	101.218	62.9883	101.208	62.9883	101.21
64.4531	101.823	64.4531	101.814	64.4531	101.817	64.4531	101.793	64.4531	101.798	64.4531	101.759	64.4531	101.767	64.4531	101.714	64.4531	101.723	64.4531	101.66	64.4531	101.669	64.4531	101.599	64.4531	101.608	64.4531	101.535	64.4531	101.542	64.4531	101.469	64.4531	101.473	64.4531	101.405	64.4531	101.405	64.4531	101.345	64.4531	101.341	64.4531	101.292	64.4531	101.283	64.4531	101.245	64.4531	101.232	64.4531	101.207	64.4531	101.191	64.4531	101.177	64.4531	101.16	64.4531	101.154	64.4531	101.138	64.4531	101.137	64.4531	101.125	64.4531	101.125	64.4531	101.119	64.4531	101.119
67.3828	101.596	67.3828	101.583	67.3828	101.595	67.3828	101.557	67.3828	101.579	67.3828	101.517	67.3828	101.55	67.3828	101.467	67.3828	101.51	67.3828	101.407	67.3828	101.459	67.3828	101.341	67.3828	101.4	67.3828	101.271	67.3828	101.336	67.3828	101.201	67.3828	101.27	67.3828	101.134	67.3828	101.205	67.3828	101.073	67.3828	101.142	67.3828	101.019	67.3828	101.086	67.3828	100.975	67.3828	101.037	67.3828	100.941	67.3828	100.996	67.3828	100.917	67.3828	100.963	67.3828	100.902	67.3828	100.938	67.3828	100.895	67.3828	100.919	67.3828	100.894	67.3828	100.906	67.3828	100.898
