"SPL Vertical"
"On-Axis"		"10°"		"-10°"		"20°"		"-20°"		"30°"		"-30°"		"40°"		"-40°"		"50°"		"-50°"		"60°"		"-60°"		"70°"		"-70°"		"80°"		"-80°"		"90°"		"-90°"		"100°"		"-100°"		"110°"		"-110°"		"120°"		"-120°"		"130°"		"-130°"		"140°"		"-140°"		"150°"		"-150°"		"160°"		"-160°"		"170°"		"-170°"		"180°"
"Frequency / Hz"	"Sound Pressure Level / dB (re 20 µPa/V)  [2.83  V @ 1. m]"	"Frequency / Hz"	"Sound Pressure Level / dB (re 20 µPa/V)  [2.83  V @ 1. m]"	"Frequency / Hz"	"Sound Pressure Level / dB (re 20 µPa/V)  [2.83  V @ 1. m]"	"Frequency / Hz"	"Sound Pressure Level / dB (re 20 µPa/V)  [2.83  V @ 1. m]"	"Frequency / Hz"	"Sound Pressure Level / dB (re 20 µPa/V)  [2.83  V @ 1. m]"	"Frequency / Hz"	"Sound Pressure Level / dB (re 20 µPa/V)  [2.83  V @ 1. m]"	"Frequency / Hz"	"Sound Pressure Level / dB (re 20 µPa/V)  [2.83  V @ 1. m]"	"Frequency / Hz"	"Sound Pressure Level / dB (re 20 µPa/V)  [2.83  V @ 1. m]"	"Frequency / Hz"	"Sound Pressure Level / dB (re 20 µPa/V)  [2.83  V @ 1. m]"	"Frequency / Hz"	"Sound Pressure Level / dB (re 20 µPa/V)  [2.83  V @ 1. m]"	"Frequency / Hz"	"Sound Pressure Level / dB (re 20 µPa/V)  [2.83  V @ 1. m]"	"Frequency / Hz"	"Sound Pressure Level / dB (re 20 µPa/V)  [2.83  V @ 1. m]"	"Frequency / Hz"	"Sound Pressure Level / dB (re 20 µPa/V)  [2.83  V @ 1. m]"	"Frequency / Hz"	"Sound Pressure Level / dB (re 20 µPa/V)  [2.83  V @ 1. m]"	"Frequency / Hz"	"Sound Pressure Level / dB (re 20 µPa/V)  [2.83  V @ 1. m]"	"Frequency / Hz"	"Sound Pressure Level / dB (re 20 µPa/V)  [2.83  V @ 1. m]"	"Frequency / Hz"	"Sound Pressure Level / dB (re 20 µPa/V)  [2.83  V @ 1. m]"	"Frequency / Hz"	"Sound Pressure Level / dB (re 20 µPa/V)  [2.83  V @ 1. m]"	"Frequency / Hz"	"Sound Pressure Level / dB (re 20 µPa/V)  [2.83  V @ 1. m]"	"Frequency / Hz"	"Sound Pressure Level / dB (re 20 µPa/V)  [2.83  V @ 1. m]"	"Frequency / Hz"	"Sound Pressure Level / dB (re 20 µPa/V)  [2.83  V @ 1. m]"	"Frequency / Hz"	"Sound Pressure Level / dB (re 20 µPa/V)  [2.83  V @ 1. m]"	"Frequency / Hz"	"Sound Pressure Level / dB (re 20 µPa/V)  [2.83  V @ 1. m]"	"Frequency / Hz"	"Sound Pressure Level / dB (re 20 µPa/V)  [2.83  V @ 1. m]"	"Frequency / Hz"	"Sound Pressure Level / dB (re 20 µPa/V)  [2.83  V @ 1. m]"	"Frequency / Hz"	"Sound Pressure Level / dB (re 20 µPa/V)  [2.83  V @ 1. m]"	"Frequency / Hz"	"Sound Pressure Level / dB (re 20 µPa/V)  [2.83  V @ 1. m]"	"Frequency / Hz"	"Sound Pressure Level / dB (re 20 µPa/V)  [2.83  V @ 1. m]"	"Frequency / Hz"	"Sound Pressure Level / dB (re 20 µPa/V)  [2.83  V @ 1. m]"	"Frequency / Hz"	"Sound Pressure Level / dB (re 20 µPa/V)  [2.83  V @ 1. m]"	"Frequency / Hz"	"Sound Pressure Level / dB (re 20 µPa/V)  [2.83  V @ 1. m]"	"Frequency / Hz"	"Sound Pressure Level / dB (re 20 µPa/V)  [2.83  V @ 1. m]"	"Frequency / Hz"	"Sound Pressure Level / dB (re 20 µPa/V)  [2.83  V @ 1. m]"	"Frequency / Hz"	"Sound Pressure Level / dB (re 20 µPa/V)  [2.83  V @ 1. m]"	"Frequency / Hz"	"Sound Pressure Level / dB (re 20 µPa/V)  [2.83  V @ 1. m]"	"Frequency / Hz"	"Sound Pressure Level / dB (re 20 µPa/V)  [2.83  V @ 1. m]"
20.5078	42.3529	20.5078	41.5947	20.5078	43.2205	20.5078	40.9785	20.5078	44.1412	20.5078	40.5121	20.5078	45.0498	20.5078	40.1898	20.5078	45.8888	20.5078	40.0048	20.5078	46.6187	20.5078	39.9535	20.5078	47.2187	20.5078	40.0336	20.5078	47.6836	20.5078	40.2407	20.5078	48.0189	20.5078	40.5674	20.5078	48.2364	20.5078	41.0043	20.5078	48.351	20.5078	41.541	20.5078	48.3781	20.5078	42.1651	20.5078	48.3304	20.5078	42.8604	20.5078	48.2151	20.5078	43.6042	20.5078	48.0321	20.5078	44.3678	20.5078	47.7743	20.5078	45.1181	20.5078	47.4306	20.5078	45.8223	20.5078	46.9912	20.5078	46.4528
21.9727	43.9918	21.9727	43.3304	21.9727	44.6738	21.9727	42.729	21.9727	45.3448	21.9727	42.2321	21.9727	45.9805	21.9727	41.8805	21.9727	46.5626	21.9727	41.6999	21.9727	47.0777	21.9727	41.692	21.9727	47.5161	21.9727	41.8364	21.9727	47.8717	21.9727	42.1001	21.9727	48.1415	21.9727	42.4503	21.9727	48.3261	21.9727	42.8613	21.9727	48.4291	21.9727	43.3166	21.9727	48.4566	21.9727	43.8061	21.9727	48.4158	21.9727	44.3222	21.9727	48.3128	21.9727	44.8564	21.9727	48.1508	21.9727	45.3968	21.9727	47.9299	21.9727	45.9281	21.9727	47.6477	21.9727	46.433	21.9727	47.3023	21.9727	46.8951
23.4375	36.767	23.4375	37.8909	23.4375	35.4605	23.4375	38.7725	23.4375	34.227	23.4375	39.4251	23.4375	33.6037	23.4375	39.88	23.4375	33.9872	23.4375	40.1676	23.4375	35.0493	23.4375	40.3115	23.4375	36.1999	23.4375	40.3274	23.4375	37.1103	23.4375	40.223	23.4375	37.6723	23.4375	39.9986	23.4375	37.8669	23.4375	39.6476	23.4375	37.7006	23.4375	39.1566	23.4375	37.1832	23.4375	38.5048	23.4375	36.3187	23.4375	37.663	23.4375	35.102	23.4375	36.593	23.4375	33.5262	23.4375	35.2486	23.4375	31.6352	23.4375	33.588	23.4375	29.7382	23.4375	31.635	23.4375	28.8071	23.4375	29.708
24.9023	36.6838	24.9023	38.2266	24.9023	34.606	24.9023	39.3882	24.9023	31.7261	24.9023	40.2627	24.9023	27.6153	24.9023	40.9108	24.9023	23.1186	24.9023	41.3723	24.9023	25.203	24.9023	41.6731	24.9023	29.1988	24.9023	41.8291	24.9023	31.8296	24.9023	41.8487	24.9023	33.4595	24.9023	41.7345	24.9023	34.4175	24.9023	41.4848	24.9023	34.904	24.9023	41.0955	24.9023	35.0613	24.9023	40.562	24.9023	35.007	24.9023	39.8829	24.9023	34.8453	24.9023	39.0663	24.9023	34.6683	24.9023	38.1384	24.9023	34.5587	24.9023	37.1549	24.9023	34.5989	24.9023	36.2081	24.9023	34.8686	24.9023	35.414
26.3672	39.2758	26.3672	39.7757	26.3672	38.9239	26.3672	40.3259	26.3672	38.8152	26.3672	40.8568	26.3672	38.9868	26.3672	41.3283	26.3672	39.3843	26.3672	41.7216	26.3672	39.8901	26.3672	42.0296	26.3672	40.3813	26.3672	42.251	26.3672	40.7658	26.3672	42.3865	26.3672	40.9895	26.3672	42.4372	26.3672	41.0308	26.3672	42.4041	26.3672	40.8949	26.3672	42.2878	26.3672	40.6115	26.3672	42.0898	26.3672	40.2335	26.3672	41.8136	26.3672	39.8342	26.3672	41.4666	26.3672	39.4982	26.3672	41.0618	26.3672	39.3009	26.3672	40.6207	26.3672	39.2865	26.3672	40.1752	26.3672	39.4547	26.3672	39.7688
27.832	44.7854	27.832	45.1389	27.832	44.4178	27.832	45.4387	27.832	44.0931	27.832	45.6627	27.832	43.8741	27.832	45.8007	27.832	43.8036	27.832	45.8498	27.832	43.8797	27.832	45.8094	27.832	44.0541	27.832	45.6796	27.832	44.2549	27.832	45.4599	27.832	44.4153	27.832	45.1489	27.832	44.488	27.832	44.746	27.832	44.4483	27.832	44.253	27.832	44.2893	27.832	43.6791	27.832	44.017	27.832	43.0471	27.832	43.6451	27.832	42.4031	27.832	43.1923	27.832	41.823	27.832	42.6847	27.832	41.4058	27.832	42.1621	27.832	41.2387	27.832	41.6876	27.832	41.3491
29.2969	44.9279	29.2969	45.0172	29.2969	44.8993	29.2969	45.1552	29.2969	44.9313	29.2969	45.3222	29.2969	45.0089	29.2969	45.4957	29.2969	45.104	29.2969	45.6542	29.2969	45.1791	29.2969	45.7785	29.2969	45.1932	29.2969	45.8523	29.2969	45.1069	29.2969	45.8613	29.2969	44.8854	29.2969	45.7927	29.2969	44.5018	29.2969	45.6342	29.2969	43.9383	29.2969	45.3732	29.2969	43.1899	29.2969	44.9968	29.2969	42.2709	29.2969	44.492	29.2969	41.2313	29.2969	43.8473	29.2969	40.1878	29.2969	43.0565	29.2969	39.3575	29.2969	42.1282	29.2969	39.0163	29.2969	41.1041	29.2969	39.3069	29.2969	40.0932
30.7617	44.0233	30.7617	43.9508	30.7617	44.2893	30.7617	44.0547	30.7617	44.7174	30.7617	44.2821	30.7617	45.2415	30.7617	44.5691	30.7617	45.7861	30.7617	44.8611	30.7617	46.2862	30.7617	45.1197	30.7617	46.6941	30.7617	45.3218	30.7617	46.9794	30.7617	45.4552	30.7617	47.1263	30.7617	45.5153	30.7617	47.1309	30.7617	45.5027	30.7617	47.0005	30.7617	45.4223	30.7617	46.7524	30.7617	45.2835	30.7617	46.4129	30.7617	45.1011	30.7617	46.0154	30.7617	44.8968	30.7617	45.5984	30.7617	44.6991	30.7617	45.2018	30.7617	44.5419	30.7617	44.8638	30.7617	44.4598	30.7617	44.6165	30.7617	44.4803
32.2266	47.1885	32.2266	47.6914	32.2266	46.7318	32.2266	48.193	32.2266	46.3717	32.2266	48.6581	32.2266	46.1426	32.2266	49.0646	32.2266	46.0455	32.2266	49.4008	32.2266	46.0448	32.2266	49.661	32.2266	46.084	32.2266	49.8433	32.2266	46.1062	32.2266	49.9471	32.2266	46.0699	32.2266	49.9719	32.2266	45.9557	32.2266	49.9172	32.2266	45.7687	32.2266	49.7819	32.2266	45.5385	32.2266	49.5648	32.2266	45.317	32.2266	49.2653	32.2266	45.1702	32.2266	48.884	32.2266	45.1618	32.2266	48.4252	32.2266	45.3308	32.2266	47.8986	32.2266	45.6765	32.2266	47.3229	32.2266	46.1613	32.2266	46.7289
33.6914	49.2415	33.6914	49.5109	33.6914	49.0314	33.6914	49.8106	33.6914	48.902	33.6914	50.1117	33.6914	48.8586	33.6914	50.3904	33.6914	48.8869	33.6914	50.6295	33.6914	48.9565	33.6914	50.8172	33.6914	49.0304	33.6914	50.9466	33.6914	49.074	33.6914	51.0134	33.6914	49.0616	33.6914	51.0154	33.6914	48.9808	33.6914	50.9515	33.6914	48.833	33.6914	50.8217	33.6914	48.6343	33.6914	50.627	33.6914	48.4136	33.6914	50.3703	33.6914	48.2095	33.6914	50.0574	33.6914	48.064	33.6914	49.699	33.6914	48.0145	33.6914	49.3125	33.6914	48.0838	33.6914	48.9232	33.6914	48.2736	33.6914	48.5644
35.1562	50.5248	35.1562	50.865	35.1562	50.211	35.1562	51.2051	35.1562	49.9498	35.1562	51.5224	35.1562	49.7595	35.1562	51.8001	35.1562	49.6434	35.1562	52.027	35.1562	49.588	35.1562	52.1961	35.1562	49.5666	35.1562	52.3033	35.1562	49.5483	35.1562	52.3465	35.1562	49.5068	35.1562	52.3249	35.1562	49.4264	35.1562	52.2383	35.1562	49.3063	35.1562	52.0876	35.1562	49.1603	35.1562	51.8744	35.1562	49.0153	35.1562	51.6021	35.1562	48.9061	35.1562	51.2764	35.1562	48.868	35.1562	50.9066	35.1562	48.9274	35.1562	50.5073	35.1562	49.0947	35.1562	50.0985	35.1562	49.3619	35.1562	49.7065
36.6211	52.1575	36.6211	52.3371	36.6211	52.0281	36.6211	52.546	36.6211	51.963	36.6211	52.7618	36.6211	51.9638	36.6211	52.9642	36.6211	52.0188	36.6211	53.1374	36.6211	52.1047	36.6211	53.2697	36.6211	52.193	36.6211	53.3532	36.6211	52.256	36.6211	53.3828	36.6211	52.2719	36.6211	53.3559	36.6211	52.2275	36.6211	53.2714	36.6211	52.12	36.6211	53.1303	36.6211	51.957	36.6211	52.9354	36.6211	51.7559	36.6211	52.6928	36.6211	51.5425	36.6211	52.4126	36.6211	51.3481	36.6211	52.1103	36.6211	51.2057	36.6211	51.8077	36.6211	51.1439	36.6211	51.5323	36.6211	51.1797	36.6211	51.3142
38.0859	54.5217	38.0859	54.745	38.0859	54.3221	38.0859	54.9785	38.0859	54.1558	38.0859	55.2075	38.0859	54.0255	38.0859	55.4188	38.0859	53.926	38.0859	55.6015	38.0859	53.8446	38.0859	55.7472	38.0859	53.7647	38.0859	55.85	38.0859	53.6696	38.0859	55.9055	38.0859	53.5473	38.0859	55.9108	38.0859	53.3943	38.0859	55.8638	38.0859	53.218	38.0859	55.7631	38.0859	53.0381	38.0859	55.6082	38.0859	52.8844	38.0859	55.3997	38.0859	52.7914	38.0859	55.1395	38.0859	52.7891	38.0859	54.8327	38.0859	52.8941	38.0859	54.4878	38.0859	53.1035	38.0859	54.1188	38.0859	53.3975	38.0859	53.7464
39.5508	55.1819	39.5508	55.3762	39.5508	55.0244	39.5508	55.5909	39.5508	54.9157	39.5508	55.809	39.5508	54.8602	39.5508	56.0156	39.5508	54.8522	39.5508	56.199	39.5508	54.8778	39.5508	56.3511	39.5508	54.9178	39.5508	56.4665	39.5508	54.9532	39.5508	56.5421	39.5508	54.9692	39.5508	56.5765	39.5508	54.9587	39.5508	56.5694	39.5508	54.9236	39.5508	56.5214	39.5508	54.875	39.5508	56.4342	39.5508	54.8298	39.5508	56.3105	39.5508	54.8072	39.5508	56.1541	39.5508	54.8236	39.5508	55.9708	39.5508	54.8884	39.5508	55.7686	39.5508	55.003	39.5508	55.5576	39.5508	55.1608	39.5508	55.3503
41.0156	56.7842	41.0156	57.091	41.0156	56.4909	41.0156	57.3942	41.0156	56.2279	41.0156	57.6792	41.0156	56.0088	41.0156	57.9345	41.0156	55.8408	41.0156	58.1523	41.0156	55.7229	41.0156	58.3278	41.0156	55.6467	41.0156	58.4585	41.0156	55.6	41.0156	58.5432	41.0156	55.5717	41.0156	58.582	41.0156	55.5563	41.0156	58.5752	41.0156	55.5565	41.0156	58.5235	41.0156	55.5822	41.0156	58.4276	41.0156	55.6476	41.0156	58.2885	41.0156	55.7649	41.0156	58.1075	41.0156	55.9395	41.0156	57.8873	41.0156	56.1681	41.0156	57.6319	41.0156	56.4394	41.0156	57.3482	41.0156	56.7377	41.0156	57.0458
42.4805	60.2297	42.4805	60.3396	42.4805	60.122	42.4805	60.4439	42.4805	60.0237	42.4805	60.5354	42.4805	59.94	42.4805	60.6082	42.4805	59.8729	42.4805	60.658	42.4805	59.8205	42.4805	60.6822	42.4805	59.778	42.4805	60.6792	42.4805	59.7392	42.4805	60.6491	42.4805	59.6981	42.4805	60.5928	42.4805	59.6512	42.4805	60.5125	42.4805	59.5982	42.4805	60.4113	42.4805	59.5421	42.4805	60.2932	42.4805	59.4887	42.4805	60.1633	42.4805	59.4447	42.4805	60.0272	42.4805	59.417	42.4805	59.8914	42.4805	59.411	42.4805	59.7625	42.4805	59.4305	42.4805	59.6468	42.4805	59.4772	42.4805	59.5502
43.9453	59.5219	43.9453	59.5929	43.9453	59.4536	43.9453	59.6603	43.9453	59.3927	43.9453	59.7172	43.9453	59.3411	43.9453	59.7568	43.9453	59.2974	43.9453	59.7729	43.9453	59.2563	43.9453	59.7607	43.9453	59.2101	43.9453	59.7163	43.9453	59.1498	43.9453	59.6374	43.9453	59.0677	43.9453	59.5232	43.9453	58.9589	43.9453	59.3748	43.9453	58.823	43.9453	59.1952	43.9453	58.6647	43.9453	58.9901	43.9453	58.4926	43.9453	58.7683	43.9453	58.3188	43.9453	58.5419	43.9453	58.157	43.9453	58.3264	43.9453	58.022	43.9453	58.1388	43.9453	57.9282	43.9453	57.9959	43.9453	57.8883	43.9453	57.9103
45.4102	60.6794	45.4102	60.7472	45.4102	60.6193	45.4102	60.8183	45.4102	60.5692	45.4102	60.8869	45.4102	60.5288	45.4102	60.9468	45.4102	60.4947	45.4102	60.9923	45.4102	60.4608	45.4102	61.0182	45.4102	60.4191	45.4102	61.0202	45.4102	60.3611	45.4102	60.9953	45.4102	60.2799	45.4102	60.9411	45.4102	60.1722	45.4102	60.8566	45.4102	60.0393	45.4102	60.7416	45.4102	59.8886	45.4102	60.5976	45.4102	59.7322	45.4102	60.428	45.4102	59.586	45.4102	60.2388	45.4102	59.4674	45.4102	60.0391	45.4102	59.3925	45.4102	59.8414	45.4102	59.373	45.4102	59.6608	45.4102	59.4143	45.4102	59.5135
46.875	61.0906	46.875	61.1395	46.875	61.0614	46.875	61.2042	46.875	61.0527	46.875	61.279	46.875	61.0619	46.875	61.3571	46.875	61.0829	46.875	61.4318	46.875	61.107	46.875	61.4972	46.875	61.1245	46.875	61.5483	46.875	61.1262	46.875	61.5811	46.875	61.1057	46.875	61.5926	46.875	61.0602	46.875	61.5807	46.875	60.9924	46.875	61.5444	46.875	60.9094	46.875	61.4837	46.875	60.8225	46.875	61.4002	46.875	60.7451	46.875	61.297	46.875	60.6899	46.875	61.1792	46.875	60.6672	46.875	61.0541	46.875	60.6824	46.875	60.9313	46.875	60.7355	46.875	60.8215
48.3398	62.224	48.3398	62.2873	48.3398	62.1782	48.3398	62.3623	48.3398	62.1535	48.3398	62.4429	48.3398	62.1506	48.3398	62.523	48.3398	62.167	48.3398	62.5975	48.3398	62.1964	48.3398	62.6622	48.3398	62.2306	48.3398	62.7138	48.3398	62.2605	48.3398	62.7501	48.3398	62.2786	48.3398	62.7695	48.3398	62.2802	48.3398	62.7709	48.3398	62.2646	48.3398	62.754	48.3398	62.2351	48.3398	62.7187	48.3398	62.1985	48.3398	62.6661	48.3398	62.1639	48.3398	62.598	48.3398	62.1404	48.3398	62.5179	48.3398	62.1359	48.3398	62.4309	48.3398	62.1551	48.3398	62.3435	48.3398	62.1987	48.3398	62.2636
51.2695	64.7289	51.2695	64.7729	51.2695	64.6865	51.2695	64.8153	51.2695	64.6486	51.2695	64.8523	51.2695	64.6165	51.2695	64.8803	51.2695	64.5903	51.2695	64.896	51.2695	64.5683	51.2695	64.8967	51.2695	64.5472	51.2695	64.8805	51.2695	64.5228	51.2695	64.8468	51.2695	64.4908	51.2695	64.7956	51.2695	64.4478	51.2695	64.7284	51.2695	64.3929	51.2695	64.6475	51.2695	64.3278	51.2695	64.5562	51.2695	64.2568	51.2695	64.4589	51.2695	64.1863	51.2695	64.3605	51.2695	64.1237	51.2695	64.2667	51.2695	64.076	51.2695	64.1832	51.2695	64.0489	51.2695	64.1156	51.2695	64.0462	51.2695	64.0689
52.7344	65.5332	52.7344	65.5372	52.7344	65.5269	52.7344	65.537	52.7344	65.5201	52.7344	65.5309	52.7344	65.5139	52.7344	65.5169	52.7344	65.5086	52.7344	65.4935	52.7344	65.5031	52.7344	65.4591	52.7344	65.4947	52.7344	65.4129	52.7344	65.4796	52.7344	65.3548	52.7344	65.4536	52.7344	65.2855	52.7344	65.4132	52.7344	65.207	52.7344	65.3568	52.7344	65.1224	52.7344	65.285	52.7344	65.0357	52.7344	65.2008	52.7344	64.9523	52.7344	65.1093	52.7344	64.8776	52.7344	65.0169	52.7344	64.8174	52.7344	64.9303	52.7344	64.7768	52.7344	64.8563	52.7344	64.7596	52.7344	64.8006	52.7344	64.7676
54.1992	66.6306	54.1992	66.6229	54.1992	66.628	54.1992	66.6059	54.1992	66.6131	54.1992	66.5797	54.1992	66.5832	54.1992	66.5434	54.1992	66.5352	54.1992	66.4951	54.1992	66.4652	54.1992	66.4326	54.1992	66.3693	54.1992	66.3532	54.1992	66.2439	54.1992	66.2548	54.1992	66.0874	54.1992	66.1356	54.1992	65.9004	54.1992	65.995	54.1992	65.6881	54.1992	65.8338	54.1992	65.4595	54.1992	65.6543	54.1992	65.228	54.1992	65.4614	54.1992	65.0101	54.1992	65.2621	54.1992	64.8229	54.1992	65.0664	54.1992	64.6825	54.1992	64.8868	54.1992	64.6011	54.1992	64.7374	54.1992	64.5848	54.1992	64.6327
55.6641	67.1975	55.6641	67.1947	55.6641	67.2034	55.6641	67.1955	55.6641	67.2105	55.6641	67.199	55.6641	67.2157	55.6641	67.2031	55.6641	67.2143	55.6641	67.205	55.6641	67.2013	55.6641	67.2017	55.6641	67.1711	55.6641	67.1902	55.6641	67.1191	55.6641	67.1678	55.6641	67.0427	55.6641	67.1323	55.6641	66.942	55.6641	67.0822	55.6641	66.8216	55.6641	67.0167	55.6641	66.6896	55.6641	66.9361	55.6641	66.5574	55.6641	66.842	55.6641	66.4378	55.6641	66.7374	55.6641	66.3432	55.6641	66.627	55.6641	66.2829	55.6641	66.5175	55.6641	66.2621	55.6641	66.4171	55.6641	66.2809	55.6641	66.3352
58.5938	67.7099	58.5938	67.7167	58.5938	67.739	58.5938	67.7569	58.5938	67.8025	58.5938	67.8256	58.5938	67.8947	58.5938	67.9164	58.5938	68.0068	58.5938	68.023	58.5938	68.1277	58.5938	68.1395	58.5938	68.2467	58.5938	68.2607	58.5938	68.3548	58.5938	68.3823	58.5938	68.446	58.5938	68.5004	58.5938	68.5182	58.5938	68.6113	58.5938	68.5725	58.5938	68.7118	58.5938	68.6133	58.5938	68.7984	58.5938	68.6468	58.5938	68.8679	58.5938	68.6795	58.5938	68.9176	58.5938	68.7164	58.5938	68.9455	58.5938	68.7599	58.5938	68.9512	58.5938	68.8088	58.5938	68.9359	58.5938	68.8587	58.5938	68.9032
60.0586	68.474	60.0586	68.478	60.0586	68.491	60.0586	68.5	60.0586	68.5304	60.0586	68.5367	60.0586	68.5918	60.0586	68.5849	60.0586	68.6723	60.0586	68.6418	60.0586	68.7671	60.0586	68.7056	60.0586	68.8696	60.0586	68.7748	60.0586	68.9733	60.0586	68.849	60.0586	69.0727	60.0586	68.9276	60.0586	69.164	60.0586	69.0105	60.0586	69.2459	60.0586	69.0968	60.0586	69.3188	60.0586	69.1851	60.0586	69.3842	60.0586	69.273	60.0586	69.4429	60.0586	69.3572	60.0586	69.4945	60.0586	69.4334	60.0586	69.5368	60.0586	69.4971	60.0586	69.5662	60.0586	69.5443	60.0586	69.5788	60.0586	69.5719
62.9883	70.1673	62.9883	70.1809	62.9883	70.1644	62.9883	70.2016	62.9883	70.1748	62.9883	70.2257	62.9883	70.2001	62.9883	70.2499	62.9883	70.2399	62.9883	70.2713	62.9883	70.2916	62.9883	70.2882	62.9883	70.3511	62.9883	70.2997	62.9883	70.413	62.9883	70.306	62.9883	70.4715	62.9883	70.3084	62.9883	70.5217	62.9883	70.3085	62.9883	70.56	62.9883	70.3086	62.9883	70.5845	62.9883	70.3112	62.9883	70.5949	62.9883	70.3185	62.9883	70.5922	62.9883	70.3319	62.9883	70.5778	62.9883	70.3523	62.9883	70.5539	62.9883	70.3797	62.9883	70.5228	62.9883	70.4127	62.9883	70.487	62.9883	70.4493
64.4531	71.084	64.4531	71.0795	64.4531	71.0922	64.4531	71.0765	64.4531	71.1056	64.4531	71.0727	64.4531	71.1249	64.4531	71.066	64.4531	71.1496	64.4531	71.0547	64.4531	71.1779	64.4531	71.038	64.4531	71.2068	64.4531	71.0159	64.4531	71.2325	64.4531	70.9893	64.4531	71.2513	64.4531	70.9596	64.4531	71.2599	64.4531	70.9293	64.4531	71.2566	64.4531	70.901	64.4531	71.2408	64.4531	70.8775	64.4531	71.2134	64.4531	70.8615	64.4531	71.1765	64.4531	70.8554	64.4531	71.1324	64.4531	70.8603	64.4531	71.084	64.4531	70.877	64.4531	71.0341	64.4531	70.9046	64.4531	70.9857	64.4531	70.9416
67.3828	72.4334	67.3828	72.4133	67.3828	72.4486	67.3828	72.3879	67.3828	72.4594	67.3828	72.3566	67.3828	72.4657	67.3828	72.3191	67.3828	72.467	67.3828	72.2753	67.3828	72.4622	67.3828	72.2255	67.3828	72.4497	67.3828	72.1703	67.3828	72.4276	67.3828	72.1109	67.3828	72.3942	67.3828	72.0488	67.3828	72.3488	67.3828	71.9859	67.3828	72.2916	67.3828	71.9246	67.3828	72.2241	67.3828	71.8675	67.3828	72.1491	67.3828	71.8173	67.3828	72.0703	67.3828	71.7771	67.3828	71.9918	67.3828	71.7495	67.3828	71.918	67.3828	71.737	67.3828	71.8529	67.3828	71.741	67.3828	71.8001	67.3828	71.7622
