"SPL Horizontal"
"On-Axis"		"10°"		"-10°"		"20°"		"-20°"		"30°"		"-30°"		"40°"		"-40°"		"50°"		"-50°"		"60°"		"-60°"		"70°"		"-70°"		"80°"		"-80°"		"90°"		"-90°"		"100°"		"-100°"		"110°"		"-110°"		"120°"		"-120°"		"130°"		"-130°"		"140°"		"-140°"		"150°"		"-150°"		"160°"		"-160°"		"170°"		"-170°"		"180°"
"Frequency [Hz]"	"Sound Pessure Level [dB]  / [2.83V 1m] "	"Frequency [Hz]"	"Sound Pessure Level [dB]  / [2.83V 1m] "	"Frequency [Hz]"	"Sound Pessure Level [dB]  / [2.83V 1m] "	"Frequency [Hz]"	"Sound Pessure Level [dB]  / [2.83V 1m] "	"Frequency [Hz]"	"Sound Pessure Level [dB]  / [2.83V 1m] "	"Frequency [Hz]"	"Sound Pessure Level [dB]  / [2.83V 1m] "	"Frequency [Hz]"	"Sound Pessure Level [dB]  / [2.83V 1m] "	"Frequency [Hz]"	"Sound Pessure Level [dB]  / [2.83V 1m] "	"Frequency [Hz]"	"Sound Pessure Level [dB]  / [2.83V 1m] "	"Frequency [Hz]"	"Sound Pessure Level [dB]  / [2.83V 1m] "	"Frequency [Hz]"	"Sound Pessure Level [dB]  / [2.83V 1m] "	"Frequency [Hz]"	"Sound Pessure Level [dB]  / [2.83V 1m] "	"Frequency [Hz]"	"Sound Pessure Level [dB]  / [2.83V 1m] "	"Frequency [Hz]"	"Sound Pessure Level [dB]  / [2.83V 1m] "	"Frequency [Hz]"	"Sound Pessure Level [dB]  / [2.83V 1m] "	"Frequency [Hz]"	"Sound Pessure Level [dB]  / [2.83V 1m] "	"Frequency [Hz]"	"Sound Pessure Level [dB]  / [2.83V 1m] "	"Frequency [Hz]"	"Sound Pessure Level [dB]  / [2.83V 1m] "	"Frequency [Hz]"	"Sound Pessure Level [dB]  / [2.83V 1m] "	"Frequency [Hz]"	"Sound Pessure Level [dB]  / [2.83V 1m] "	"Frequency [Hz]"	"Sound Pessure Level [dB]  / [2.83V 1m] "	"Frequency [Hz]"	"Sound Pessure Level [dB]  / [2.83V 1m] "	"Frequency [Hz]"	"Sound Pessure Level [dB]  / [2.83V 1m] "	"Frequency [Hz]"	"Sound Pessure Level [dB]  / [2.83V 1m] "	"Frequency [Hz]"	"Sound Pessure Level [dB]  / [2.83V 1m] "	"Frequency [Hz]"	"Sound Pessure Level [dB]  / [2.83V 1m] "	"Frequency [Hz]"	"Sound Pessure Level [dB]  / [2.83V 1m] "	"Frequency [Hz]"	"Sound Pessure Level [dB]  / [2.83V 1m] "	"Frequency [Hz]"	"Sound Pessure Level [dB]  / [2.83V 1m] "	"Frequency [Hz]"	"Sound Pessure Level [dB]  / [2.83V 1m] "	"Frequency [Hz]"	"Sound Pessure Level [dB]  / [2.83V 1m] "	"Frequency [Hz]"	"Sound Pessure Level [dB]  / [2.83V 1m] "	"Frequency [Hz]"	"Sound Pessure Level [dB]  / [2.83V 1m] "	"Frequency [Hz]"	"Sound Pessure Level [dB]  / [2.83V 1m] "	"Frequency [Hz]"	"Sound Pessure Level [dB]  / [2.83V 1m] "	"Frequency [Hz]"	"Sound Pessure Level [dB]  / [2.83V 1m] "
20.5078	59.7016	20.5078	59.5009	20.5078	59.7338	20.5078	59.1256	20.5078	59.5995	20.5078	58.5644	20.5078	59.2967	20.5078	57.7997	20.5078	58.8193	20.5078	56.8048	20.5078	58.1559	20.5078	55.543	20.5078	57.2891	20.5078	53.9709	20.5078	56.1951	20.5078	52.0628	20.5078	54.8465	20.5078	49.9242	20.5078	53.2276	20.5078	48.1334	20.5078	51.3914	20.5078	47.836	20.5078	49.6263	20.5078	49.0948	20.5078	48.6538	20.5078	50.7528	20.5078	49.0544	20.5078	52.1606	20.5078	50.3245	20.5078	53.1761	20.5078	51.688	20.5078	53.8038	20.5078	52.7973	20.5078	54.0692	20.5078	53.5665	20.5078	53.9889
21.9727	55.0164	21.9727	54.9916	21.9727	54.9273	21.9727	54.8959	21.9727	54.7295	21.9727	54.8283	21.9727	54.4824	21.9727	54.9462	21.9727	54.3192	21.9727	55.4177	21.9727	54.446	21.9727	56.3147	21.9727	55.0539	21.9727	57.552	21.9727	56.1634	21.9727	58.9583	21.9727	57.6034	21.9727	60.3796	21.9727	59.1561	21.9727	61.7181	21.9727	60.6659	21.9727	62.923	21.9727	62.0495	21.9727	63.9716	21.9727	63.2685	21.9727	64.8551	21.9727	64.3077	21.9727	65.5714	21.9727	65.1622	21.9727	66.1203	21.9727	65.8321	21.9727	66.5017	21.9727	66.3192	21.9727	66.7147	21.9727	66.6265	21.9727	66.7572
23.4375	62.0983	23.4375	62.1248	23.4375	62.0531	23.4375	62.1442	23.4375	61.9912	23.4375	62.1814	23.4375	61.9297	23.4375	62.2723	23.4375	61.9015	23.4375	62.4584	23.4375	61.9534	23.4375	62.776	23.4375	62.1377	23.4375	63.2433	23.4375	62.4959	23.4375	63.8505	23.4375	63.0397	23.4375	64.5624	23.4375	63.7436	23.4375	65.3292	23.4375	64.5526	23.4375	66.0996	23.4375	65.4018	23.4375	66.8293	23.4375	66.2314	23.4375	67.4841	23.4375	66.9943	23.4375	68.0389	23.4375	67.6571	23.4375	68.4763	23.4375	68.1979	23.4375	68.7843	23.4375	68.6032	23.4375	68.9549	23.4375	68.8658	23.4375	68.983
24.9023	66.396	24.9023	66.3848	24.9023	66.4213	24.9023	66.3938	24.9023	66.461	24.9023	66.435	24.9023	66.5215	24.9023	66.5252	24.9023	66.6148	24.9023	66.6835	24.9023	66.757	24.9023	66.9267	24.9023	66.9657	24.9023	67.2645	24.9023	67.255	24.9023	67.6944	24.9023	67.6311	24.9023	68.2012	24.9023	68.0882	24.9023	68.7589	24.9023	68.6084	24.9023	69.3357	24.9023	69.164	24.9023	69.8989	24.9023	69.723	24.9023	70.419	24.9023	70.2539	24.9023	70.8714	24.9023	70.7285	24.9023	71.2367	24.9023	71.1241	24.9023	71.5011	24.9023	71.4239	24.9023	71.6553	24.9023	71.6161	24.9023	71.6941
26.3672	69.5057	26.3672	69.5623	26.3672	69.4764	26.3672	69.6478	26.3672	69.4781	26.3672	69.7684	26.3672	69.5186	26.3672	69.934	26.3672	69.6094	26.3672	70.1556	26.3672	69.7634	26.3672	70.4426	26.3672	69.992	26.3672	70.7989	26.3672	70.3021	26.3672	71.2203	26.3672	70.6929	26.3672	71.6935	26.3672	71.1543	26.3672	72.1979	26.3672	71.6672	26.3672	72.7085	26.3672	72.2066	26.3672	73.1995	26.3672	72.7446	26.3672	73.6473	26.3672	73.2538	26.3672	74.032	26.3672	73.71	26.3672	74.3377	26.3672	74.0932	26.3672	74.5524	26.3672	74.3886	26.3672	74.6681	26.3672	74.5861	26.3672	74.6798
27.832	73.6206	27.832	73.6249	27.832	73.6395	27.832	73.6544	27.832	73.6814	27.832	73.7127	27.832	73.7478	27.832	73.8044	27.832	73.8413	27.832	73.9343	27.832	73.9658	27.832	74.1063	27.832	74.125	27.832	74.322	27.832	74.3218	27.832	74.5795	27.832	74.5569	27.832	74.873	27.832	74.8283	27.832	75.193	27.832	75.1297	27.832	75.5264	27.832	75.4509	27.832	75.8582	27.832	75.7781	27.832	76.1722	27.832	76.0949	27.832	76.4526	27.832	76.3843	27.832	76.685	27.832	76.6303	27.832	76.8572	27.832	76.8193	27.832	76.9603	27.832	76.9409	27.832	76.9887
29.2969	75.8214	29.2969	75.8418	29.2969	75.8232	29.2969	75.8851	29.2969	75.8476	29.2969	75.9529	29.2969	75.8957	29.2969	76.0475	29.2969	75.9698	29.2969	76.1708	29.2969	76.0725	29.2969	76.3247	29.2969	76.2066	29.2969	76.5097	29.2969	76.374	29.2969	76.7243	29.2969	76.575	29.2969	76.9648	29.2969	76.8072	29.2969	77.2246	29.2969	77.0652	29.2969	77.4945	29.2969	77.3401	29.2969	77.763	29.2969	77.6201	29.2969	78.0172	29.2969	77.8913	29.2969	78.2443	29.2969	78.1396	29.2969	78.4319	29.2969	78.3514	29.2969	78.5699	29.2969	78.5154	29.2969	78.6503	29.2969	78.6228	29.2969	78.6685
30.7617	77.8834	30.7617	77.8972	30.7617	77.8883	30.7617	77.9304	30.7617	77.9116	30.7617	77.984	30.7617	77.9532	30.7617	78.0588	30.7617	78.0136	30.7617	78.1556	30.7617	78.0935	30.7617	78.2745	30.7617	78.1937	30.7617	78.4151	30.7617	78.3147	30.7617	78.5757	30.7617	78.4565	30.7617	78.7531	30.7617	78.618	30.7617	78.9429	30.7617	78.7967	30.7617	79.1387	30.7617	78.9881	30.7617	79.333	30.7617	79.1857	30.7617	79.5168	30.7617	79.381	30.7617	79.681	30.7617	79.5639	30.7617	79.8163	30.7617	79.724	30.7617	79.9148	30.7617	79.8513	30.7617	79.9701	30.7617	79.9378	30.7617	79.9781
32.2266	78.1537	32.2266	78.1758	32.2266	78.1498	32.2266	78.216	32.2266	78.1644	32.2266	78.2747	32.2266	78.1982	32.2266	78.3522	32.2266	78.252	32.2266	78.4492	32.2266	78.327	32.2266	78.5659	32.2266	78.4241	32.2266	78.7021	32.2266	78.5439	32.2266	78.8568	32.2266	78.6864	32.2266	79.0276	32.2266	78.8503	32.2266	79.2107	32.2266	79.0323	32.2266	79.4003	32.2266	79.2275	32.2266	79.5892	32.2266	79.4286	32.2266	79.7689	32.2266	79.6263	32.2266	79.9298	32.2266	79.8103	32.2266	80.063	32.2266	79.9703	32.2266	80.16	32.2266	80.0969	32.2266	80.2145	32.2266	80.1826	32.2266	80.2224
33.6914	79.2404	33.6914	79.2535	33.6914	79.2447	33.6914	79.2841	33.6914	79.2665	33.6914	79.332	33.6914	79.3058	33.6914	79.3971	33.6914	79.3626	33.6914	79.4793	33.6914	79.437	33.6914	79.5781	33.6914	79.5286	33.6914	79.6926	33.6914	79.637	33.6914	79.8214	33.6914	79.761	33.6914	79.962	33.6914	79.8989	33.6914	80.1114	33.6914	80.0478	33.6914	80.265	33.6914	80.2036	33.6914	80.4175	33.6914	80.3609	33.6914	80.5625	33.6914	80.5129	33.6914	80.693	33.6914	80.6524	33.6914	80.8023	33.6914	80.7715	33.6914	80.8842	33.6914	80.8637	33.6914	80.9335	33.6914	80.9232	33.6914	80.9469
35.1562	79.6047	35.1562	79.6159	35.1562	79.6091	35.1562	79.6426	35.1562	79.629	35.1562	79.6848	35.1562	79.6643	35.1562	79.7422	35.1562	79.7148	35.1562	79.8143	35.1562	79.7802	35.1562	79.9005	35.1562	79.86	35.1562	79.9997	35.1562	79.9536	35.1562	80.1102	35.1562	80.0599	35.1562	80.23	35.1562	80.1772	35.1562	80.3562	35.1562	80.303	35.1562	80.4852	35.1562	80.4339	35.1562	80.6124	35.1562	80.5654	35.1562	80.7328	35.1562	80.692	35.1562	80.8409	35.1562	80.8076	35.1562	80.9312	35.1562	80.9062	35.1562	80.9988	35.1562	80.9823	35.1562	81.0395	35.1562	81.0313	35.1562	81.0507
36.6211	79.9996	36.6211	80.0071	36.6211	80.0057	36.6211	80.0283	36.6211	80.0251	36.6211	80.0629	36.6211	80.0575	36.6211	80.1106	36.6211	80.1025	36.6211	80.1709	36.6211	80.1595	36.6211	80.2428	36.6211	80.2277	36.6211	80.3254	36.6211	80.3063	36.6211	80.417	36.6211	80.3942	36.6211	80.5157	36.6211	80.4899	36.6211	80.619	36.6211	80.5914	36.6211	80.7239	36.6211	80.696	36.6211	80.8269	36.6211	80.8003	36.6211	80.9238	36.6211	80.9001	36.6211	81.0106	36.6211	80.9909	36.6211	81.083	36.6211	81.068	36.6211	81.1372	36.6211	81.1272	36.6211	81.1701	36.6211	81.1652	36.6211	81.1797
38.0859	80.3246	38.0859	80.33	38.0859	80.3316	38.0859	80.3477	38.0859	80.3505	38.0859	80.3775	38.0859	80.3811	38.0859	80.4191	38.0859	80.4227	38.0859	80.4717	38.0859	80.4746	38.0859	80.5344	38.0859	80.536	38.0859	80.6062	38.0859	80.6059	38.0859	80.6854	38.0859	80.6831	38.0859	80.7704	38.0859	80.7661	38.0859	80.8587	38.0859	80.8531	38.0859	80.9479	38.0859	80.9416	38.0859	81.0349	38.0859	81.0287	38.0859	81.1165	38.0859	81.1111	38.0859	81.1894	38.0859	81.1852	38.0859	81.2502	38.0859	81.2474	38.0859	81.296	38.0859	81.2944	38.0859	81.3245	38.0859	81.3238	38.0859	81.3339
39.5508	81.7368	39.5508	81.7435	39.5508	81.7437	39.5508	81.764	39.5508	81.7641	39.5508	81.7981	39.5508	81.7976	39.5508	81.8454	39.5508	81.8437	39.5508	81.9054	39.5508	81.9018	39.5508	81.9772	39.5508	81.971	39.5508	82.0594	39.5508	82.0502	39.5508	82.1504	39.5508	82.138	39.5508	82.2481	39.5508	82.2326	39.5508	82.3497	39.5508	82.3319	39.5508	82.4524	39.5508	82.4332	39.5508	82.5526	39.5508	82.5333	39.5508	82.6466	39.5508	82.6285	39.5508	82.7304	39.5508	82.7149	39.5508	82.8003	39.5508	82.7882	39.5508	82.8527	39.5508	82.8445	39.5508	82.8846	39.5508	82.8805	39.5508	82.8941
41.0156	81.9649	41.0156	81.9651	41.0156	81.9771	41.0156	81.9777	41.0156	82.0018	41.0156	82.0023	41.0156	82.0387	41.0156	82.0385	41.0156	82.0876	41.0156	82.0856	41.0156	82.1476	41.0156	82.1429	41.0156	82.2177	41.0156	82.2092	41.0156	82.2965	41.0156	82.2833	41.0156	82.3823	41.0156	82.3639	41.0156	82.4728	41.0156	82.4494	41.0156	82.5656	41.0156	82.5382	41.0156	82.6577	41.0156	82.6281	41.0156	82.7458	41.0156	82.7163	41.0156	82.8266	41.0156	82.7996	41.0156	82.8964	41.0156	82.8739	41.0156	82.9517	41.0156	82.9352	41.0156	82.9896	41.0156	82.9795	41.0156	83.0075	41.0156	83.0042
42.4805	82.19	42.4805	82.2064	42.4805	82.1839	42.4805	82.233	42.4805	82.1885	42.4805	82.2692	42.4805	82.2037	42.4805	82.3143	42.4805	82.2292	42.4805	82.3674	42.4805	82.2647	42.4805	82.4276	42.4805	82.3093	42.4805	82.4934	42.4805	82.3623	42.4805	82.5634	42.4805	82.4223	42.4805	82.6358	42.4805	82.4881	42.4805	82.7088	42.4805	82.558	42.4805	82.7802	42.4805	82.6304	42.4805	82.8476	42.4805	82.7035	42.4805	82.9084	42.4805	82.7752	42.4805	82.9598	42.4805	82.8433	42.4805	82.999	42.4805	82.9051	42.4805	83.0235	42.4805	82.9575	42.4805	83.0317	42.4805	82.9976	42.4805	83.0229
43.9453	82.4203	43.9453	82.4403	43.9453	82.4101	43.9453	82.47	43.9453	82.41	43.9453	82.5088	43.9453	82.4196	43.9453	82.5559	43.9453	82.4387	43.9453	82.6103	43.9453	82.4668	43.9453	82.6706	43.9453	82.5032	43.9453	82.7353	43.9453	82.5472	43.9453	82.8026	43.9453	82.5979	43.9453	82.8705	43.9453	82.6543	43.9453	82.937	43.9453	82.7153	43.9453	82.9999	43.9453	82.7796	43.9453	83.0572	43.9453	82.846	43.9453	83.1065	43.9453	82.9127	43.9453	83.1458	43.9453	82.9777	43.9453	83.1729	43.9453	83.0384	43.9453	83.1861	43.9453	83.0921	43.9453	83.1842	43.9453	83.1359	43.9453	83.1672
45.4102	82.7697	45.4102	82.7899	45.4102	82.759	45.4102	82.8192	45.4102	82.7578	45.4102	82.8571	45.4102	82.7662	45.4102	82.9028	45.4102	82.7839	45.4102	82.9551	45.4102	82.8104	45.4102	83.0128	45.4102	82.8453	45.4102	83.0741	45.4102	82.8877	45.4102	83.1376	45.4102	82.9367	45.4102	83.2012	45.4102	82.9914	45.4102	83.2633	45.4102	83.0506	45.4102	83.3219	45.4102	83.1128	45.4102	83.3749	45.4102	83.1765	45.4102	83.4205	45.4102	83.2399	45.4102	83.4566	45.4102	83.3012	45.4102	83.4814	45.4102	83.3578	45.4102	83.4935	45.4102	83.4075	45.4102	83.4919	45.4102	83.4478	45.4102	83.4764
46.875	83.0476	46.875	83.0696	46.875	83.0348	46.875	83.1005	46.875	83.0316	46.875	83.1396	46.875	83.0378	46.875	83.1859	46.875	83.0535	46.875	83.2383	46.875	83.0781	46.875	83.2953	46.875	83.111	46.875	83.3554	46.875	83.1514	46.875	83.4167	46.875	83.1981	46.875	83.4773	46.875	83.2499	46.875	83.5353	46.875	83.3055	46.875	83.5886	46.875	83.3634	46.875	83.6356	46.875	83.4223	46.875	83.6743	46.875	83.4806	46.875	83.7034	46.875	83.5368	46.875	83.7215	46.875	83.5891	46.875	83.7277	46.875	83.6356	46.875	83.7216	46.875	83.6743	46.875	83.7035
48.3398	83.3737	48.3398	83.3919	48.3398	83.3629	48.3398	83.4172	48.3398	83.36	48.3398	83.4488	48.3398	83.3649	48.3398	83.4861	48.3398	83.3776	48.3398	83.5278	48.3398	83.3976	48.3398	83.5729	48.3398	83.4244	48.3398	83.6199	48.3398	83.4571	48.3398	83.6675	48.3398	83.4947	48.3398	83.7142	48.3398	83.5362	48.3398	83.7584	48.3398	83.5802	48.3398	83.7987	48.3398	83.6255	48.3398	83.8339	48.3398	83.671	48.3398	83.8626	48.3398	83.7155	48.3398	83.8839	48.3398	83.7579	48.3398	83.8968	48.3398	83.797	48.3398	83.9009	48.3398	83.8316	48.3398	83.8959	48.3398	83.8604	48.3398	83.8822
51.2695	83.9879	51.2695	84.0035	51.2695	83.9772	51.2695	84.0237	51.2695	83.9717	51.2695	84.0478	51.2695	83.9713	51.2695	84.0751	51.2695	83.976	51.2695	84.1047	51.2695	83.9852	51.2695	84.1356	51.2695	83.9985	51.2695	84.1664	51.2695	84.0151	51.2695	84.1961	51.2695	84.0343	51.2695	84.2232	51.2695	84.0553	51.2695	84.2467	51.2695	84.0773	51.2695	84.2657	51.2695	84.0998	51.2695	84.2794	51.2695	84.1224	51.2695	84.2874	51.2695	84.1448	51.2695	84.2897	51.2695	84.1671	51.2695	84.2865	51.2695	84.189	51.2695	84.2782	51.2695	84.2104	51.2695	84.2656	51.2695	84.2308	51.2695	84.2495
52.7344	84.3157	52.7344	84.3345	52.7344	84.3003	52.7344	84.3563	52.7344	84.2887	52.7344	84.3805	52.7344	84.2811	52.7344	84.4064	52.7344	84.2775	52.7344	84.433	52.7344	84.2776	52.7344	84.4593	52.7344	84.2813	52.7344	84.4843	52.7344	84.2879	52.7344	84.5067	52.7344	84.2971	52.7344	84.5256	52.7344	84.3083	52.7344	84.5399	52.7344	84.3211	52.7344	84.5489	52.7344	84.335	52.7344	84.5521	52.7344	84.35	52.7344	84.5495	52.7344	84.3662	52.7344	84.5412	52.7344	84.3838	52.7344	84.528	52.7344	84.4029	52.7344	84.5106	52.7344	84.4237	52.7344	84.4902	52.7344	84.4456	52.7344	84.4682
54.1992	84.6559	54.1992	84.6781	54.1992	84.6361	54.1992	84.7023	54.1992	84.6193	54.1992	84.728	54.1992	84.6056	54.1992	84.7542	54.1992	84.5952	54.1992	84.7803	54.1992	84.588	54.1992	84.8051	54.1992	84.5838	54.1992	84.8276	54.1992	84.5825	54.1992	84.8466	54.1992	84.5838	54.1992	84.861	54.1992	84.5873	54.1992	84.8698	54.1992	84.5928	54.1992	84.8723	54.1992	84.6003	54.1992	84.868	54.1992	84.61	54.1992	84.857	54.1992	84.6221	54.1992	84.8397	54.1992	84.6373	54.1992	84.8172	54.1992	84.656	54.1992	84.7906	54.1992	84.6784	54.1992	84.7618	54.1992	84.7042	54.1992	84.7324
55.6641	84.9596	55.6641	84.979	55.6641	84.9426	55.6641	85.0006	55.6641	84.9284	55.6641	85.0238	55.6641	84.9171	55.6641	85.0481	55.6641	84.9087	55.6641	85.0728	55.6641	84.9031	55.6641	85.0968	55.6641	84.9002	55.6641	85.119	55.6641	84.8998	55.6641	85.1381	55.6641	84.9014	55.6641	85.153	55.6641	84.9048	55.6641	85.1625	55.6641	84.9097	55.6641	85.1656	55.6641	84.9162	55.6641	85.1619	55.6641	84.9245	55.6641	85.1515	55.6641	84.9349	55.6641	85.135	55.6641	84.9481	55.6641	85.1134	55.6641	84.9645	55.6641	85.0882	55.6641	84.9845	55.6641	85.061	55.6641	85.0078	55.6641	85.0337
58.5938	85.5173	58.5938	85.522	58.5938	85.5142	58.5938	85.5286	58.5938	85.5125	58.5938	85.5373	58.5938	85.5116	58.5938	85.5478	58.5938	85.5111	58.5938	85.5599	58.5938	85.5106	58.5938	85.5727	58.5938	85.5095	58.5938	85.585	58.5938	85.5074	58.5938	85.5956	58.5938	85.5039	58.5938	85.6032	58.5938	85.4986	58.5938	85.6063	58.5938	85.4916	58.5938	85.604	58.5938	85.4832	58.5938	85.5959	58.5938	85.4742	58.5938	85.5822	58.5938	85.4657	58.5938	85.5638	58.5938	85.4593	58.5938	85.5424	58.5938	85.4566	58.5938	85.5198	58.5938	85.4587	58.5938	85.4984	58.5938	85.4666	58.5938	85.4801
60.0586	85.7343	60.0586	85.7352	60.0586	85.7347	60.0586	85.7377	60.0586	85.7359	60.0586	85.7418	60.0586	85.7378	60.0586	85.7477	60.0586	85.7398	60.0586	85.7551	60.0586	85.7416	60.0586	85.7634	60.0586	85.7427	60.0586	85.7718	60.0586	85.7424	60.0586	85.7793	60.0586	85.7405	60.0586	85.7847	60.0586	85.7363	60.0586	85.7869	60.0586	85.7299	60.0586	85.785	60.0586	85.7213	60.0586	85.7787	60.0586	85.7112	60.0586	85.7679	60.0586	85.7007	60.0586	85.7535	60.0586	85.6912	60.0586	85.7368	60.0586	85.6843	60.0586	85.7196	60.0586	85.6815	60.0586	85.7039	60.0586	85.6838	60.0586	85.6915
62.9883	86.2511	62.9883	86.2461	62.9883	86.2556	62.9883	86.2409	62.9883	86.2594	62.9883	86.2357	62.9883	86.2622	62.9883	86.2307	62.9883	86.2638	62.9883	86.226	62.9883	86.2639	62.9883	86.2215	62.9883	86.2623	62.9883	86.2169	62.9883	86.2584	62.9883	86.2117	62.9883	86.2518	62.9883	86.2052	62.9883	86.2423	62.9883	86.197	62.9883	86.2295	62.9883	86.1866	62.9883	86.2137	62.9883	86.174	62.9883	86.1952	62.9883	86.1598	62.9883	86.1753	62.9883	86.1448	62.9883	86.1553	62.9883	86.1307	62.9883	86.137	62.9883	86.1189	62.9883	86.1224	62.9883	86.1113	62.9883	86.1127	62.9883	86.1089
64.4531	86.7446	64.4531	86.7362	64.4531	86.7532	64.4531	86.7284	64.4531	86.7616	64.4531	86.7215	64.4531	86.7693	64.4531	86.7155	64.4531	86.7758	64.4531	86.7104	64.4531	86.7806	64.4531	86.7061	64.4531	86.783	64.4531	86.702	64.4531	86.7823	64.4531	86.6976	64.4531	86.778	64.4531	86.6921	64.4531	86.7696	64.4531	86.6849	64.4531	86.7568	64.4531	86.6754	64.4531	86.7397	64.4531	86.6636	64.4531	86.7187	64.4531	86.65	64.4531	86.6952	64.4531	86.6356	64.4531	86.6709	64.4531	86.6222	64.4531	86.6478	64.4531	86.6116	64.4531	86.6282	64.4531	86.6059	64.4531	86.614	64.4531	86.6065
67.3828	87.157	67.3828	87.1424	67.3828	87.1688	67.3828	87.1257	67.3828	87.1774	67.3828	87.1073	67.3828	87.1823	67.3828	87.0879	67.3828	87.1831	67.3828	87.0678	67.3828	87.1795	67.3828	87.0474	67.3828	87.1711	67.3828	87.0267	67.3828	87.1577	67.3828	87.0058	67.3828	87.1391	67.3828	86.9844	67.3828	87.1153	67.3828	86.9624	67.3828	87.0865	67.3828	86.9397	67.3828	87.0534	67.3828	86.9165	67.3828	87.0168	67.3828	86.8936	67.3828	86.9785	67.3828	86.8723	67.3828	86.9405	67.3828	86.8544	67.3828	86.9054	67.3828	86.8419	67.3828	86.8757	67.3828	86.8367	67.3828	86.8536	67.3828	86.8404
68.8477	87.3901	68.8477	87.3707	68.8477	87.406	68.8477	87.3481	68.8477	87.4177	68.8477	87.3231	68.8477	87.4249	68.8477	87.2964	68.8477	87.4272	68.8477	87.2686	68.8477	87.4243	68.8477	87.2403	68.8477	87.4158	68.8477	87.212	68.8477	87.4017	68.8477	87.184	68.8477	87.3815	68.8477	87.1565	68.8477	87.3553	68.8477	87.1296	68.8477	87.3232	68.8477	87.1033	68.8477	87.2857	68.8477	87.0783	68.8477	87.2439	68.8477	87.0551	68.8477	87.1994	68.8477	87.0352	68.8477	87.1546	68.8477	87.0203	68.8477	87.112	68.8477	87.0123	68.8477	87.0744	68.8477	87.0131	68.8477	87.0444	68.8477	87.0237
