"SPL Vertical"
"On-Axis"		"10°"		"-10°"		"20°"		"-20°"		"30°"		"-30°"		"40°"		"-40°"		"50°"		"-50°"		"60°"		"-60°"		"70°"		"-70°"		"80°"		"-80°"		"90°"		"-90°"		"100°"		"-100°"		"110°"		"-110°"		"120°"		"-120°"		"130°"		"-130°"		"140°"		"-140°"		"150°"		"-150°"		"160°"		"-160°"		"170°"		"-170°"		"180°"
"Frequency / Hz"	"Sound Pressure Level / dB (re 20 µPa/V)  [2.83  V @ 1. m]"	"Frequency / Hz"	"Sound Pressure Level / dB (re 20 µPa/V)  [2.83  V @ 1. m]"	"Frequency / Hz"	"Sound Pressure Level / dB (re 20 µPa/V)  [2.83  V @ 1. m]"	"Frequency / Hz"	"Sound Pressure Level / dB (re 20 µPa/V)  [2.83  V @ 1. m]"	"Frequency / Hz"	"Sound Pressure Level / dB (re 20 µPa/V)  [2.83  V @ 1. m]"	"Frequency / Hz"	"Sound Pressure Level / dB (re 20 µPa/V)  [2.83  V @ 1. m]"	"Frequency / Hz"	"Sound Pressure Level / dB (re 20 µPa/V)  [2.83  V @ 1. m]"	"Frequency / Hz"	"Sound Pressure Level / dB (re 20 µPa/V)  [2.83  V @ 1. m]"	"Frequency / Hz"	"Sound Pressure Level / dB (re 20 µPa/V)  [2.83  V @ 1. m]"	"Frequency / Hz"	"Sound Pressure Level / dB (re 20 µPa/V)  [2.83  V @ 1. m]"	"Frequency / Hz"	"Sound Pressure Level / dB (re 20 µPa/V)  [2.83  V @ 1. m]"	"Frequency / Hz"	"Sound Pressure Level / dB (re 20 µPa/V)  [2.83  V @ 1. m]"	"Frequency / Hz"	"Sound Pressure Level / dB (re 20 µPa/V)  [2.83  V @ 1. m]"	"Frequency / Hz"	"Sound Pressure Level / dB (re 20 µPa/V)  [2.83  V @ 1. m]"	"Frequency / Hz"	"Sound Pressure Level / dB (re 20 µPa/V)  [2.83  V @ 1. m]"	"Frequency / Hz"	"Sound Pressure Level / dB (re 20 µPa/V)  [2.83  V @ 1. m]"	"Frequency / Hz"	"Sound Pressure Level / dB (re 20 µPa/V)  [2.83  V @ 1. m]"	"Frequency / Hz"	"Sound Pressure Level / dB (re 20 µPa/V)  [2.83  V @ 1. m]"	"Frequency / Hz"	"Sound Pressure Level / dB (re 20 µPa/V)  [2.83  V @ 1. m]"	"Frequency / Hz"	"Sound Pressure Level / dB (re 20 µPa/V)  [2.83  V @ 1. m]"	"Frequency / Hz"	"Sound Pressure Level / dB (re 20 µPa/V)  [2.83  V @ 1. m]"	"Frequency / Hz"	"Sound Pressure Level / dB (re 20 µPa/V)  [2.83  V @ 1. m]"	"Frequency / Hz"	"Sound Pressure Level / dB (re 20 µPa/V)  [2.83  V @ 1. m]"	"Frequency / Hz"	"Sound Pressure Level / dB (re 20 µPa/V)  [2.83  V @ 1. m]"	"Frequency / Hz"	"Sound Pressure Level / dB (re 20 µPa/V)  [2.83  V @ 1. m]"	"Frequency / Hz"	"Sound Pressure Level / dB (re 20 µPa/V)  [2.83  V @ 1. m]"	"Frequency / Hz"	"Sound Pressure Level / dB (re 20 µPa/V)  [2.83  V @ 1. m]"	"Frequency / Hz"	"Sound Pressure Level / dB (re 20 µPa/V)  [2.83  V @ 1. m]"	"Frequency / Hz"	"Sound Pressure Level / dB (re 20 µPa/V)  [2.83  V @ 1. m]"	"Frequency / Hz"	"Sound Pressure Level / dB (re 20 µPa/V)  [2.83  V @ 1. m]"	"Frequency / Hz"	"Sound Pressure Level / dB (re 20 µPa/V)  [2.83  V @ 1. m]"	"Frequency / Hz"	"Sound Pressure Level / dB (re 20 µPa/V)  [2.83  V @ 1. m]"	"Frequency / Hz"	"Sound Pressure Level / dB (re 20 µPa/V)  [2.83  V @ 1. m]"	"Frequency / Hz"	"Sound Pressure Level / dB (re 20 µPa/V)  [2.83  V @ 1. m]"	"Frequency / Hz"	"Sound Pressure Level / dB (re 20 µPa/V)  [2.83  V @ 1. m]"	"Frequency / Hz"	"Sound Pressure Level / dB (re 20 µPa/V)  [2.83  V @ 1. m]"
20.5078	54.0797	20.5078	53.7646	20.5078	54.3096	20.5078	53.3713	20.5078	54.4459	20.5078	52.9054	20.5078	54.479	20.5078	52.3711	20.5078	54.3985	20.5078	51.7717	20.5078	54.1941	20.5078	51.1103	20.5078	53.8561	20.5078	50.3906	20.5078	53.3767	20.5078	49.6186	20.5078	52.7507	20.5078	48.8036	20.5078	51.9779	20.5078	47.9608	20.5078	51.0654	20.5078	47.1127	20.5078	50.0315	20.5078	46.2906	20.5078	48.9094	20.5078	45.533	20.5078	47.7521	20.5078	44.8815	20.5078	46.632	20.5078	44.3737	20.5078	45.6329	20.5078	44.0381	20.5078	44.8311	20.5078	43.8957	20.5078	44.2727	20.5078	43.9664
21.9727	54.7545	21.9727	54.4979	21.9727	54.9253	21.9727	54.159	21.9727	55.0046	21.9727	53.7394	21.9727	54.9847	21.9727	53.2391	21.9727	54.8556	21.9727	52.6568	21.9727	54.606	21.9727	51.9903	21.9727	54.2235	21.9727	51.2367	21.9727	53.6961	21.9727	50.3931	21.9727	53.013	21.9727	49.4577	21.9727	52.166	21.9727	48.4313	21.9727	51.152	21.9727	47.3203	21.9727	49.9749	21.9727	46.1413	21.9727	48.6504	21.9727	44.9285	21.9727	47.2114	21.9727	43.7419	21.9727	45.7162	21.9727	42.6749	21.9727	44.2572	21.9727	41.852	21.9727	42.9624	21.9727	41.4067	21.9727	41.9803	21.9727	41.4405
23.4375	56.4161	23.4375	56.1262	23.4375	56.6166	23.4375	55.7526	23.4375	56.7202	23.4375	55.2995	23.4375	56.7184	23.4375	54.7698	23.4375	56.6016	23.4375	54.1654	23.4375	56.3595	23.4375	53.4876	23.4375	55.9819	23.4375	52.7375	23.4375	55.4595	23.4375	51.9179	23.4375	54.785	23.4375	51.0337	23.4375	53.9549	23.4375	50.095	23.4375	52.9717	23.4375	49.1198	23.4375	51.8477	23.4375	48.1366	23.4375	50.6103	23.4375	47.1875	23.4375	49.308	23.4375	46.3265	23.4375	48.0164	23.4375	45.6135	23.4375	46.8357	23.4375	45.1038	23.4375	45.872	23.4375	44.8425	23.4375	45.2054	23.4375	44.8662
24.9023	57.469	24.9023	57.1965	24.9023	57.6499	24.9023	56.8375	24.9023	57.7326	24.9023	56.3953	24.9023	57.7093	24.9023	55.8718	24.9023	57.5707	24.9023	55.2671	24.9023	57.3065	24.9023	54.5803	24.9023	56.9063	24.9023	53.8091	24.9023	56.3592	24.9023	52.9512	24.9023	55.6558	24.9023	52.0045	24.9023	54.7889	24.9023	50.9693	24.9023	53.7556	24.9023	49.8514	24.9023	52.5603	24.9023	48.6665	24.9023	51.2189	24.9023	47.4481	24.9023	49.7653	24.9023	46.2572	24.9023	48.2601	24.9023	45.1894	24.9023	46.7975	24.9023	44.3724	24.9023	45.5053	24.9023	43.939	24.9023	44.5267	24.9023	43.9838
26.3672	57.1446	26.3672	56.8348	26.3672	57.3575	26.3672	56.4322	26.3672	57.4669	26.3672	55.9389	26.3672	57.4642	26.3672	55.3548	26.3672	57.3387	26.3672	54.678	26.3672	57.0781	26.3672	53.9047	26.3672	56.6688	26.3672	53.0297	26.3672	56.0971	26.3672	52.0468	26.3672	55.3495	26.3672	50.9494	26.3672	54.4141	26.3672	49.7321	26.3672	53.2817	26.3672	48.3934	26.3672	51.9482	26.3672	46.9418	26.3672	50.4178	26.3672	45.4058	26.3672	48.7101	26.3672	43.8513	26.3672	46.8699	26.3672	42.4054	26.3672	44.9849	26.3672	41.2707	26.3672	43.2041	26.3672	40.6919	26.3672	41.7439	26.3672	40.8488
27.832	58.3794	27.832	58.0699	27.832	58.5799	27.832	57.6548	27.832	58.6654	27.832	57.1352	27.832	58.6274	27.832	56.5097	27.832	58.4554	27.832	55.7741	27.832	58.1366	27.832	54.9217	27.832	57.6563	27.832	53.9425	27.832	56.9983	27.832	52.8234	27.832	56.1451	27.832	51.5484	27.832	55.0785	27.832	50.099	27.832	53.7804	27.832	48.4574	27.832	52.2346	27.832	46.6152	27.832	50.4318	27.832	44.5945	27.832	48.3793	27.832	42.4959	27.832	46.1255	27.832	40.5698	27.832	43.8	27.832	39.2078	27.832	41.6508	27.832	38.6876	27.832	39.9829	27.832	38.9789
29.2969	58.4433	29.2969	58.114	29.2969	58.6565	29.2969	57.6721	29.2969	58.7474	29.2969	57.1188	29.2969	58.7073	29.2969	56.4532	29.2969	58.5254	29.2969	55.6724	29.2969	58.1887	29.2969	54.7733	29.2969	57.6831	29.2969	53.754	29.2969	56.9946	29.2969	52.6187	29.2969	56.1118	29.2969	51.3869	29.2969	55.0313	29.2969	50.1095	29.2969	53.767	29.2969	48.8919	29.2969	52.3698	29.2969	47.9025	29.2969	50.954	29.2969	47.3159	29.2969	49.7114	29.2969	47.1863	29.2969	48.8465	29.2969	47.3904	29.2969	48.4255	29.2969	47.7273	29.2969	48.3135	29.2969	48.0353	29.2969	48.2999	29.2969	48.2295
30.7617	59.934	30.7617	59.6126	30.7617	60.1477	30.7617	59.1884	30.7617	60.2472	30.7617	58.6649	30.7617	60.2247	30.7617	58.0447	30.7617	60.0713	30.7617	57.3301	30.7617	59.7776	30.7617	56.5252	30.7617	59.3347	30.7617	55.6376	30.7617	58.736	30.7617	54.6836	30.7617	57.9798	30.7617	53.6945	30.7617	57.0741	30.7617	52.7241	30.7617	56.0443	30.7617	51.8531	30.7617	54.9431	30.7617	51.1763	30.7617	53.8589	30.7617	50.7664	30.7617	52.9076	30.7617	50.6298	30.7617	52.1922	30.7617	50.7	30.7617	51.7435	30.7617	50.8765	30.7617	51.5017	30.7617	51.0713	30.7617	51.3622	30.7617	51.2342
32.2266	59.6409	32.2266	59.3579	32.2266	59.8211	32.2266	58.9799	32.2266	59.8912	32.2266	58.5165	32.2266	59.8444	32.2266	57.9801	32.2266	59.6745	32.2266	57.3889	32.2266	59.3783	32.2266	56.77	32.2266	58.9579	32.2266	56.1626	32.2266	58.4264	32.2266	55.619	32.2266	57.8149	32.2266	55.1989	32.2266	57.1801	32.2266	54.9543	32.2266	56.6059	32.2266	54.9087	32.2266	56.1853	32.2266	55.0452	32.2266	55.9809	32.2266	55.3127	32.2266	55.9878	32.2266	55.6458	32.2266	56.1376	32.2266	55.983	32.2266	56.3385	32.2266	56.2756	32.2266	56.5124	32.2266	56.4894	32.2266	56.6091	32.2266	56.6033
33.6914	61.5544	33.6914	61.3286	33.6914	61.7082	33.6914	61.0408	33.6914	61.7819	33.6914	60.704	33.6914	61.7699	33.6914	60.3341	33.6914	61.6698	33.6914	59.9517	33.6914	61.4841	33.6914	59.5816	33.6914	61.2228	33.6914	59.2526	33.6914	60.9061	33.6914	58.9941	33.6914	60.5666	33.6914	58.8312	33.6914	60.248	33.6914	58.7782	33.6914	59.9973	33.6914	58.8341	33.6914	59.85	33.6914	58.9822	33.6914	59.8156	33.6914	59.195	33.6914	59.8738	33.6914	59.4397	33.6914	59.9838	33.6914	59.6846	33.6914	60.1006	33.6914	59.9026	33.6914	60.1865	33.6914	60.0723	33.6914	60.2169	33.6914	60.1794
35.1562	64.1942	35.1562	64.0096	35.1562	64.3294	35.1562	63.7853	35.1562	64.4081	35.1562	63.5337	35.1562	64.4261	35.1562	63.2697	35.1562	64.383	35.1562	63.0107	35.1562	64.2836	35.1562	62.7755	35.1562	64.1386	35.1562	62.5835	35.1562	63.9655	35.1562	62.4516	35.1562	63.7883	35.1562	62.3915	35.1562	63.6342	35.1562	62.4077	35.1562	63.5272	35.1562	62.4953	35.1562	63.4813	35.1562	62.6418	35.1562	63.495	35.1562	62.8287	35.1562	63.5526	35.1562	63.0352	35.1562	63.6291	35.1562	63.2405	35.1562	63.6986	35.1562	63.4259	35.1562	63.7391	35.1562	63.5767	35.1562	63.7359	35.1562	63.6819
36.6211	66.1557	36.6211	66.0191	36.6211	66.2658	36.6211	65.8647	36.6211	66.3437	36.6211	65.7028	36.6211	66.3862	36.6211	65.5452	36.6211	66.394	36.6211	65.4047	36.6211	66.3718	36.6211	65.2937	36.6211	66.3289	36.6211	65.2231	36.6211	66.2784	36.6211	65.2012	36.6211	66.2361	36.6211	65.2318	36.6211	66.2166	36.6211	65.3138	36.6211	66.2302	36.6211	65.4414	36.6211	66.279	36.6211	65.6044	36.6211	66.3559	36.6211	65.7898	36.6211	66.447	36.6211	65.9834	36.6211	66.5347	36.6211	66.1707	36.6211	66.6022	36.6211	66.3387	36.6211	66.6362	36.6211	66.4761	36.6211	66.628	36.6211	66.5742
38.0859	68.802	38.0859	68.6844	38.0859	68.9055	38.0859	68.5589	38.0859	68.9903	38.0859	68.4328	38.0859	69.0539	38.0859	68.3143	38.0859	69.096	38.0859	68.212	38.0859	69.1192	38.0859	68.1339	38.0859	69.1285	38.0859	68.0872	38.0859	69.1314	38.0859	68.0769	38.0859	69.1359	38.0859	68.1057	38.0859	69.1496	38.0859	68.1731	38.0859	69.1769	38.0859	68.2754	38.0859	69.2179	38.0859	68.4064	38.0859	69.2679	38.0859	68.5573	38.0859	69.3184	38.0859	68.7181	38.0859	69.3591	38.0859	68.8785	38.0859	69.3801	38.0859	69.0284	38.0859	69.3736	38.0859	69.1588	38.0859	69.3348	38.0859	69.2626
39.5508	70.641	39.5508	70.537	39.5508	70.7362	39.5508	70.4292	39.5508	70.819	39.5508	70.3232	39.5508	70.8871	39.5508	70.2252	39.5508	70.9401	39.5508	70.1419	39.5508	70.9794	39.5508	70.0791	39.5508	71.0083	39.5508	70.0423	39.5508	71.0315	39.5508	70.0355	39.5508	71.0541	39.5508	70.0607	39.5508	71.0804	39.5508	70.1177	39.5508	71.1125	39.5508	70.2043	39.5508	71.1498	39.5508	70.3156	39.5508	71.1881	39.5508	70.4453	39.5508	71.2212	39.5508	70.5856	39.5508	71.2417	39.5508	70.7283	39.5508	71.2428	39.5508	70.8649	39.5508	71.2193	39.5508	70.9878	39.5508	71.1686	39.5508	71.0906
41.0156	73.3377	41.0156	73.2408	41.0156	73.4353	41.0156	73.1493	41.0156	73.5296	41.0156	73.068	41.0156	73.6177	41.0156	73.0017	41.0156	73.6976	41.0156	72.9547	41.0156	73.7688	41.0156	72.9304	41.0156	73.8319	41.0156	72.9312	41.0156	73.8883	41.0156	72.9579	41.0156	73.9398	41.0156	73.0101	41.0156	73.988	41.0156	73.0858	41.0156	74.0333	41.0156	73.1819	41.0156	74.0749	41.0156	73.294	41.0156	74.1103	41.0156	73.417	41.0156	74.1359	41.0156	73.545	41.0156	74.1475	41.0156	73.6723	41.0156	74.1413	41.0156	73.7929	41.0156	74.1141	41.0156	73.9013	41.0156	74.0647	41.0156	73.9931
42.4805	74.891	42.4805	74.8061	42.4805	74.9746	42.4805	74.7233	42.4805	75.0539	42.4805	74.6463	42.4805	75.1266	42.4805	74.5791	42.4805	75.1914	42.4805	74.5251	42.4805	75.2478	42.4805	74.4875	42.4805	75.2961	42.4805	74.4687	42.4805	75.3375	42.4805	74.4703	42.4805	75.3732	42.4805	74.4929	42.4805	75.4041	42.4805	74.5362	42.4805	75.4305	42.4805	74.5986	42.4805	75.4516	42.4805	74.6775	42.4805	75.4656	42.4805	74.7694	42.4805	75.4697	42.4805	74.87	42.4805	75.4611	42.4805	74.9747	42.4805	75.4372	42.4805	75.0785	42.4805	75.3964	42.4805	75.1764	42.4805	75.3384	42.4805	75.2642
43.9453	76.3933	43.9453	76.3139	43.9453	76.4739	43.9453	76.2386	43.9453	76.5533	43.9453	76.1702	43.9453	76.6292	43.9453	76.1114	43.9453	76.6998	43.9453	76.0649	43.9453	76.7639	43.9453	76.0328	43.9453	76.8207	43.9453	76.017	43.9453	76.8699	43.9453	76.0186	43.9453	76.9116	43.9453	76.0383	43.9453	76.9455	43.9453	76.0759	43.9453	76.9715	43.9453	76.1302	43.9453	76.9886	43.9453	76.1995	43.9453	76.9954	43.9453	76.2812	43.9453	76.9903	43.9453	76.3721	43.9453	76.9716	43.9453	76.4683	43.9453	76.9379	43.9453	76.5657	43.9453	76.8888	43.9453	76.6602	43.9453	76.8249	43.9453	76.7478
45.4102	77.6656	45.4102	77.5863	45.4102	77.7468	45.4102	77.5115	45.4102	77.8276	45.4102	77.4435	45.4102	77.9057	45.4102	77.3846	45.4102	77.979	45.4102	77.3371	45.4102	78.0459	45.4102	77.3028	45.4102	78.105	45.4102	77.2833	45.4102	78.1553	45.4102	77.2796	45.4102	78.1959	45.4102	77.2925	45.4102	78.2263	45.4102	77.3219	45.4102	78.2459	45.4102	77.3671	45.4102	78.2539	45.4102	77.4268	45.4102	78.2495	45.4102	77.499	45.4102	78.2319	45.4102	77.5812	45.4102	78.2004	45.4102	77.6702	45.4102	78.1548	45.4102	77.7627	45.4102	78.0958	45.4102	77.8549	45.4102	78.0246	45.4102	77.9433
46.875	78.7564	46.875	78.6776	46.875	78.8373	46.875	78.6033	46.875	78.9181	46.875	78.5357	46.875	78.9965	46.875	78.477	46.875	79.0703	46.875	78.429	46.875	79.1377	46.875	78.3935	46.875	79.1969	46.875	78.3721	46.875	79.2465	46.875	78.3657	46.875	79.2856	46.875	78.3751	46.875	79.3133	46.875	78.4002	46.875	79.329	46.875	78.4407	46.875	79.332	46.875	78.4955	46.875	79.3219	46.875	78.5627	46.875	79.2982	46.875	78.6402	46.875	79.261	46.875	78.7252	46.875	79.2105	46.875	78.8144	46.875	79.1478	46.875	78.9046	46.875	79.0743	46.875	78.9923
48.3398	79.5095	48.3398	79.4281	48.3398	79.5926	48.3398	79.351	48.3398	79.6751	48.3398	79.2803	48.3398	79.7547	48.3398	79.2183	48.3398	79.8291	48.3398	79.1671	48.3398	79.8965	48.3398	79.1283	48.3398	79.9549	48.3398	79.1034	48.3398	80.003	48.3398	79.0935	48.3398	80.0395	48.3398	79.0992	48.3398	80.0637	48.3398	79.1206	48.3398	80.0747	48.3398	79.1573	48.3398	80.0722	48.3398	79.2083	48.3398	80.0559	48.3398	79.2721	48.3398	80.0257	48.3398	79.3467	48.3398	79.9821	48.3398	79.4294	48.3398	79.9258	48.3398	79.5174	48.3398	79.858	48.3398	79.6074	48.3398	79.7807	48.3398	79.6962
51.2695	80.4206	51.2695	80.3388	51.2695	80.5039	51.2695	80.2608	51.2695	80.5862	51.2695	80.1889	51.2695	80.6651	51.2695	80.1251	51.2695	80.7383	51.2695	80.0713	51.2695	80.8036	51.2695	80.0289	51.2695	80.859	51.2695	79.9992	51.2695	80.9027	51.2695	79.983	51.2695	80.9333	51.2695	79.9807	51.2695	80.9496	51.2695	79.9927	51.2695	80.9508	51.2695	80.0186	51.2695	80.9368	51.2695	80.058	51.2695	80.9077	51.2695	80.1099	51.2695	80.8645	51.2695	80.173	51.2695	80.8083	51.2695	80.2455	51.2695	80.7411	51.2695	80.3252	51.2695	80.665	51.2695	80.4098	51.2695	80.5826	51.2695	80.4966
52.7344	80.7604	52.7344	80.6812	52.7344	80.8406	52.7344	80.6052	52.7344	80.9197	52.7344	80.5343	52.7344	80.9955	52.7344	80.4704	52.7344	81.0656	52.7344	80.4152	52.7344	81.1279	52.7344	80.3702	52.7344	81.1802	52.7344	80.3365	52.7344	81.2204	52.7344	80.3152	52.7344	81.247	52.7344	80.3069	52.7344	81.2587	52.7344	80.3122	52.7344	81.2547	52.7344	80.331	52.7344	81.2351	52.7344	80.3632	52.7344	81.2003	52.7344	80.408	52.7344	81.1516	52.7344	80.4645	52.7344	81.0907	52.7344	80.5312	52.7344	81.0196	52.7344	80.6062	52.7344	80.941	52.7344	80.6873	52.7344	80.8575	52.7344	80.772
54.1992	80.9125	54.1992	80.8316	54.1992	80.9957	54.1992	80.755	54.1992	81.0787	54.1992	80.6846	54.1992	81.1592	54.1992	80.622	54.1992	81.2346	54.1992	80.5686	54.1992	81.3021	54.1992	80.5258	54.1992	81.3592	54.1992	80.4945	54.1992	81.4033	54.1992	80.4756	54.1992	81.4327	54.1992	80.4696	54.1992	81.4459	54.1992	80.477	54.1992	81.4424	54.1992	80.4977	54.1992	81.4221	54.1992	80.5314	54.1992	81.386	54.1992	80.5776	54.1992	81.3355	54.1992	80.6353	54.1992	81.2726	54.1992	80.7031	54.1992	81.1997	54.1992	80.7792	54.1992	81.1193	54.1992	80.8615	54.1992	81.0343	54.1992	80.9474
55.6641	81.1347	55.6641	81.0435	55.6641	81.2252	55.6641	80.9542	55.6641	81.3122	55.6641	80.8691	55.6641	81.3929	55.6641	80.7902	55.6641	81.4642	55.6641	80.7194	55.6641	81.5235	55.6641	80.6581	55.6641	81.568	55.6641	80.6078	55.6641	81.5958	55.6641	80.5696	55.6641	81.6054	55.6641	80.5443	55.6641	81.5962	55.6641	80.5327	55.6641	81.5684	55.6641	80.5352	55.6641	81.523	55.6641	80.5522	55.6641	81.4619	55.6641	80.5835	55.6641	81.3875	55.6641	80.6287	55.6641	81.3029	55.6641	80.6869	55.6641	81.2111	55.6641	80.7571	55.6641	81.1154	55.6641	80.8373	55.6641	81.0192	55.6641	80.9256
58.5938	81.3173	58.5938	81.2303	58.5938	81.4039	58.5938	81.145	58.5938	81.4877	58.5938	81.0632	58.5938	81.5663	58.5938	80.9869	58.5938	81.6368	58.5938	80.9175	58.5938	81.6967	58.5938	80.8565	58.5938	81.7431	58.5938	80.8054	58.5938	81.7738	58.5938	80.7653	58.5938	81.7867	58.5938	80.7372	58.5938	81.7807	58.5938	80.7221	58.5938	81.7556	58.5938	80.7208	58.5938	81.712	58.5938	80.7339	58.5938	81.6515	58.5938	80.7617	58.5938	81.5765	58.5938	80.8042	58.5938	81.4901	58.5938	80.8607	58.5938	81.3956	58.5938	80.9303	58.5938	81.2969	58.5938	81.0113	58.5938	81.1976	58.5938	81.1013
60.0586	81.5023	60.0586	81.4116	60.0586	81.5927	60.0586	81.3229	60.0586	81.6799	60.0586	81.2383	60.0586	81.761	60.0586	81.1595	60.0586	81.833	60.0586	81.088	60.0586	81.8927	60.0586	81.0249	60.0586	81.9372	60.0586	80.9714	60.0586	81.9641	60.0586	80.9283	60.0586	81.9715	60.0586	80.8966	60.0586	81.9584	60.0586	80.877	60.0586	81.9247	60.0586	80.8704	60.0586	81.8715	60.0586	80.8774	60.0586	81.8009	60.0586	80.8985	60.0586	81.7159	60.0586	80.9342	60.0586	81.6201	60.0586	80.9843	60.0586	81.5177	60.0586	81.0484	60.0586	81.4132	60.0586	81.1254	60.0586	81.3105	60.0586	81.2136
62.9883	81.8845	62.9883	81.7945	62.9883	81.9723	62.9883	81.705	62.9883	82.0553	62.9883	81.6179	62.9883	82.1307	62.9883	81.5355	62.9883	82.1958	62.9883	81.4595	62.9883	82.2478	62.9883	81.3915	62.9883	82.2845	62.9883	81.3328	62.9883	82.3037	62.9883	81.2848	62.9883	82.3042	62.9883	81.2486	62.9883	82.2854	62.9883	81.225	62.9883	82.2474	62.9883	81.2149	62.9883	82.1915	62.9883	81.2189	62.9883	82.1194	62.9883	81.2375	62.9883	82.0342	62.9883	81.2707	62.9883	81.9392	62.9883	81.3185	62.9883	81.8383	62.9883	81.3802	62.9883	81.7357	62.9883	81.4548	62.9883	81.6353	62.9883	81.5406
64.4531	82.0068	64.4531	81.9141	64.4531	82.0969	64.4531	81.8212	64.4531	82.1815	64.4531	81.7304	64.4531	82.2579	64.4531	81.6441	64.4531	82.3234	64.4531	81.564	64.4531	82.3753	64.4531	81.4919	64.4531	82.4112	64.4531	81.4293	64.4531	82.4291	64.4531	81.3776	64.4531	82.4276	64.4531	81.3379	64.4531	82.406	64.4531	81.3111	64.4531	82.3646	64.4531	81.2982	64.4531	82.3045	64.4531	81.2997	64.4531	82.2277	64.4531	81.3163	64.4531	82.1373	64.4531	81.3482	64.4531	82.037	64.4531	81.3953	64.4531	81.9309	64.4531	81.4572	64.4531	81.8234	64.4531	81.533	64.4531	81.7189	64.4531	81.621
67.3828	82.2779	67.3828	82.1831	67.3828	82.3709	67.3828	82.0891	67.3828	82.4592	67.3828	81.9982	67.3828	82.5401	67.3828	81.9127	67.3828	82.6105	67.3828	81.8342	67.3828	82.6678	67.3828	81.7646	67.3828	82.7093	67.3828	81.7053	67.3828	82.7331	67.3828	81.6576	67.3828	82.7377	67.3828	81.6225	67.3828	82.7223	67.3828	81.6009	67.3828	82.6869	67.3828	81.5936	67.3828	82.6324	67.3828	81.6011	67.3828	82.5606	67.3828	81.6239	67.3828	82.4741	67.3828	81.6619	67.3828	82.3763	67.3828	81.7151	67.3828	82.2713	67.3828	81.7827	67.3828	82.1634	67.3828	81.8636	67.3828	82.0569	67.3828	81.9559
