"SPL Vertical"
"On-Axis"		"10°"		"-10°"		"20°"		"-20°"		"30°"		"-30°"		"40°"		"-40°"		"50°"		"-50°"		"60°"		"-60°"		"70°"		"-70°"		"80°"		"-80°"		"90°"		"-90°"		"100°"		"-100°"		"110°"		"-110°"		"120°"		"-120°"		"130°"		"-130°"		"140°"		"-140°"		"150°"		"-150°"		"160°"		"-160°"		"170°"		"-170°"		"180°"
"Frequency [Hz]"	"Sound Pessure Level [dB]  / [2.83V 1m] "	"Frequency [Hz]"	"Sound Pessure Level [dB]  / [2.83V 1m] "	"Frequency [Hz]"	"Sound Pessure Level [dB]  / [2.83V 1m] "	"Frequency [Hz]"	"Sound Pessure Level [dB]  / [2.83V 1m] "	"Frequency [Hz]"	"Sound Pessure Level [dB]  / [2.83V 1m] "	"Frequency [Hz]"	"Sound Pessure Level [dB]  / [2.83V 1m] "	"Frequency [Hz]"	"Sound Pessure Level [dB]  / [2.83V 1m] "	"Frequency [Hz]"	"Sound Pessure Level [dB]  / [2.83V 1m] "	"Frequency [Hz]"	"Sound Pessure Level [dB]  / [2.83V 1m] "	"Frequency [Hz]"	"Sound Pessure Level [dB]  / [2.83V 1m] "	"Frequency [Hz]"	"Sound Pessure Level [dB]  / [2.83V 1m] "	"Frequency [Hz]"	"Sound Pessure Level [dB]  / [2.83V 1m] "	"Frequency [Hz]"	"Sound Pessure Level [dB]  / [2.83V 1m] "	"Frequency [Hz]"	"Sound Pessure Level [dB]  / [2.83V 1m] "	"Frequency [Hz]"	"Sound Pessure Level [dB]  / [2.83V 1m] "	"Frequency [Hz]"	"Sound Pessure Level [dB]  / [2.83V 1m] "	"Frequency [Hz]"	"Sound Pessure Level [dB]  / [2.83V 1m] "	"Frequency [Hz]"	"Sound Pessure Level [dB]  / [2.83V 1m] "	"Frequency [Hz]"	"Sound Pessure Level [dB]  / [2.83V 1m] "	"Frequency [Hz]"	"Sound Pessure Level [dB]  / [2.83V 1m] "	"Frequency [Hz]"	"Sound Pessure Level [dB]  / [2.83V 1m] "	"Frequency [Hz]"	"Sound Pessure Level [dB]  / [2.83V 1m] "	"Frequency [Hz]"	"Sound Pessure Level [dB]  / [2.83V 1m] "	"Frequency [Hz]"	"Sound Pessure Level [dB]  / [2.83V 1m] "	"Frequency [Hz]"	"Sound Pessure Level [dB]  / [2.83V 1m] "	"Frequency [Hz]"	"Sound Pessure Level [dB]  / [2.83V 1m] "	"Frequency [Hz]"	"Sound Pessure Level [dB]  / [2.83V 1m] "	"Frequency [Hz]"	"Sound Pessure Level [dB]  / [2.83V 1m] "	"Frequency [Hz]"	"Sound Pessure Level [dB]  / [2.83V 1m] "	"Frequency [Hz]"	"Sound Pessure Level [dB]  / [2.83V 1m] "	"Frequency [Hz]"	"Sound Pessure Level [dB]  / [2.83V 1m] "	"Frequency [Hz]"	"Sound Pessure Level [dB]  / [2.83V 1m] "	"Frequency [Hz]"	"Sound Pessure Level [dB]  / [2.83V 1m] "	"Frequency [Hz]"	"Sound Pessure Level [dB]  / [2.83V 1m] "	"Frequency [Hz]"	"Sound Pessure Level [dB]  / [2.83V 1m] "	"Frequency [Hz]"	"Sound Pessure Level [dB]  / [2.83V 1m] "
20.5078	54.7538	20.5078	54.3629	20.5078	54.9993	20.5078	53.8286	20.5078	55.0908	20.5078	53.1455	20.5078	55.013	20.5078	52.2991	20.5078	54.7437	20.5078	51.2628	20.5078	54.2521	20.5078	49.9921	20.5078	53.4956	20.5078	48.413	20.5078	52.4137	20.5078	46.3964	20.5078	50.9134	20.5078	43.6916	20.5078	48.8376	20.5078	39.708	20.5078	45.8762	20.5078	32.3754	20.5078	41.2415	20.5078	25.2767	20.5078	31.4021	20.5078	36.4776	20.5078	31.5423	20.5078	41.0455	20.5078	39.9846	20.5078	43.6685	20.5078	43.5173	20.5078	45.2857	20.5078	45.381	20.5078	46.209	20.5078	46.3034	20.5078	46.5473
21.9727	51.9639	21.9727	51.3026	21.9727	52.3898	21.9727	50.3879	21.9727	52.579	21.9727	49.1781	21.9727	52.5117	21.9727	47.6004	21.9727	52.148	21.9727	45.5475	21.9727	51.4204	21.9727	42.9481	21.9727	50.2192	21.9727	40.3729	21.9727	48.3648	21.9727	40.4151	21.9727	45.5889	21.9727	43.2834	21.9727	42.0325	21.9727	46.2902	21.9727	41.7323	21.9727	48.7433	21.9727	45.685	21.9727	50.6947	21.9727	49.1295	21.9727	52.2498	21.9727	51.5816	21.9727	53.4814	21.9727	53.3044	21.9727	54.4324	21.9727	54.4868	21.9727	55.1244	21.9727	55.2436	21.9727	55.5635	21.9727	55.647	21.9727	55.7436
23.4375	53.2252	23.4375	52.6457	23.4375	53.5997	23.4375	51.8606	23.4375	53.7605	23.4375	50.8644	23.4375	53.6875	23.4375	49.6611	23.4375	53.3476	23.4375	48.3056	23.4375	52.6938	23.4375	47.011	23.4375	51.6693	23.4375	46.2882	23.4375	50.2369	23.4375	46.6924	23.4375	48.5266	23.4375	48.0864	23.4375	47.2974	23.4375	49.8485	23.4375	47.8833	23.4375	51.5651	23.4375	49.9576	23.4375	53.0873	23.4375	52.1812	23.4375	54.382	23.4375	54.0244	23.4375	55.4498	23.4375	55.4256	23.4375	56.2965	23.4375	56.4273	23.4375	56.9247	23.4375	57.0809	23.4375	57.3306	23.4375	57.4291	23.4375	57.5043
24.9023	54.5546	24.9023	53.9295	24.9023	54.9578	24.9023	53.0773	24.9023	55.1328	24.9023	51.9842	24.9023	55.0595	24.9023	50.6419	24.9023	54.7025	24.9023	49.097	24.9023	54.0093	24.9023	47.6012	24.9023	52.9104	24.9023	46.8416	24.9023	51.3465	24.9023	47.5166	24.9023	49.4293	24.9023	49.2535	24.9023	48.0535	24.9023	51.2354	24.9023	48.87	24.9023	53.0639	24.9023	51.2596	24.9023	54.6394	24.9023	53.6444	24.9023	55.9584	24.9023	55.5563	24.9023	57.0364	24.9023	56.9871	24.9023	57.8866	24.9023	58.0022	24.9023	58.5149	24.9023	58.6622	24.9023	58.9196	24.9023	59.0139	24.9023	59.0914
26.3672	55.4492	26.3672	54.8236	26.3672	55.854	26.3672	53.9748	26.3672	56.0301	26.3672	52.8967	26.3672	55.957	26.3672	51.5984	26.3672	55.5996	26.3672	50.166	26.3672	54.9071	26.3672	48.912	26.3672	53.8164	26.3672	48.4916	26.3672	52.2898	26.3672	49.3489	26.3672	50.5052	26.3672	51.0368	26.3672	49.4366	26.3672	52.8984	26.3672	50.4658	26.3672	54.6198	26.3672	52.8032	26.3672	56.115	26.3672	55.092	26.3672	57.3756	26.3672	56.936	26.3672	58.4112	26.3672	58.3248	26.3672	59.2306	26.3672	59.3153	26.3672	59.8369	26.3672	59.9625	26.3672	60.2267	26.3672	60.3099	26.3672	60.3899
27.832	53.957	27.832	53.2321	27.832	54.4082	27.832	52.233	27.832	54.5768	27.832	50.9722	27.832	54.4377	27.832	49.5458	27.832	53.9448	27.832	48.3182	27.832	53.0309	27.832	48.0558	27.832	51.6292	27.832	49.1909	27.832	49.83	27.832	51.1174	27.832	48.5361	27.832	53.1399	27.832	49.563	27.832	54.9798	27.832	52.2647	27.832	56.5786	27.832	54.9354	27.832	57.9434	27.832	57.1042	27.832	59.092	27.832	58.7769	27.832	60.0391	27.832	60.0265	27.832	60.7926	27.832	60.9177	27.832	61.3539	27.832	61.4996	27.832	61.7181	27.832	61.8094	27.832	61.8751
29.2969	56.212	29.2969	55.8752	29.2969	56.4396	29.2969	55.4715	29.2969	56.5298	29.2969	55.0655	29.2969	56.4653	29.2969	54.7519	29.2969	56.2445	29.2969	54.648	29.2969	55.8983	29.2969	54.8562	29.2969	55.5248	29.2969	55.4081	29.2969	55.3275	29.2969	56.2437	29.2969	55.5751	29.2969	57.2515	29.2969	56.3986	29.2969	58.3224	29.2969	57.6436	29.2969	59.3766	29.2969	59.0254	29.2969	60.3635	29.2969	60.3288	29.2969	61.2523	29.2969	61.4457	29.2969	62.0232	29.2969	62.3359	29.2969	62.6617	29.2969	62.9926	29.2969	63.1554	29.2969	63.4229	29.2969	63.4918	29.2969	63.6399	29.2969	63.658
30.7617	59.734	30.7617	59.3404	30.7617	60.0128	30.7617	58.8545	30.7617	60.1605	30.7617	58.3104	30.7617	60.165	30.7617	57.7636	30.7617	60.0202	30.7617	57.3003	30.7617	59.7337	30.7617	57.0344	30.7617	59.3432	30.7617	57.0759	30.7617	58.9416	30.7617	57.4715	30.7617	58.696	30.7617	58.1729	30.7617	58.8042	30.7617	59.0676	30.7617	59.3581	30.7617	60.0386	30.7617	60.2522	30.7617	60.9968	30.7617	61.2761	30.7617	61.8847	30.7617	62.2514	30.7617	62.6664	30.7617	63.0757	30.7617	63.3189	30.7617	63.7036	30.7617	63.8255	30.7617	64.1218	30.7617	64.1721	30.7617	64.3327	30.7617	64.3454
32.2266	60.2211	32.2266	59.754	32.2266	60.5554	32.2266	59.1852	32.2266	60.7352	32.2266	58.5651	32.2266	60.7432	32.2266	57.9782	32.2266	60.5675	32.2266	57.5533	32.2266	60.2097	32.2266	57.4417	32.2266	59.7064	32.2266	57.7444	32.2266	59.1701	32.2266	58.4391	32.2266	58.8325	32.2266	59.3979	32.2266	58.9873	32.2266	60.4722	32.2266	59.7482	32.2266	61.5495	32.2266	60.9146	32.2266	62.5609	32.2266	62.1809	32.2266	63.4675	32.2266	63.3393	32.2266	64.247	32.2266	64.2945	32.2266	64.8847	32.2266	65.0164	32.2266	65.3684	32.2266	65.5041	32.2266	65.6858	32.2266	65.7683	32.2266	65.8239
33.6914	61.4363	33.6914	61.0243	33.6914	61.7325	33.6914	60.527	33.6914	61.891	33.6914	59.9909	33.6914	61.895	33.6914	59.4893	33.6914	61.7343	33.6914	59.1274	33.6914	61.4133	33.6914	59.0259	33.6914	60.9702	33.6914	59.2703	33.6914	60.5116	33.6914	59.8577	33.6914	60.2413	33.6914	60.6983	33.6914	60.4054	33.6914	61.6707	33.6914	61.101	33.6914	62.6711	33.6914	62.1678	33.6914	63.6284	33.6914	63.344	33.6914	64.4988	33.6914	64.4359	33.6914	65.2548	33.6914	65.3459	33.6914	65.8781	33.6914	66.038	33.6914	66.3539	33.6914	66.5066	33.6914	66.6685	33.6914	66.7591	33.6914	66.8084
35.1562	62.5437	35.1562	62.2588	35.1562	62.7591	35.1562	61.9408	35.1562	62.8793	35.1562	61.6395	35.1562	62.8883	35.1562	61.4186	35.1562	62.7834	35.1562	61.349	35.1562	62.584	35.1562	61.4901	35.1562	62.348	35.1562	61.8661	35.1562	62.1889	35.1562	62.4543	35.1562	62.2644	35.1562	63.1964	35.1562	62.6999	35.1562	64.0222	35.1562	63.487	35.1562	64.8685	35.1562	64.4848	35.1562	65.6866	35.1562	65.521	35.1562	66.4411	35.1562	66.4691	35.1562	67.1064	35.1562	67.2593	35.1562	67.6626	35.1562	67.8615	35.1562	68.0931	35.1562	68.2682	35.1562	68.3829	35.1562	68.4836	35.1562	68.5176
36.6211	64.2743	36.6211	64.0125	36.6211	64.477	36.6211	63.722	36.6211	64.5985	36.6211	63.4436	36.6211	64.6254	36.6211	63.2284	36.6211	64.5553	36.6211	63.1336	36.6211	64.4045	36.6211	63.2107	36.6211	64.2196	36.6211	63.488	36.6211	64.0885	36.6211	63.9587	36.6211	64.1328	36.6211	64.5836	36.6211	64.4582	36.6211	65.3061	36.6211	65.0813	36.6211	66.0688	36.6211	65.9107	36.6211	66.8228	36.6211	66.8079	36.6211	67.5301	36.6211	67.6543	36.6211	68.1617	36.6211	68.3744	36.6211	68.6951	36.6211	68.93	36.6211	69.1115	36.6211	69.3069	36.6211	69.3948	36.6211	69.5046	36.6211	69.5303
38.0859	65.8244	38.0859	65.5845	38.0859	66.0139	38.0859	65.3216	38.0859	66.133	38.0859	65.0713	38.0859	66.1696	38.0859	64.877	38.0859	66.1216	38.0859	64.7867	38.0859	66.004	38.0859	64.844	38.0859	65.8573	38.0859	65.0752	38.0859	65.7559	38.0859	65.4793	38.0859	65.8009	38.0859	66.0282	38.0859	66.0819	38.0859	66.676	38.0859	66.6203	38.0859	67.3724	38.0859	67.3492	38.0859	68.0718	38.0859	68.1534	38.0859	68.7362	38.0859	68.9252	38.0859	69.3356	38.0859	69.5902	38.0859	69.8462	38.0859	70.1071	38.0859	70.248	38.0859	70.4584	38.0859	70.524	38.0859	70.6407	38.0859	70.6592
39.5508	67.206	39.5508	66.984	39.5508	67.3854	39.5508	66.7446	39.5508	67.5035	39.5508	66.5198	39.5508	67.5488	39.5508	66.3478	39.5508	67.5198	39.5508	66.27	39.5508	67.4298	39.5508	66.3236	39.5508	67.3152	39.5508	66.5319	39.5508	67.2408	39.5508	66.8959	39.5508	67.2931	39.5508	67.3939	39.5508	67.5497	39.5508	67.9877	39.5508	68.033	39.5508	68.633	39.5508	68.6911	39.5508	69.2878	39.5508	69.4261	39.5508	69.9155	39.5508	70.1402	39.5508	70.4861	39.5508	70.7614	39.5508	70.9753	39.5508	71.2475	39.5508	71.3625	39.5508	71.5785	39.5508	71.6302	39.5508	71.7492	39.5508	71.7633
41.0156	68.3336	41.0156	68.1224	41.0156	68.5059	41.0156	67.8965	41.0156	68.6211	41.0156	67.6866	41.0156	68.6685	41.0156	67.5288	41.0156	68.6468	41.0156	67.4614	41.0156	68.5697	41.0156	67.5187	41.0156	68.4726	41.0156	67.7222	41.0156	68.4171	41.0156	68.0732	41.0156	68.4842	41.0156	68.5519	41.0156	68.7444	41.0156	69.1235	41.0156	69.2173	41.0156	69.7467	41.0156	69.8539	41.0156	70.3815	41.0156	70.5628	41.0156	70.9924	41.0156	71.2516	41.0156	71.5501	41.0156	71.8514	41.0156	72.0299	41.0156	72.3205	41.0156	72.4113	41.0156	72.6391	41.0156	72.6768	41.0156	72.8014	41.0156	72.811
42.4805	69.7438	42.4805	69.5593	42.4805	69.9014	42.4805	69.3699	42.4805	70.0157	42.4805	69.2023	42.4805	70.0768	42.4805	69.0867	42.4805	70.0838	42.4805	69.054	42.4805	70.0494	42.4805	69.1308	42.4805	70.0045	42.4805	69.333	42.4805	70.0004	42.4805	69.6611	42.4805	70.102	42.4805	70.0995	42.4805	70.364	42.4805	70.6206	42.4805	70.8015	42.4805	71.1902	42.4805	71.3761	42.4805	71.7739	42.4805	72.0143	42.4805	72.3397	42.4805	72.6375	42.4805	72.8599	42.4805	73.1838	42.4805	73.3107	42.4805	73.613	42.4805	73.6715	42.4805	73.9046	42.4805	73.9247	42.4805	74.0513	42.4805	74.0553
43.9453	71.114	43.9453	70.9488	43.9453	71.2606	43.9453	70.7845	43.9453	71.3736	43.9453	70.6446	43.9453	71.4439	43.9453	70.5549	43.9453	71.4709	43.9453	70.5407	43.9453	71.466	43.9453	70.6238	43.9453	71.4564	43.9453	70.8169	43.9453	71.4858	43.9453	71.1206	43.9453	71.6081	43.9453	71.5227	43.9453	71.8674	43.9453	72.0006	43.9453	72.2756	43.9453	72.5256	43.9453	72.8014	43.9453	73.0672	43.9453	73.3828	43.9453	73.5964	43.9453	73.9518	43.9453	74.0867	43.9453	74.4519	43.9453	74.515	43.9453	74.8453	43.9453	74.8608	43.9453	75.111	43.9453	75.1065	43.9453	75.2412	43.9453	75.2372
45.4102	72.3779	45.4102	72.2213	45.4102	72.5206	45.4102	72.0686	45.4102	72.6351	45.4102	71.941	45.4102	72.713	45.4102	71.8613	45.4102	72.7531	45.4102	71.8517	45.4102	72.765	45.4102	71.9309	45.4102	72.7724	45.4102	72.1102	45.4102	72.8134	45.4102	72.3905	45.4102	72.9346	45.4102	72.762	45.4102	73.1755	45.4102	73.2052	45.4102	73.5481	45.4102	73.695	45.4102	74.0279	45.4102	74.2037	45.4102	74.5615	45.4102	74.7039	45.4102	75.0875	45.4102	75.1703	45.4102	75.5527	45.4102	75.58	45.4102	75.92	45.4102	75.9128	45.4102	76.1679	45.4102	76.1509	45.4102	76.2877	45.4102	76.2797
46.875	75.3402	46.875	75.2825	46.875	75.4193	46.875	75.2497	46.875	75.5164	46.875	75.2461	46.875	75.6292	46.875	75.2769	46.875	75.7561	46.875	75.348	46.875	75.8973	46.875	75.4652	46.875	76.0566	46.875	75.6334	46.875	76.2414	46.875	75.8549	46.875	76.4618	46.875	76.1288	46.875	76.7271	46.875	76.4495	46.875	77.0403	46.875	76.8069	46.875	77.3929	46.875	77.1867	46.875	77.7646	46.875	77.5715	46.875	78.1264	46.875	77.942	46.875	78.4473	46.875	78.2784	46.875	78.7002	46.875	78.5616	46.875	78.8659	46.875	78.7741	46.875	78.9337	46.875	78.9016
48.3398	76.4743	48.3398	76.4186	48.3398	76.5523	48.3398	76.388	48.3398	76.6499	48.3398	76.3861	48.3398	76.7643	48.3398	76.4169	48.3398	76.8936	48.3398	76.4854	48.3398	77.0374	48.3398	76.5964	48.3398	77.1978	48.3398	76.7543	48.3398	77.3804	48.3398	76.9614	48.3398	77.5937	48.3398	77.2173	48.3398	77.8458	48.3398	77.5175	48.3398	78.1395	48.3398	77.8533	48.3398	78.4682	48.3398	78.2119	48.3398	78.8139	48.3398	78.5771	48.3398	79.1505	48.3398	78.9308	48.3398	79.449	48.3398	79.2537	48.3398	79.684	48.3398	79.5272	48.3398	79.8365	48.3398	79.7342	48.3398	79.8961	48.3398	79.8605
51.2695	78.616	51.2695	78.5605	51.2695	78.6947	51.2695	78.5301	51.2695	78.7944	51.2695	78.527	51.2695	78.9125	51.2695	78.5539	51.2695	79.0461	51.2695	78.614	51.2695	79.1935	51.2695	78.711	51.2695	79.3544	51.2695	78.8484	51.2695	79.5317	51.2695	79.0286	51.2695	79.7309	51.2695	79.2519	51.2695	79.9581	51.2695	79.5156	51.2695	80.2161	51.2695	79.813	51.2695	80.5005	51.2695	80.1339	51.2695	80.7978	51.2695	80.4643	51.2695	81.0868	51.2695	80.788	51.2695	81.3426	51.2695	81.0871	51.2695	81.5424	51.2695	81.3439	51.2695	81.6687	51.2695	81.542	51.2695	81.7114	51.2695	81.6677
52.7344	79.5762	52.7344	79.5226	52.7344	79.6546	52.7344	79.4954	52.7344	79.756	52.7344	79.4959	52.7344	79.8777	52.7344	79.5259	52.7344	80.0166	52.7344	79.5876	52.7344	80.1697	52.7344	79.6838	52.7344	80.3359	52.7344	79.8174	52.7344	80.5163	52.7344	79.9904	52.7344	80.7147	52.7344	80.2032	52.7344	80.9358	52.7344	80.4535	52.7344	81.182	52.7344	80.7356	52.7344	81.4496	52.7344	81.0403	52.7344	81.727	52.7344	81.355	52.7344	81.9952	52.7344	81.6644	52.7344	82.2318	52.7344	81.9516	52.7344	82.4155	52.7344	82.1998	52.7344	82.5296	52.7344	82.3928	52.7344	82.5644	52.7344	82.5175
54.1992	80.5028	54.1992	80.4505	54.1992	80.5809	54.1992	80.4249	54.1992	80.683	54.1992	80.4266	54.1992	80.8063	54.1992	80.4567	54.1992	80.9473	54.1992	80.5167	54.1992	81.1023	54.1992	80.6086	54.1992	81.2691	54.1992	80.7347	54.1992	81.4474	54.1992	80.8969	54.1992	81.6398	54.1992	81.0955	54.1992	81.85	54.1992	81.329	54.1992	82.0802	54.1992	81.5927	54.1992	82.3277	54.1992	81.8785	54.1992	82.5826	54.1992	82.1749	54.1992	82.8283	54.1992	82.4679	54.1992	83.0444	54.1992	82.7417	54.1992	83.2111	54.1992	82.9798	54.1992	83.3127	54.1992	83.1669	54.1992	83.3398	54.1992	83.2899
55.6641	81.3173	55.6641	81.2667	55.6641	81.3943	55.6641	81.2431	55.6641	81.4963	55.6641	81.2465	55.6641	81.6205	55.6641	81.2771	55.6641	81.763	55.6641	81.3358	55.6641	81.9198	55.6641	81.424	55.6641	82.0875	55.6641	81.5434	55.6641	82.2647	55.6641	81.6957	55.6641	82.4528	55.6641	81.8815	55.6641	82.6546	55.6641	82.0997	55.6641	82.8718	55.6641	82.3465	55.6641	83.1024	55.6641	82.6149	55.6641	83.3379	55.6641	82.8947	55.6641	83.5635	55.6641	83.1728	55.6641	83.761	55.6641	83.4342	55.6641	83.9119	55.6641	83.6634	55.6641	84.0014	55.6641	83.8454	55.6641	84.0207	55.6641	83.9675
58.5938	82.6807	58.5938	82.6308	58.5938	82.758	58.5938	82.6081	58.5938	82.8617	58.5938	82.6116	58.5938	82.9889	58.5938	82.6403	58.5938	83.1352	58.5938	82.6938	58.5938	83.2952	58.5938	82.7725	58.5938	83.4638	58.5938	82.8773	58.5938	83.6377	58.5938	83.0097	58.5938	83.816	58.5938	83.1706	58.5938	83.9998	58.5938	83.3597	58.5938	84.1907	58.5938	83.5748	58.5938	84.3875	58.5938	83.8109	58.5938	84.5844	58.5938	84.0597	58.5938	84.7705	58.5938	84.3103	58.5938	84.931	58.5938	84.5494	58.5938	85.0502	58.5938	84.7626	58.5938	85.1154	58.5938	84.936	58.5938	85.1185	58.5938	85.0575
60.0586	83.2325	60.0586	83.1823	60.0586	83.3103	60.0586	83.1594	60.0586	83.4149	60.0586	83.1621	60.0586	83.5435	60.0586	83.1892	60.0586	83.6912	60.0586	83.2398	60.0586	83.8522	60.0586	83.3136	60.0586	84.0208	60.0586	83.4114	60.0586	84.1927	60.0586	83.5344	60.0586	84.3661	60.0586	83.6837	60.0586	84.5415	60.0586	83.8593	60.0586	84.72	60.0586	84.0596	60.0586	84.901	60.0586	84.2805	60.0586	85.0798	60.0586	84.5147	60.0586	85.2471	60.0586	84.7522	60.0586	85.3896	60.0586	84.9806	60.0586	85.4934	60.0586	85.1861	60.0586	85.5466	60.0586	85.3554	60.0586	85.5416	60.0586	85.4767
62.9883	84.0795	62.9883	84.0288	62.9883	84.1588	62.9883	84.0056	62.9883	84.266	62.9883	84.0078	62.9883	84.3981	62.9883	84.0329	62.9883	84.5499	62.9883	84.0792	62.9883	84.7145	62.9883	84.1456	62.9883	84.8847	62.9883	84.2322	62.9883	85.0548	62.9883	84.3396	62.9883	85.2212	62.9883	84.469	62.9883	85.3828	62.9883	84.6212	62.9883	85.5402	62.9883	84.7954	62.9883	85.6933	62.9883	84.9889	62.9883	85.8395	62.9883	85.1965	62.9883	85.9721	62.9883	85.4099	62.9883	86.0814	62.9883	85.6183	62.9883	86.156	62.9883	85.8096	62.9883	86.1861	62.9883	85.9713	62.9883	86.1654	62.9883	86.0926
64.4531	84.3713	64.4531	84.3201	64.4531	84.4515	64.4531	84.2966	64.4531	84.5602	64.4531	84.2984	64.4531	84.6943	64.4531	84.3225	64.4531	84.8483	64.4531	84.3668	64.4531	85.0148	64.4531	84.4298	64.4531	85.1861	64.4531	84.5111	64.4531	85.3555	64.4531	84.6114	64.4531	85.5186	64.4531	84.7317	64.4531	85.6738	64.4531	84.8728	64.4531	85.8213	64.4531	85.0347	64.4531	85.9612	64.4531	85.2153	64.4531	86.0917	64.4531	85.4101	64.4531	86.2076	64.4531	85.6117	64.4531	86.3005	64.4531	85.8104	64.4531	86.3607	64.4531	85.9946	64.4531	86.3793	64.4531	86.1527	64.4531	86.3507	64.4531	86.274
67.3828	84.7482	67.3828	84.6952	67.3828	84.8309	67.3828	84.6701	67.3828	84.9428	67.3828	84.67	67.3828	85.0806	67.3828	84.6914	67.3828	85.2382	67.3828	84.7312	67.3828	85.4075	67.3828	84.7871	67.3828	85.5795	67.3828	84.8584	67.3828	85.7462	67.3828	84.9451	67.3828	85.902	67.3828	85.0482	67.3828	86.044	67.3828	85.1688	67.3828	86.1719	67.3828	85.3077	67.3828	86.2864	67.3828	85.464	67.3828	86.3872	67.3828	85.6346	67.3828	86.4715	67.3828	85.814	67.3828	86.5338	67.3828	85.9941	67.3828	86.5668	67.3828	86.1648	67.3828	86.5639	67.3828	86.3156	67.3828	86.5207	67.3828	86.4366
68.8477	84.8558	68.8477	84.8026	68.8477	84.9389	68.8477	84.7775	68.8477	85.0515	68.8477	84.7771	68.8477	85.1902	68.8477	84.7977	68.8477	85.3487	68.8477	84.8359	68.8477	85.5185	68.8477	84.8893	68.8477	85.6902	68.8477	84.9565	68.8477	85.8554	68.8477	85.0375	68.8477	86.0077	68.8477	85.1332	68.8477	86.1439	68.8477	85.245	68.8477	86.2635	68.8477	85.3737	68.8477	86.3671	68.8477	85.519	68.8477	86.4553	68.8477	85.6785	68.8477	86.5262	68.8477	85.8475	68.8477	86.5754	68.8477	86.0185	68.8477	86.5969	68.8477	86.1824	68.8477	86.5849	68.8477	86.329	68.8477	86.5357	68.8477	86.4492
