"SPL Vertical"
"On-Axis"		"10°"		"-10°"		"20°"		"-20°"		"30°"		"-30°"		"40°"		"-40°"		"50°"		"-50°"		"60°"		"-60°"		"70°"		"-70°"		"80°"		"-80°"		"90°"		"-90°"		"100°"		"-100°"		"110°"		"-110°"		"120°"		"-120°"		"130°"		"-130°"		"140°"		"-140°"		"150°"		"-150°"		"160°"		"-160°"		"170°"		"-170°"		"180°"
"Frequency / Hz"	"Sound Pressure Level / dB (re 20 µPa/V)  [2.83  V @ 1. m]"	"Frequency / Hz"	"Sound Pressure Level / dB (re 20 µPa/V)  [2.83  V @ 1. m]"	"Frequency / Hz"	"Sound Pressure Level / dB (re 20 µPa/V)  [2.83  V @ 1. m]"	"Frequency / Hz"	"Sound Pressure Level / dB (re 20 µPa/V)  [2.83  V @ 1. m]"	"Frequency / Hz"	"Sound Pressure Level / dB (re 20 µPa/V)  [2.83  V @ 1. m]"	"Frequency / Hz"	"Sound Pressure Level / dB (re 20 µPa/V)  [2.83  V @ 1. m]"	"Frequency / Hz"	"Sound Pressure Level / dB (re 20 µPa/V)  [2.83  V @ 1. m]"	"Frequency / Hz"	"Sound Pressure Level / dB (re 20 µPa/V)  [2.83  V @ 1. m]"	"Frequency / Hz"	"Sound Pressure Level / dB (re 20 µPa/V)  [2.83  V @ 1. m]"	"Frequency / Hz"	"Sound Pressure Level / dB (re 20 µPa/V)  [2.83  V @ 1. m]"	"Frequency / Hz"	"Sound Pressure Level / dB (re 20 µPa/V)  [2.83  V @ 1. m]"	"Frequency / Hz"	"Sound Pressure Level / dB (re 20 µPa/V)  [2.83  V @ 1. m]"	"Frequency / Hz"	"Sound Pressure Level / dB (re 20 µPa/V)  [2.83  V @ 1. m]"	"Frequency / Hz"	"Sound Pressure Level / dB (re 20 µPa/V)  [2.83  V @ 1. m]"	"Frequency / Hz"	"Sound Pressure Level / dB (re 20 µPa/V)  [2.83  V @ 1. m]"	"Frequency / Hz"	"Sound Pressure Level / dB (re 20 µPa/V)  [2.83  V @ 1. m]"	"Frequency / Hz"	"Sound Pressure Level / dB (re 20 µPa/V)  [2.83  V @ 1. m]"	"Frequency / Hz"	"Sound Pressure Level / dB (re 20 µPa/V)  [2.83  V @ 1. m]"	"Frequency / Hz"	"Sound Pressure Level / dB (re 20 µPa/V)  [2.83  V @ 1. m]"	"Frequency / Hz"	"Sound Pressure Level / dB (re 20 µPa/V)  [2.83  V @ 1. m]"	"Frequency / Hz"	"Sound Pressure Level / dB (re 20 µPa/V)  [2.83  V @ 1. m]"	"Frequency / Hz"	"Sound Pressure Level / dB (re 20 µPa/V)  [2.83  V @ 1. m]"	"Frequency / Hz"	"Sound Pressure Level / dB (re 20 µPa/V)  [2.83  V @ 1. m]"	"Frequency / Hz"	"Sound Pressure Level / dB (re 20 µPa/V)  [2.83  V @ 1. m]"	"Frequency / Hz"	"Sound Pressure Level / dB (re 20 µPa/V)  [2.83  V @ 1. m]"	"Frequency / Hz"	"Sound Pressure Level / dB (re 20 µPa/V)  [2.83  V @ 1. m]"	"Frequency / Hz"	"Sound Pressure Level / dB (re 20 µPa/V)  [2.83  V @ 1. m]"	"Frequency / Hz"	"Sound Pressure Level / dB (re 20 µPa/V)  [2.83  V @ 1. m]"	"Frequency / Hz"	"Sound Pressure Level / dB (re 20 µPa/V)  [2.83  V @ 1. m]"	"Frequency / Hz"	"Sound Pressure Level / dB (re 20 µPa/V)  [2.83  V @ 1. m]"	"Frequency / Hz"	"Sound Pressure Level / dB (re 20 µPa/V)  [2.83  V @ 1. m]"	"Frequency / Hz"	"Sound Pressure Level / dB (re 20 µPa/V)  [2.83  V @ 1. m]"	"Frequency / Hz"	"Sound Pressure Level / dB (re 20 µPa/V)  [2.83  V @ 1. m]"	"Frequency / Hz"	"Sound Pressure Level / dB (re 20 µPa/V)  [2.83  V @ 1. m]"	"Frequency / Hz"	"Sound Pressure Level / dB (re 20 µPa/V)  [2.83  V @ 1. m]"	"Frequency / Hz"	"Sound Pressure Level / dB (re 20 µPa/V)  [2.83  V @ 1. m]"
20.5078	44.9448	20.5078	44.7144	20.5078	45.101	20.5078	44.416	20.5078	45.1775	20.5078	44.0571	20.5078	45.1697	20.5078	43.6463	20.5078	45.0736	20.5078	43.1935	20.5078	44.8857	20.5078	42.7106	20.5078	44.603	20.5078	42.2109	20.5078	44.2236	20.5078	41.7096	20.5078	43.7473	20.5078	41.2217	20.5078	43.1766	20.5078	40.76	20.5078	42.5184	20.5078	40.3317	20.5078	41.7869	20.5078	39.9364	20.5078	41.0062	20.5078	39.567	20.5078	40.2151	20.5078	39.2141	20.5078	39.469	20.5078	38.8738	20.5078	38.8368	20.5078	38.5567	20.5078	38.3854	20.5078	38.2945	20.5078	38.1549	20.5078	38.1399
21.9727	20.7718	21.9727	26.2674	21.9727	15.6139	21.9727	30.3785	21.9727	16.8284	21.9727	33.5523	21.9727	17.9998	21.9727	36.1042	21.9727	16.1311	21.9727	38.2159	21.9727	7.58129	21.9727	39.9967	21.9727	16.9067	21.9727	41.5152	21.9727	25.1144	21.9727	42.8158	21.9727	30.1303	21.9727	43.9271	21.9727	33.7675	21.9727	44.8672	21.9727	36.6019	21.9727	45.6466	21.9727	38.8922	21.9727	46.2708	21.9727	40.778	21.9727	46.7416	21.9727	42.3432	21.9727	47.0586	21.9727	43.642	21.9727	47.22	21.9727	44.7103	21.9727	47.223	21.9727	45.5727	21.9727	47.0644	21.9727	46.2456	21.9727	46.7404
23.4375	30.3867	23.4375	28.1509	23.4375	32.1254	23.4375	27.467	23.4375	33.1513	23.4375	30.3164	23.4375	33.5439	23.4375	33.9296	23.4375	33.3601	23.4375	36.9763	23.4375	32.6381	23.4375	39.4446	23.4375	31.5355	23.4375	41.4668	23.4375	30.7739	23.4375	43.1443	23.4375	31.7392	23.4375	44.5436	23.4375	34.3181	23.4375	45.7075	23.4375	37.1578	23.4375	46.663	23.4375	39.6689	23.4375	47.4265	23.4375	41.775	23.4375	48.0077	23.4375	43.5181	23.4375	48.4114	23.4375	44.9502	23.4375	48.639	23.4375	46.1128	23.4375	48.6897	23.4375	47.0366	23.4375	48.5609	23.4375	47.7431	23.4375	48.2477
24.9023	41.965	24.9023	41.4575	24.9023	42.4078	24.9023	41.0197	24.9023	42.7146	24.9023	40.8527	24.9023	42.8532	24.9023	41.1473	24.9023	42.8151	24.9023	41.9398	24.9023	42.6129	24.9023	43.0797	24.9023	42.2911	24.9023	44.3604	24.9023	41.9484	24.9023	45.6282	24.9023	41.7579	24.9023	46.7981	24.9023	41.9319	24.9023	47.8305	24.9023	42.5875	24.9023	48.7084	24.9023	43.6408	24.9023	49.4251	24.9023	44.8861	24.9023	49.9779	24.9023	46.1395	24.9023	50.3652	24.9023	47.2912	24.9023	50.5856	24.9023	48.2893	24.9023	50.6375	24.9023	49.1139	24.9023	50.5188	24.9023	49.7596	24.9023	50.227
26.3672	45.3967	26.3672	45.1914	26.3672	45.6385	26.3672	45.1298	26.3672	45.8403	26.3672	45.3218	26.3672	45.9594	26.3672	45.8271	26.3672	45.9833	26.3672	46.6178	26.3672	45.9292	26.3672	47.598	26.3672	45.8487	26.3672	48.6579	26.3672	45.8323	26.3672	49.71	26.3672	45.9974	26.3672	50.6973	26.3672	46.442	26.3672	51.5857	26.3672	47.184	26.3672	52.3555	26.3672	48.1473	26.3672	52.9953	26.3672	49.2119	26.3672	53.4975	26.3672	50.2703	26.3672	53.8568	26.3672	51.2494	26.3672	54.0688	26.3672	52.1072	26.3672	54.13	26.3672	52.822	26.3672	54.0376	26.3672	53.384	26.3672	53.7893
27.832	50.1298	27.832	49.9703	27.832	50.2946	27.832	49.8763	27.832	50.4218	27.832	49.916	27.832	50.4867	27.832	50.1463	27.832	50.4827	27.832	50.5883	27.832	50.4219	27.832	51.2169	27.832	50.3379	27.832	51.9732	27.832	50.2881	27.832	52.7882	27.832	50.3486	27.832	53.6012	27.832	50.5928	27.832	54.3662	27.832	51.0584	27.832	55.0514	27.832	51.7239	27.832	55.6351	27.832	52.5205	27.832	56.1023	27.832	53.364	27.832	56.4428	27.832	54.1818	27.832	56.649	27.832	54.9224	27.832	56.7158	27.832	55.5533	27.832	56.6396	27.832	56.0556	27.832	56.4192
29.2969	53.2792	29.2969	53.2128	29.2969	53.3693	29.2969	53.2124	29.2969	53.4505	29.2969	53.3223	29.2969	53.5033	29.2969	53.5765	29.2969	53.5225	29.2969	53.9861	29.2969	53.519	29.2969	54.5346	29.2969	53.5208	29.2969	55.1837	29.2969	53.5717	29.2969	55.8857	29.2969	53.7241	29.2969	56.5945	29.2969	54.0235	29.2969	57.2717	29.2969	54.4876	29.2969	57.8877	29.2969	55.0967	29.2969	58.4204	29.2969	55.8006	29.2969	58.8538	29.2969	56.5379	29.2969	59.1758	29.2969	57.2528	29.2969	59.3778	29.2969	57.9021	29.2969	59.4535	29.2969	58.4564	29.2969	59.399	29.2969	58.897	29.2969	59.213
30.7617	55.1758	30.7617	55.0727	30.7617	55.2881	30.7617	55.0257	30.7617	55.3736	30.7617	55.0851	30.7617	55.4104	30.7617	55.2918	30.7617	55.3915	30.7617	55.662	30.7617	55.3257	30.7617	56.1812	30.7617	55.2397	30.7617	56.8095	30.7617	55.1785	30.7617	57.4958	30.7617	55.2019	30.7617	58.1906	30.7617	55.3702	30.7617	58.8528	30.7617	55.7212	30.7617	59.4509	30.7617	56.2512	30.7617	59.9618	30.7617	56.9153	30.7617	60.3686	30.7617	57.6473	30.7617	60.659	30.7617	58.3821	30.7617	60.8243	30.7617	59.0676	30.7617	60.8584	30.7617	59.6672	30.7617	60.7583	30.7617	60.1572	30.7617	60.5235
32.2266	58.2949	32.2266	58.3044	32.2266	58.3162	32.2266	58.3722	32.2266	58.3467	32.2266	58.5262	32.2266	58.3739	32.2266	58.787	32.2266	58.3959	32.2266	59.1611	32.2266	58.4221	32.2266	59.6377	32.2266	58.473	32.2266	60.1914	32.2266	58.578	32.2266	60.7888	32.2266	58.7688	32.2266	61.395	32.2266	59.0707	32.2266	61.9785	32.2266	59.4917	32.2266	62.5127	32.2266	60.0175	32.2266	62.9767	32.2266	60.6154	32.2266	63.354	32.2266	61.2433	32.2266	63.6322	32.2266	61.8594	32.2266	63.8022	32.2266	62.4282	32.2266	63.8578	32.2266	62.9225	32.2266	63.796	32.2266	63.3229	32.2266	63.6166
33.6914	61.0234	33.6914	61.0284	33.6914	61.0424	33.6914	61.0809	33.6914	61.0665	33.6914	61.2043	33.6914	61.0839	33.6914	61.4168	33.6914	61.0917	33.6914	61.7259	33.6914	61.0968	33.6914	62.1256	33.6914	61.1163	33.6914	62.5973	33.6914	61.1756	33.6914	63.1143	33.6914	61.3046	33.6914	63.6466	33.6914	61.5295	33.6914	64.1654	33.6914	61.864	33.6914	64.6449	33.6914	62.302	33.6914	65.0639	33.6914	62.8187	33.6914	65.4052	33.6914	63.3775	33.6914	65.6555	33.6914	63.9387	33.6914	65.8049	33.6914	64.4665	33.6914	65.847	33.6914	64.9321	33.6914	65.7785	33.6914	65.3147	33.6914	65.5997
35.1562	63.4166	35.1562	63.4552	35.1562	63.4106	35.1562	63.5434	35.1562	63.4224	35.1562	63.6975	35.1562	63.4429	35.1562	63.9288	35.1562	63.4696	35.1562	64.2399	35.1562	63.5082	35.1562	64.6239	35.1562	63.5719	35.1562	65.0651	35.1562	63.6798	35.1562	65.5417	35.1562	63.8528	35.1562	66.0294	35.1562	64.1076	35.1562	66.5042	35.1562	64.4505	35.1562	66.9442	35.1562	64.8735	35.1562	67.3306	35.1562	65.3553	35.1562	67.6475	35.1562	65.8661	35.1562	67.8825	35.1562	66.3737	35.1562	68.0261	35.1562	66.8486	35.1562	68.072	35.1562	67.2662	35.1562	68.0168	35.1562	67.608	35.1562	67.8609
36.6211	65.863	36.6211	65.892	36.6211	65.8596	36.6211	65.9602	36.6211	65.8705	36.6211	66.0815	36.6211	65.8891	36.6211	66.2667	36.6211	65.9143	36.6211	66.5206	36.6211	65.9509	36.6211	66.8405	36.6211	66.0096	36.6211	67.2155	36.6211	66.1056	36.6211	67.6287	36.6211	66.2556	36.6211	68.0593	36.6211	66.4733	36.6211	68.4852	36.6211	66.7648	36.6211	68.8855	36.6211	67.1256	36.6211	69.2411	36.6211	67.5396	36.6211	69.536	36.6211	67.983	36.6211	69.7571	36.6211	68.4286	36.6211	69.8946	36.6211	68.8495	36.6211	69.9419	36.6211	69.2227	36.6211	69.8958	36.6211	69.5296	36.6211	69.7569
38.0859	68.1569	38.0859	68.186	38.0859	68.1513	38.0859	68.2495	38.0859	68.1602	38.0859	68.3587	38.0859	68.1782	38.0859	68.5225	38.0859	68.2042	38.0859	68.745	38.0859	68.2419	38.0859	69.0248	38.0859	68.2998	38.0859	69.3535	38.0859	68.3897	38.0859	69.7176	38.0859	68.5247	38.0859	70.0995	38.0859	68.7163	38.0859	70.48	38.0859	68.9699	38.0859	70.8399	38.0859	69.283	38.0859	71.1614	38.0859	69.6436	38.0859	71.4292	38.0859	70.0327	38.0859	71.6303	38.0859	70.4271	38.0859	71.7552	38.0859	70.8032	38.0859	71.7975	38.0859	71.1395	38.0859	71.7542	38.0859	71.4183	38.0859	71.6262
39.5508	70.3152	39.5508	70.3308	39.5508	70.319	39.5508	70.3754	39.5508	70.3344	39.5508	70.459	39.5508	70.3566	39.5508	70.59	39.5508	70.3846	39.5508	70.7735	39.5508	70.4212	39.5508	71.0095	39.5508	70.4731	39.5508	71.2923	39.5508	70.5499	39.5508	71.6109	39.5508	70.6628	39.5508	71.9503	39.5508	70.8221	39.5508	72.2931	39.5508	71.0337	39.5508	72.6211	39.5508	71.2973	39.5508	72.9171	39.5508	71.6048	39.5508	73.1657	39.5508	71.9411	39.5508	73.354	39.5508	72.2865	39.5508	73.4723	39.5508	72.62	39.5508	73.514	39.5508	72.9212	39.5508	73.4766	39.5508	73.1728	39.5508	73.3611
41.0156	72.3764	41.0156	72.389	41.0156	72.382	41.0156	72.4279	41.0156	72.3989	41.0156	72.5018	41.0156	72.423	41.0156	72.618	41.0156	72.453	41.0156	72.781	41.0156	72.4912	41.0156	72.9909	41.0156	72.5431	41.0156	73.2432	41.0156	72.6167	41.0156	73.5287	41.0156	72.7212	41.0156	73.8344	41.0156	72.8653	41.0156	74.145	41.0156	73.0544	41.0156	74.444	41.0156	73.2885	41.0156	74.7155	41.0156	73.5614	41.0156	74.9448	41.0156	73.8604	41.0156	75.1197	41.0156	74.1689	41.0156	75.2308	41.0156	74.468	41.0156	75.2716	41.0156	74.7393	41.0156	75.2397	41.0156	74.9663	41.0156	75.1362
42.4805	74.0276	42.4805	74.0384	42.4805	74.0326	42.4805	74.0726	42.4805	74.0472	42.4805	74.1381	42.4805	74.0677	42.4805	74.2417	42.4805	74.0928	42.4805	74.3879	42.4805	74.1245	42.4805	74.5775	42.4805	74.1678	42.4805	74.8068	42.4805	74.23	42.4805	75.0679	42.4805	74.3197	42.4805	75.349	42.4805	74.4454	42.4805	75.6361	42.4805	74.6125	42.4805	75.9135	42.4805	74.8221	42.4805	76.166	42.4805	75.0694	42.4805	76.3794	42.4805	75.3434	42.4805	76.5417	42.4805	75.629	42.4805	76.6434	42.4805	75.9086	42.4805	76.6787	42.4805	76.1644	42.4805	76.645	42.4805	76.3804	42.4805	76.5437
43.9453	75.7341	43.9453	75.7459	43.9453	75.7381	43.9453	75.7799	43.9453	75.7527	43.9453	75.8428	43.9453	75.7745	43.9453	75.9402	43.9453	75.8026	43.9453	76.0762	43.9453	75.8385	43.9453	76.2513	43.9453	75.8861	43.9453	76.4627	43.9453	75.9515	43.9453	76.7034	43.9453	76.0417	43.9453	76.9633	43.9453	76.1636	43.9453	77.2295	43.9453	76.3217	43.9453	77.4879	43.9453	76.5168	43.9453	77.7242	43.9453	76.7447	43.9453	77.9251	43.9453	76.996	43.9453	78.0789	43.9453	77.2573	43.9453	78.1768	43.9453	77.513	43.9453	78.2127	43.9453	77.747	43.9453	78.1844	43.9453	77.9445	43.9453	78.0933
45.4102	77.3505	45.4102	77.3663	45.4102	77.3507	45.4102	77.4032	45.4102	77.3626	45.4102	77.4666	45.4102	77.3835	45.4102	77.5611	45.4102	77.4124	45.4102	77.6897	45.4102	77.4505	45.4102	77.8528	45.4102	77.5011	45.4102	78.0478	45.4102	77.5688	45.4102	78.2686	45.4102	77.6593	45.4102	78.5066	45.4102	77.7779	45.4102	78.7503	45.4102	77.9281	45.4102	78.9873	45.4102	78.1101	45.4102	79.2045	45.4102	78.3203	45.4102	79.3897	45.4102	78.5505	45.4102	79.5322	45.4102	78.7891	45.4102	79.6234	45.4102	79.0222	45.4102	79.6578	45.4102	79.2354	45.4102	79.6331	45.4102	79.4153	45.4102	79.5506
46.875	78.8038	46.875	78.818	46.875	78.805	46.875	78.8518	46.875	78.8179	46.875	78.9097	46.875	78.8402	46.875	78.9957	46.875	78.8709	46.875	79.1121	46.875	78.9109	46.875	79.2594	46.875	78.9626	46.875	79.4354	46.875	79.0298	46.875	79.6352	46.875	79.1168	46.875	79.8509	46.875	79.228	46.875	80.0728	46.875	79.3661	46.875	80.2896	46.875	79.5315	46.875	80.4895	46.875	79.721	46.875	80.6612	46.875	79.9278	46.875	80.7943	46.875	80.1418	46.875	80.881	46.875	80.351	46.875	80.9158	46.875	80.5423	46.875	80.8964	46.875	80.7035	46.875	80.8241
48.3398	80.0204	48.3398	80.029	48.3398	80.0244	48.3398	80.0543	48.3398	80.0379	48.3398	80.1006	48.3398	80.0587	48.3398	80.1717	48.3398	80.0865	48.3398	80.2704	48.3398	80.1221	48.3398	80.3978	48.3398	80.1678	48.3398	80.5524	48.3398	80.2271	48.3398	80.7303	48.3398	80.3041	48.3398	80.9248	48.3398	80.4026	48.3398	81.1271	48.3398	80.5254	48.3398	81.3266	48.3398	80.6729	48.3398	81.5122	48.3398	80.8424	48.3398	81.6729	48.3398	81.0282	48.3398	81.7989	48.3398	81.2211	48.3398	81.8822	48.3398	81.4103	48.3398	81.9176	48.3398	81.5837	48.3398	81.9026	48.3398	81.7298	48.3398	81.8386
51.2695	81.8416	51.2695	81.8519	51.2695	81.8449	51.2695	81.8784	51.2695	81.8596	51.2695	81.9237	51.2695	81.884	51.2695	81.9901	51.2695	81.9175	51.2695	82.0791	51.2695	81.9599	51.2695	82.1908	51.2695	82.0122	51.2695	82.3239	51.2695	82.076	51.2695	82.4752	51.2695	82.1535	51.2695	82.6395	51.2695	82.2466	51.2695	82.8099	51.2695	82.3567	51.2695	82.9783	51.2695	82.4838	51.2695	83.1355	51.2695	82.6259	51.2695	83.2726	51.2695	82.7787	51.2695	83.3813	51.2695	82.9358	51.2695	83.4547	51.2695	83.0886	51.2695	83.4883	51.2695	83.2281	51.2695	83.4801	51.2695	83.345	51.2695	83.4311
52.7344	82.5519	52.7344	82.562	52.7344	82.555	52.7344	82.5874	52.7344	82.5693	52.7344	82.63	52.7344	82.5936	52.7344	82.6916	52.7344	82.6271	52.7344	82.7733	52.7344	82.6694	52.7344	82.8752	52.7344	82.7213	52.7344	82.9959	52.7344	82.7837	52.7344	83.1328	52.7344	82.858	52.7344	83.2814	52.7344	82.9457	52.7344	83.4356	52.7344	83.0477	52.7344	83.5883	52.7344	83.1638	52.7344	83.7314	52.7344	83.2923	52.7344	83.8567	52.7344	83.4296	52.7344	83.9566	52.7344	83.5699	52.7344	84.0249	52.7344	83.7062	52.7344	84.0573	52.7344	83.8302	52.7344	84.0519	52.7344	83.9338	52.7344	84.0096
54.1992	83.1259	54.1992	83.1367	54.1992	83.1276	54.1992	83.1616	54.1992	83.1404	54.1992	83.2022	54.1992	83.1632	54.1992	83.2597	54.1992	83.1952	54.1992	83.335	54.1992	83.2362	54.1992	83.428	54.1992	83.2864	54.1992	83.5376	54.1992	83.3466	54.1992	83.6612	54.1992	83.4176	54.1992	83.7952	54.1992	83.5004	54.1992	83.9344	54.1992	83.5954	54.1992	84.0724	54.1992	83.7023	54.1992	84.2021	54.1992	83.8195	54.1992	84.3161	54.1992	83.9436	54.1992	84.4076	54.1992	84.0699	54.1992	84.4708	54.1992	84.192	54.1992	84.5017	54.1992	84.3028	54.1992	84.4985	54.1992	84.395	54.1992	84.4619
55.6641	83.5941	55.6641	83.605	55.6641	83.5949	55.6641	83.6286	55.6641	83.6063	55.6641	83.6661	55.6641	83.6278	55.6641	83.7182	55.6641	83.6586	55.6641	83.7857	55.6641	83.6985	55.6641	83.8684	55.6641	83.7476	55.6641	83.9656	55.6641	83.806	55.6641	84.0752	55.6641	83.8741	55.6641	84.1943	55.6641	83.9522	55.6641	84.3185	55.6641	84.0405	55.6641	84.4423	55.6641	84.1383	55.6641	84.5593	55.6641	84.2439	55.6641	84.6631	55.6641	84.3548	55.6641	84.7473	55.6641	84.4665	55.6641	84.8065	55.6641	84.5738	55.6641	84.837	55.6641	84.6705	55.6641	84.8371	55.6641	84.7503	55.6641	84.8073
58.5938	84.199	58.5938	84.2057	58.5938	84.2033	58.5938	84.2239	58.5938	84.2181	58.5938	84.2542	58.5938	84.2428	58.5938	84.2968	58.5938	84.2769	58.5938	84.3519	58.5938	84.3199	58.5938	84.4195	58.5938	84.3712	58.5938	84.4989	58.5938	84.4303	58.5938	84.5886	58.5938	84.4967	58.5938	84.6867	58.5938	84.5701	58.5938	84.7898	58.5938	84.6496	58.5938	84.8939	58.5938	84.7344	58.5938	84.9941	58.5938	84.8228	58.5938	85.085	58.5938	84.9127	58.5938	85.1615	58.5938	85.0009	58.5938	85.2189	58.5938	85.0832	58.5938	85.2535	58.5938	85.1552	58.5938	85.2637	58.5938	85.212	58.5938	85.2492
60.0586	84.413	60.0586	84.4191	60.0586	84.417	60.0586	84.4356	60.0586	84.4309	60.0586	84.4628	60.0586	84.4542	60.0586	84.5007	60.0586	84.4864	60.0586	84.5494	60.0586	84.527	60.0586	84.6088	60.0586	84.5753	60.0586	84.6782	60.0586	84.6305	60.0586	84.7565	60.0586	84.6921	60.0586	84.8421	60.0586	84.7591	60.0586	84.9322	60.0586	84.8308	60.0586	85.0234	60.0586	84.9062	60.0586	85.1117	60.0586	84.9839	60.0586	85.1923	60.0586	85.0619	60.0586	85.2606	60.0586	85.1377	60.0586	85.3126	60.0586	85.2079	60.0586	85.345	60.0586	85.2686	60.0586	85.3562	60.0586	85.3158	60.0586	85.346
62.9883	84.776	62.9883	84.7811	62.9883	84.7801	62.9883	84.7953	62.9883	84.7935	62.9883	84.8182	62.9883	84.8161	62.9883	84.8497	62.9883	84.8473	62.9883	84.8894	62.9883	84.8866	62.9883	84.9369	62.9883	84.933	62.9883	84.9917	62.9883	84.9853	62.9883	85.0531	62.9883	85.0424	62.9883	85.1199	62.9883	85.1029	62.9883	85.1903	62.9883	85.1655	62.9883	85.2621	62.9883	85.2288	62.9883	85.3324	62.9883	85.2914	62.9883	85.3977	62.9883	85.3518	62.9883	85.4547	62.9883	85.4081	62.9883	85.5001	62.9883	85.4582	62.9883	85.5312	62.9883	85.4995	62.9883	85.5466	62.9883	85.5295	62.9883	85.5457
64.4531	84.9019	64.4531	84.907	64.4531	84.9058	64.4531	84.9206	64.4531	84.9189	64.4531	84.9423	64.4531	84.9411	64.4531	84.9715	64.4531	84.9722	64.4531	85.0079	64.4531	85.0113	64.4531	85.0509	64.4531	85.0575	64.4531	85.0999	64.4531	85.1094	64.4531	85.1544	64.4531	85.1655	64.4531	85.2135	64.4531	85.2241	64.4531	85.2757	64.4531	85.2837	64.4531	85.3394	64.4531	85.3426	64.4531	85.4021	64.4531	85.3996	64.4531	85.4611	64.4531	85.453	64.4531	85.5135	64.4531	85.5014	64.4531	85.5563	64.4531	85.543	64.4531	85.5872	64.4531	85.5759	64.4531	85.6047	64.4531	85.5983	64.4531	85.6083
67.3828	85.0969	67.3828	85.1008	67.3828	85.1018	67.3828	85.1126	67.3828	85.1159	67.3828	85.1316	67.3828	85.1394	67.3828	85.1566	67.3828	85.172	67.3828	85.187	67.3828	85.2127	67.3828	85.2219	67.3828	85.2602	67.3828	85.2609	67.3828	85.3127	67.3828	85.3034	67.3828	85.3679	67.3828	85.3489	67.3828	85.4239	67.3828	85.3968	67.3828	85.4784	67.3828	85.4461	67.3828	85.5295	67.3828	85.4956	67.3828	85.5757	67.3828	85.5435	67.3828	85.6157	67.3828	85.5879	67.3828	85.6486	67.3828	85.6267	67.3828	85.6735	67.3828	85.6582	67.3828	85.6898	67.3828	85.6808	67.3828	85.6967	67.3828	85.6938
