"SPL Vertical"
"On-Axis"		"10°"		"-10°"		"20°"		"-20°"		"30°"		"-30°"		"40°"		"-40°"		"50°"		"-50°"		"60°"		"-60°"		"70°"		"-70°"		"80°"		"-80°"		"90°"		"-90°"		"100°"		"-100°"		"110°"		"-110°"		"120°"		"-120°"		"130°"		"-130°"		"140°"		"-140°"		"150°"		"-150°"		"160°"		"-160°"		"170°"		"-170°"		"180°"
"Frequency / Hz"	"Sound Pressure Level / dB (re 20 µPa/V)  [2.83  V @ 1. m]"	"Frequency / Hz"	"Sound Pressure Level / dB (re 20 µPa/V)  [2.83  V @ 1. m]"	"Frequency / Hz"	"Sound Pressure Level / dB (re 20 µPa/V)  [2.83  V @ 1. m]"	"Frequency / Hz"	"Sound Pressure Level / dB (re 20 µPa/V)  [2.83  V @ 1. m]"	"Frequency / Hz"	"Sound Pressure Level / dB (re 20 µPa/V)  [2.83  V @ 1. m]"	"Frequency / Hz"	"Sound Pressure Level / dB (re 20 µPa/V)  [2.83  V @ 1. m]"	"Frequency / Hz"	"Sound Pressure Level / dB (re 20 µPa/V)  [2.83  V @ 1. m]"	"Frequency / Hz"	"Sound Pressure Level / dB (re 20 µPa/V)  [2.83  V @ 1. m]"	"Frequency / Hz"	"Sound Pressure Level / dB (re 20 µPa/V)  [2.83  V @ 1. m]"	"Frequency / Hz"	"Sound Pressure Level / dB (re 20 µPa/V)  [2.83  V @ 1. m]"	"Frequency / Hz"	"Sound Pressure Level / dB (re 20 µPa/V)  [2.83  V @ 1. m]"	"Frequency / Hz"	"Sound Pressure Level / dB (re 20 µPa/V)  [2.83  V @ 1. m]"	"Frequency / Hz"	"Sound Pressure Level / dB (re 20 µPa/V)  [2.83  V @ 1. m]"	"Frequency / Hz"	"Sound Pressure Level / dB (re 20 µPa/V)  [2.83  V @ 1. m]"	"Frequency / Hz"	"Sound Pressure Level / dB (re 20 µPa/V)  [2.83  V @ 1. m]"	"Frequency / Hz"	"Sound Pressure Level / dB (re 20 µPa/V)  [2.83  V @ 1. m]"	"Frequency / Hz"	"Sound Pressure Level / dB (re 20 µPa/V)  [2.83  V @ 1. m]"	"Frequency / Hz"	"Sound Pressure Level / dB (re 20 µPa/V)  [2.83  V @ 1. m]"	"Frequency / Hz"	"Sound Pressure Level / dB (re 20 µPa/V)  [2.83  V @ 1. m]"	"Frequency / Hz"	"Sound Pressure Level / dB (re 20 µPa/V)  [2.83  V @ 1. m]"	"Frequency / Hz"	"Sound Pressure Level / dB (re 20 µPa/V)  [2.83  V @ 1. m]"	"Frequency / Hz"	"Sound Pressure Level / dB (re 20 µPa/V)  [2.83  V @ 1. m]"	"Frequency / Hz"	"Sound Pressure Level / dB (re 20 µPa/V)  [2.83  V @ 1. m]"	"Frequency / Hz"	"Sound Pressure Level / dB (re 20 µPa/V)  [2.83  V @ 1. m]"	"Frequency / Hz"	"Sound Pressure Level / dB (re 20 µPa/V)  [2.83  V @ 1. m]"	"Frequency / Hz"	"Sound Pressure Level / dB (re 20 µPa/V)  [2.83  V @ 1. m]"	"Frequency / Hz"	"Sound Pressure Level / dB (re 20 µPa/V)  [2.83  V @ 1. m]"	"Frequency / Hz"	"Sound Pressure Level / dB (re 20 µPa/V)  [2.83  V @ 1. m]"	"Frequency / Hz"	"Sound Pressure Level / dB (re 20 µPa/V)  [2.83  V @ 1. m]"	"Frequency / Hz"	"Sound Pressure Level / dB (re 20 µPa/V)  [2.83  V @ 1. m]"	"Frequency / Hz"	"Sound Pressure Level / dB (re 20 µPa/V)  [2.83  V @ 1. m]"	"Frequency / Hz"	"Sound Pressure Level / dB (re 20 µPa/V)  [2.83  V @ 1. m]"	"Frequency / Hz"	"Sound Pressure Level / dB (re 20 µPa/V)  [2.83  V @ 1. m]"	"Frequency / Hz"	"Sound Pressure Level / dB (re 20 µPa/V)  [2.83  V @ 1. m]"	"Frequency / Hz"	"Sound Pressure Level / dB (re 20 µPa/V)  [2.83  V @ 1. m]"	"Frequency / Hz"	"Sound Pressure Level / dB (re 20 µPa/V)  [2.83  V @ 1. m]"
20.5078	35.6028	20.5078	35.8002	20.5078	35.3488	20.5078	35.9379	20.5078	35.0429	20.5078	36.0146	20.5078	34.6918	20.5078	36.0302	20.5078	34.3041	20.5078	35.9855	20.5078	33.8905	20.5078	35.8824	20.5078	33.4635	20.5078	35.7232	20.5078	33.0371	20.5078	35.5112	20.5078	32.6262	20.5078	35.2502	20.5078	32.2461	20.5078	34.9447	20.5078	31.912	20.5078	34.6005	20.5078	31.6377	20.5078	34.225	20.5078	31.4348	20.5078	33.827	20.5078	31.3119	20.5078	33.4175	20.5078	31.2737	20.5078	33.0088	20.5078	31.3209	20.5078	32.6144	20.5078	31.4499	20.5078	32.2483	20.5078	31.654	20.5078	31.9239
21.9727	32.4772	21.9727	32.4407	21.9727	32.5149	21.9727	32.4094	21.9727	32.551	21.9727	32.3876	21.9727	32.5841	21.9727	32.3793	21.9727	32.6142	21.9727	32.3869	21.9727	32.6416	21.9727	32.411	21.9727	32.6671	21.9727	32.4504	21.9727	32.6911	21.9727	32.5019	21.9727	32.7134	21.9727	32.5615	21.9727	32.7338	21.9727	32.6244	21.9727	32.7516	21.9727	32.6861	21.9727	32.7667	21.9727	32.742	21.9727	32.7792	21.9727	32.7885	21.9727	32.79	21.9727	32.8231	21.9727	32.8	21.9727	32.8447	21.9727	32.8105	21.9727	32.854	21.9727	32.822	21.9727	32.8532	21.9727	32.8342	21.9727	32.8455
23.4375	34.4209	23.4375	34.3864	23.4375	34.4321	23.4375	34.3264	23.4375	34.4222	23.4375	34.2386	23.4375	34.3931	23.4375	34.1216	23.4375	34.346	23.4375	33.9754	23.4375	34.2817	23.4375	33.8015	23.4375	34.2006	23.4375	33.6037	23.4375	34.1028	23.4375	33.388	23.4375	33.9881	23.4375	33.1628	23.4375	33.8566	23.4375	32.9384	23.4375	33.7089	23.4375	32.7267	23.4375	33.5462	23.4375	32.5398	23.4375	33.3708	23.4375	32.3888	23.4375	33.1865	23.4375	32.2828	23.4375	32.9984	23.4375	32.227	23.4375	32.8133	23.4375	32.2229	23.4375	32.639	23.4375	32.2682	23.4375	32.4842	23.4375	32.3578
24.9023	30.7617	24.9023	30.8814	24.9023	30.5923	24.9023	30.9498	24.9023	30.3768	24.9023	30.9668	24.9023	30.1212	24.9023	30.9343	24.9023	29.8333	24.9023	30.8555	24.9023	29.5229	24.9023	30.7345	24.9023	29.2016	24.9023	30.5767	24.9023	28.8823	24.9023	30.388	24.9023	28.5786	24.9023	30.1746	24.9023	28.304	24.9023	29.9433	24.9023	28.0709	24.9023	29.7005	24.9023	27.8895	24.9023	29.4526	24.9023	27.7663	24.9023	29.2054	24.9023	27.7036	24.9023	28.9642	24.9023	27.6995	24.9023	28.7329	24.9023	27.7481	24.9023	28.5151	24.9023	27.8416	24.9023	28.3134	24.9023	27.9717	24.9023	28.1309
26.3672	28.2491	26.3672	28.4053	26.3672	28.0337	26.3672	28.4967	26.3672	27.767	26.3672	28.5196	26.3672	27.459	26.3672	28.4732	26.3672	27.1204	26.3672	28.359	26.3672	26.7629	26.3672	28.1806	26.3672	26.3983	26.3672	27.9438	26.3672	26.038	26.3672	27.6566	26.3672	25.6928	26.3672	27.3289	26.3672	25.3727	26.3672	26.9731	26.3672	25.0869	26.3672	26.6033	26.3672	24.8438	26.3672	26.2348	26.3672	24.6506	26.3672	25.8824	26.3672	24.5128	26.3672	25.5584	26.3672	24.4332	26.3672	25.2712	26.3672	24.4114	26.3672	25.0243	26.3672	24.4441	26.3672	24.818	26.3672	24.5259	26.3672	24.6516
27.832	26.9942	27.832	27.1772	27.832	26.7453	27.832	27.2898	27.832	26.4383	27.832	27.3308	27.832	26.0842	27.832	27.3015	27.832	25.6974	27.832	27.2054	27.832	25.2946	27.832	27.0479	27.832	24.8942	27.832	26.8359	27.832	24.5148	27.832	26.5776	27.832	24.1736	27.832	26.2827	27.832	23.8846	27.832	25.9624	27.832	23.6569	27.832	25.6289	27.832	23.4948	27.832	25.2952	27.832	23.397	27.832	24.9737	27.832	23.3584	27.832	24.6747	27.832	23.3712	27.832	24.4052	27.832	23.4271	27.832	24.1681	27.832	23.5182	27.832	23.963	27.832	23.6392	27.832	23.7874
29.2969	32.2363	29.2969	32.2317	29.2969	32.2572	29.2969	32.2435	29.2969	32.2938	29.2969	32.2711	29.2969	32.3442	29.2969	32.313	29.2969	32.4058	29.2969	32.3677	29.2969	32.4754	29.2969	32.4332	29.2969	32.5497	29.2969	32.5075	29.2969	32.6253	29.2969	32.5882	29.2969	32.6997	29.2969	32.6728	29.2969	32.7708	29.2969	32.7589	29.2969	32.8375	29.2969	32.8435	29.2969	32.8993	29.2969	32.9235	29.2969	32.956	29.2969	32.9959	29.2969	33.0077	29.2969	33.0576	29.2969	33.054	29.2969	33.1061	29.2969	33.0941	29.2969	33.1397	29.2969	33.1265	29.2969	33.1577	29.2969	33.1494	29.2969	33.1604
30.7617	24.1345	30.7617	24.0697	30.7617	24.2577	30.7617	24.0638	30.7617	24.4318	30.7617	24.1106	30.7617	24.6438	30.7617	24.1988	30.7617	24.8773	30.7617	24.3149	30.7617	25.1153	30.7617	24.4453	30.7617	25.3421	30.7617	24.5785	30.7617	25.5449	30.7617	24.7062	30.7617	25.7143	30.7617	24.8234	30.7617	25.8444	30.7617	24.9284	30.7617	25.9326	30.7617	25.0213	30.7617	25.9795	30.7617	25.1045	30.7617	25.9878	30.7617	25.1809	30.7617	25.9625	30.7617	25.2541	30.7617	25.91	30.7617	25.3276	30.7617	25.8378	30.7617	25.4043	30.7617	25.7532	30.7617	25.4859	30.7617	25.663	30.7617	25.5727
32.2266	31.8594	32.2266	31.8465	32.2266	31.8809	32.2266	31.8416	32.2266	31.9111	32.2266	31.8445	32.2266	31.9498	32.2266	31.855	32.2266	31.9956	32.2266	31.8728	32.2266	32.0465	32.2266	31.8976	32.2266	32.0993	32.2266	31.9286	32.2266	32.1506	32.2266	31.9645	32.2266	32.1971	32.2266	32.0039	32.2266	32.236	32.2266	32.0448	32.2266	32.2655	32.2266	32.0852	32.2266	32.2849	32.2266	32.1231	32.2266	32.2947	32.2266	32.1569	32.2266	32.2965	32.2266	32.1856	32.2266	32.2923	32.2266	32.2089	32.2266	32.2844	32.2266	32.2272	32.2266	32.2748	32.2266	32.2417	32.2266	32.2645	32.2266	32.2537
33.6914	15.2025	33.6914	14.6967	33.6914	15.617	33.6914	14.0629	33.6914	15.9709	33.6914	13.2555	33.6914	16.2894	33.6914	12.2137	33.6914	16.5908	33.6914	10.849	33.6914	16.8855	33.6914	9.02524	33.6914	17.1765	33.6914	6.53861	33.6914	17.4608	33.6914	3.27529	33.6914	17.7324	33.6914	1.03191	33.6914	17.9844	33.6914	3.6179	33.6914	18.2101	33.6914	7.37279	33.6914	18.4035	33.6914	10.3307	33.6914	18.5583	33.6914	12.5727	33.6914	18.6662	33.6914	14.2928	33.6914	18.7156	33.6914	15.6202	33.6914	18.6911	33.6914	16.6377	33.6914	18.5728	33.6914	17.4024	33.6914	18.3372	33.6914	17.9572
35.1562	33.0408	35.1562	33.0579	35.1562	33.0196	35.1562	33.0695	35.1562	32.9971	35.1562	33.0751	35.1562	32.9762	35.1562	33.0756	35.1562	32.9601	35.1562	33.0729	35.1562	32.9515	35.1562	33.0699	35.1562	32.9526	35.1562	33.0696	35.1562	32.9647	35.1562	33.075	35.1562	32.9883	35.1562	33.0886	35.1562	33.0227	35.1562	33.1117	35.1562	33.0669	35.1562	33.1445	35.1562	33.1186	35.1562	33.1856	35.1562	33.1749	35.1562	33.2322	35.1562	33.2324	35.1562	33.2802	35.1562	33.2869	35.1562	33.3252	35.1562	33.3342	35.1562	33.3624	35.1562	33.3703	35.1562	33.3877	35.1562	33.3923	35.1562	33.3982
36.6211	33.2023	36.6211	33.1687	36.6211	33.2381	36.6211	33.1384	36.6211	33.2747	36.6211	33.1125	36.6211	33.3111	36.6211	33.092	36.6211	33.346	36.6211	33.0776	36.6211	33.3781	36.6211	33.0697	36.6211	33.4059	36.6211	33.0682	36.6211	33.4283	36.6211	33.0729	36.6211	33.444	36.6211	33.0833	36.6211	33.4523	36.6211	33.0986	36.6211	33.4528	36.6211	33.1179	36.6211	33.446	36.6211	33.1402	36.6211	33.4326	36.6211	33.1645	36.6211	33.4139	36.6211	33.1899	36.6211	33.3916	36.6211	33.2156	36.6211	33.3671	36.6211	33.241	36.6211	33.3418	36.6211	33.2662	36.6211	33.3164	36.6211	33.2912
38.0859	29.9345	38.0859	29.9864	38.0859	29.8483	38.0859	30.0007	38.0859	29.7332	38.0859	29.9769	38.0859	29.5966	38.0859	29.9172	38.0859	29.447	38.0859	29.826	38.0859	29.2935	38.0859	29.7094	38.0859	29.1447	38.0859	29.5753	38.0859	29.0084	38.0859	29.432	38.0859	28.8907	38.0859	29.2883	38.0859	28.7957	38.0859	29.1524	38.0859	28.7253	38.0859	29.0314	38.0859	28.6792	38.0859	28.9303	38.0859	28.6549	38.0859	28.8515	38.0859	28.648	38.0859	28.7948	38.0859	28.6535	38.0859	28.7571	38.0859	28.666	38.0859	28.7335	38.0859	28.6806	38.0859	28.7183	38.0859	28.6945	38.0859	28.7066
39.5508	30.6047	39.5508	30.432	39.5508	30.7467	39.5508	30.2311	39.5508	30.8581	39.5508	30.0068	39.5508	30.9401	39.5508	29.7667	39.5508	30.9946	39.5508	29.5211	39.5508	31.0234	39.5508	29.2819	39.5508	31.028	39.5508	29.062	39.5508	31.0088	39.5508	28.8736	39.5508	30.9657	39.5508	28.7269	39.5508	30.8984	39.5508	28.6292	39.5508	30.8062	39.5508	28.5835	39.5508	30.6893	39.5508	28.5894	39.5508	30.5485	39.5508	28.6428	39.5508	30.386	39.5508	28.738	39.5508	30.2051	39.5508	28.8678	39.5508	30.0103	39.5508	29.0254	39.5508	29.807	39.5508	29.2042	39.5508	29.6009	39.5508	29.398
41.0156	33.896	41.0156	33.8114	41.0156	34.0178	41.0156	33.7651	41.0156	34.1744	41.0156	33.7576	41.0156	34.3617	41.0156	33.7887	41.0156	34.574	41.0156	33.858	41.0156	34.804	41.0156	33.9646	41.0156	35.0438	41.0156	34.1063	41.0156	35.2846	41.0156	34.2802	41.0156	35.5182	41.0156	34.4812	41.0156	35.737	41.0156	34.7032	41.0156	35.9342	41.0156	34.9384	41.0156	36.1042	41.0156	35.1787	41.0156	36.2429	41.0156	35.4156	41.0156	36.3469	41.0156	35.6411	41.0156	36.4141	41.0156	35.848	41.0156	36.4434	41.0156	36.0302	41.0156	36.4343	41.0156	36.183	41.0156	36.3871	41.0156	36.3028
42.4805	35.2999	42.4805	35.2154	42.4805	35.3674	42.4805	35.1182	42.4805	35.415	42.4805	35.0135	42.4805	35.4416	42.4805	34.9067	42.4805	35.448	42.4805	34.8032	42.4805	35.4363	42.4805	34.7074	42.4805	35.4092	42.4805	34.6227	42.4805	35.3695	42.4805	34.5517	42.4805	35.3192	42.4805	34.4953	42.4805	35.2595	42.4805	34.4536	42.4805	35.191	42.4805	34.4259	42.4805	35.1141	42.4805	34.4108	42.4805	35.03	42.4805	34.4069	42.4805	34.9407	42.4805	34.4132	42.4805	34.8495	42.4805	34.4293	42.4805	34.7604	42.4805	34.4555	42.4805	34.6775	42.4805	34.4929	42.4805	34.604	42.4805	34.5422
43.9453	38.0845	43.9453	38.0166	43.9453	38.1532	43.9453	37.954	43.9453	38.2197	43.9453	37.9016	43.9453	38.282	43.9453	37.8646	43.9453	38.3396	43.9453	37.8473	43.9453	38.3926	43.9453	37.853	43.9453	38.4419	43.9453	37.8828	43.9453	38.4885	43.9453	37.9362	43.9453	38.533	43.9453	38.0104	43.9453	38.5758	43.9453	38.1011	43.9453	38.617	43.9453	38.2028	43.9453	38.6561	43.9453	38.3092	43.9453	38.6923	43.9453	38.4142	43.9453	38.7244	43.9453	38.5119	43.9453	38.7508	43.9453	38.5976	43.9453	38.7695	43.9453	38.6678	43.9453	38.7783	43.9453	38.7208	43.9453	38.7746	43.9453	38.7561
45.4102	37.3213	45.4102	37.3209	45.4102	37.3151	45.4102	37.3158	45.4102	37.3016	45.4102	37.3087	45.4102	37.2813	45.4102	37.3026	45.4102	37.2558	45.4102	37.3002	45.4102	37.2279	45.4102	37.3032	45.4102	37.2005	45.4102	37.3125	45.4102	37.1769	45.4102	37.3278	45.4102	37.1599	45.4102	37.3478	45.4102	37.1516	45.4102	37.3706	45.4102	37.1532	45.4102	37.3937	45.4102	37.1651	45.4102	37.4147	45.4102	37.1866	45.4102	37.4311	45.4102	37.2162	45.4102	37.4411	45.4102	37.2517	45.4102	37.4431	45.4102	37.2902	45.4102	37.4362	45.4102	37.329	45.4102	37.4205	45.4102	37.3652	45.4102	37.3964
46.875	38.7357	46.875	38.7237	46.875	38.7507	46.875	38.7155	46.875	38.7678	46.875	38.7124	46.875	38.7862	46.875	38.7153	46.875	38.8058	46.875	38.7249	46.875	38.8263	46.875	38.7414	46.875	38.848	46.875	38.7647	46.875	38.8711	46.875	38.7942	46.875	38.8955	46.875	38.8289	46.875	38.9215	46.875	38.8674	46.875	38.9487	46.875	38.908	46.875	38.9766	46.875	38.9488	46.875	39.0045	46.875	38.9878	46.875	39.0312	46.875	39.0233	46.875	39.0555	46.875	39.0534	46.875	39.0758	46.875	39.0768	46.875	39.0908	46.875	39.0924	46.875	39.0991	46.875	39.0998
48.3398	39.1692	48.3398	39.1912	48.3398	39.1505	48.3398	39.2156	48.3398	39.1353	48.3398	39.2413	48.3398	39.1233	48.3398	39.2665	48.3398	39.1141	48.3398	39.2893	48.3398	39.1071	48.3398	39.3079	48.3398	39.1017	48.3398	39.3204	48.3398	39.0974	48.3398	39.326	48.3398	39.0937	48.3398	39.324	48.3398	39.0906	48.3398	39.3146	48.3398	39.088	48.3398	39.2988	48.3398	39.0861	48.3398	39.2778	48.3398	39.0854	48.3398	39.2533	48.3398	39.0865	48.3398	39.227	48.3398	39.0897	48.3398	39.2007	48.3398	39.0956	48.3398	39.1756	48.3398	39.1047	48.3398	39.153	48.3398	39.1173	48.3398	39.1334
51.2695	43.9844	51.2695	43.979	51.2695	43.979	51.2695	43.9633	51.2695	43.9625	51.2695	43.9386	51.2695	43.9356	51.2695	43.906	51.2695	43.899	51.2695	43.867	51.2695	43.8543	51.2695	43.8232	51.2695	43.8033	51.2695	43.7759	51.2695	43.748	51.2695	43.7267	51.2695	43.6905	51.2695	43.6766	51.2695	43.6329	51.2695	43.627	51.2695	43.5772	51.2695	43.5788	51.2695	43.5252	51.2695	43.5331	51.2695	43.4786	51.2695	43.491	51.2695	43.4386	51.2695	43.4533	51.2695	43.4064	51.2695	43.421	51.2695	43.3826	51.2695	43.395	51.2695	43.3678	51.2695	43.376	51.2695	43.3619	51.2695	43.3647
52.7344	45.6253	52.7344	45.6305	52.7344	45.6135	52.7344	45.6291	52.7344	45.5954	52.7344	45.6214	52.7344	45.5714	52.7344	45.6077	52.7344	45.5422	52.7344	45.5887	52.7344	45.5088	52.7344	45.5652	52.7344	45.4724	52.7344	45.5381	52.7344	45.4342	52.7344	45.5085	52.7344	45.3958	52.7344	45.4772	52.7344	45.3585	52.7344	45.4453	52.7344	45.324	52.7344	45.4137	52.7344	45.2936	52.7344	45.3829	52.7344	45.2683	52.7344	45.3537	52.7344	45.2489	52.7344	45.3264	52.7344	45.236	52.7344	45.3016	52.7344	45.2296	52.7344	45.2796	52.7344	45.2295	52.7344	45.2608	52.7344	45.2351	52.7344	45.2457
54.1992	46.9321	54.1992	46.9437	54.1992	46.9136	54.1992	46.9483	54.1992	46.8889	54.1992	46.946	54.1992	46.859	54.1992	46.9369	54.1992	46.8249	54.1992	46.922	54.1992	46.7879	54.1992	46.9019	54.1992	46.7496	54.1992	46.8776	54.1992	46.7113	54.1992	46.8504	54.1992	46.6745	54.1992	46.8211	54.1992	46.6406	54.1992	46.7909	54.1992	46.6109	54.1992	46.7606	54.1992	46.5864	54.1992	46.7309	54.1992	46.5679	54.1992	46.7023	54.1992	46.5559	54.1992	46.6752	54.1992	46.5505	54.1992	46.6497	54.1992	46.5514	54.1992	46.6261	54.1992	46.5582	54.1992	46.6045	54.1992	46.5698	54.1992	46.5856
55.6641	48.3328	55.6641	48.3481	55.6641	48.3182	55.6641	48.3632	55.6641	48.3046	55.6641	48.3774	55.6641	48.2923	55.6641	48.3899	55.6641	48.2815	55.6641	48.3999	55.6641	48.2723	55.6641	48.4067	55.6641	48.2647	55.6641	48.4102	55.6641	48.2587	55.6641	48.4101	55.6641	48.2544	55.6641	48.4068	55.6641	48.2519	55.6641	48.4007	55.6641	48.2513	55.6641	48.3925	55.6641	48.2529	55.6641	48.3827	55.6641	48.2565	55.6641	48.3721	55.6641	48.2623	55.6641	48.3608	55.6641	48.27	55.6641	48.3493	55.6641	48.2794	55.6641	48.3375	55.6641	48.2901	55.6641	48.3256	55.6641	48.3016	55.6641	48.3135
58.5938	51.7627	58.5938	51.7749	58.5938	51.7422	58.5938	51.7783	58.5938	51.7142	58.5938	51.7728	58.5938	51.6797	58.5938	51.7586	58.5938	51.6399	58.5938	51.7361	58.5938	51.5963	58.5938	51.7063	58.5938	51.5501	58.5938	51.6701	58.5938	51.5031	58.5938	51.629	58.5938	51.4565	58.5938	51.5843	58.5938	51.4119	58.5938	51.5377	58.5938	51.3705	58.5938	51.4906	58.5938	51.3336	58.5938	51.4447	58.5938	51.302	58.5938	51.4011	58.5938	51.2767	58.5938	51.3613	58.5938	51.2581	58.5938	51.3261	58.5938	51.2467	58.5938	51.2964	58.5938	51.2425	58.5938	51.2728	58.5938	51.2456	58.5938	51.2557
60.0586	53.7791	60.0586	53.7892	60.0586	53.7638	60.0586	53.7936	60.0586	53.744	60.0586	53.7919	60.0586	53.7205	60.0586	53.7841	60.0586	53.6943	60.0586	53.7704	60.0586	53.6661	60.0586	53.7512	60.0586	53.6369	60.0586	53.7272	60.0586	53.6075	60.0586	53.6994	60.0586	53.5789	60.0586	53.6689	60.0586	53.5517	60.0586	53.6368	60.0586	53.5266	60.0586	53.6043	60.0586	53.5043	60.0586	53.5727	60.0586	53.4851	60.0586	53.5431	60.0586	53.4693	60.0586	53.5164	60.0586	53.4574	60.0586	53.4934	60.0586	53.4494	60.0586	53.4746	60.0586	53.4455	60.0586	53.4604	60.0586	53.4459	60.0586	53.4509
62.9883	56.3603	62.9883	56.3749	62.9883	56.3415	62.9883	56.3847	62.9883	56.3192	62.9883	56.3897	62.9883	56.2941	62.9883	56.3898	62.9883	56.2673	62.9883	56.3852	62.9883	56.2399	62.9883	56.3763	62.9883	56.213	62.9883	56.3636	62.9883	56.1877	62.9883	56.3478	62.9883	56.1649	62.9883	56.3295	62.9883	56.1455	62.9883	56.3095	62.9883	56.1301	62.9883	56.2885	62.9883	56.119	62.9883	56.267	62.9883	56.1123	62.9883	56.2456	62.9883	56.11	62.9883	56.2247	62.9883	56.1119	62.9883	56.2046	62.9883	56.1175	62.9883	56.1856	62.9883	56.1263	62.9883	56.168	62.9883	56.138	62.9883	56.152
64.4531	57.7507	64.4531	57.7709	64.4531	57.7266	64.4531	57.7865	64.4531	57.6994	64.4531	57.7973	64.4531	57.67	64.4531	57.8031	64.4531	57.6398	64.4531	57.804	64.4531	57.6098	64.4531	57.8004	64.4531	57.5814	64.4531	57.7926	64.4531	57.5558	64.4531	57.7812	64.4531	57.5341	64.4531	57.7668	64.4531	57.5171	64.4531	57.7501	64.4531	57.5054	64.4531	57.7315	64.4531	57.4992	64.4531	57.7116	64.4531	57.4986	64.4531	57.6907	64.4531	57.5033	64.4531	57.6692	64.4531	57.5126	64.4531	57.6473	64.4531	57.5259	64.4531	57.6252	64.4531	57.5424	64.4531	57.6032	64.4531	57.5613	64.4531	57.5818
67.3828	60.5421	67.3828	60.5686	67.3828	60.5114	67.3828	60.59	67.3828	60.4773	67.3828	60.6056	67.3828	60.4413	67.3828	60.6151	67.3828	60.4045	67.3828	60.6184	67.3828	60.3685	67.3828	60.6158	67.3828	60.3345	67.3828	60.6076	67.3828	60.3041	67.3828	60.5945	67.3828	60.2783	67.3828	60.5773	67.3828	60.2582	67.3828	60.5567	67.3828	60.2445	67.3828	60.5335	67.3828	60.2375	67.3828	60.5084	67.3828	60.2374	67.3828	60.482	67.3828	60.2437	67.3828	60.4548	67.3828	60.2558	67.3828	60.4271	67.3828	60.2729	67.3828	60.3991	67.3828	60.294	67.3828	60.3713	67.3828	60.318	67.3828	60.3441
