"SPL Horizontal"
"On-Axis"		"10°"		"-10°"		"20°"		"-20°"		"30°"		"-30°"		"40°"		"-40°"		"50°"		"-50°"		"60°"		"-60°"		"70°"		"-70°"		"80°"		"-80°"		"90°"		"-90°"		"100°"		"-100°"		"110°"		"-110°"		"120°"		"-120°"		"130°"		"-130°"		"140°"		"-140°"		"150°"		"-150°"		"160°"		"-160°"		"170°"		"-170°"		"180°"
"Frequency / Hz"	"Sound Pressure Level / dB (re 20 µPa/V)  [2.83  V @ 1. m]"	"Frequency / Hz"	"Sound Pressure Level / dB (re 20 µPa/V)  [2.83  V @ 1. m]"	"Frequency / Hz"	"Sound Pressure Level / dB (re 20 µPa/V)  [2.83  V @ 1. m]"	"Frequency / Hz"	"Sound Pressure Level / dB (re 20 µPa/V)  [2.83  V @ 1. m]"	"Frequency / Hz"	"Sound Pressure Level / dB (re 20 µPa/V)  [2.83  V @ 1. m]"	"Frequency / Hz"	"Sound Pressure Level / dB (re 20 µPa/V)  [2.83  V @ 1. m]"	"Frequency / Hz"	"Sound Pressure Level / dB (re 20 µPa/V)  [2.83  V @ 1. m]"	"Frequency / Hz"	"Sound Pressure Level / dB (re 20 µPa/V)  [2.83  V @ 1. m]"	"Frequency / Hz"	"Sound Pressure Level / dB (re 20 µPa/V)  [2.83  V @ 1. m]"	"Frequency / Hz"	"Sound Pressure Level / dB (re 20 µPa/V)  [2.83  V @ 1. m]"	"Frequency / Hz"	"Sound Pressure Level / dB (re 20 µPa/V)  [2.83  V @ 1. m]"	"Frequency / Hz"	"Sound Pressure Level / dB (re 20 µPa/V)  [2.83  V @ 1. m]"	"Frequency / Hz"	"Sound Pressure Level / dB (re 20 µPa/V)  [2.83  V @ 1. m]"	"Frequency / Hz"	"Sound Pressure Level / dB (re 20 µPa/V)  [2.83  V @ 1. m]"	"Frequency / Hz"	"Sound Pressure Level / dB (re 20 µPa/V)  [2.83  V @ 1. m]"	"Frequency / Hz"	"Sound Pressure Level / dB (re 20 µPa/V)  [2.83  V @ 1. m]"	"Frequency / Hz"	"Sound Pressure Level / dB (re 20 µPa/V)  [2.83  V @ 1. m]"	"Frequency / Hz"	"Sound Pressure Level / dB (re 20 µPa/V)  [2.83  V @ 1. m]"	"Frequency / Hz"	"Sound Pressure Level / dB (re 20 µPa/V)  [2.83  V @ 1. m]"	"Frequency / Hz"	"Sound Pressure Level / dB (re 20 µPa/V)  [2.83  V @ 1. m]"	"Frequency / Hz"	"Sound Pressure Level / dB (re 20 µPa/V)  [2.83  V @ 1. m]"	"Frequency / Hz"	"Sound Pressure Level / dB (re 20 µPa/V)  [2.83  V @ 1. m]"	"Frequency / Hz"	"Sound Pressure Level / dB (re 20 µPa/V)  [2.83  V @ 1. m]"	"Frequency / Hz"	"Sound Pressure Level / dB (re 20 µPa/V)  [2.83  V @ 1. m]"	"Frequency / Hz"	"Sound Pressure Level / dB (re 20 µPa/V)  [2.83  V @ 1. m]"	"Frequency / Hz"	"Sound Pressure Level / dB (re 20 µPa/V)  [2.83  V @ 1. m]"	"Frequency / Hz"	"Sound Pressure Level / dB (re 20 µPa/V)  [2.83  V @ 1. m]"	"Frequency / Hz"	"Sound Pressure Level / dB (re 20 µPa/V)  [2.83  V @ 1. m]"	"Frequency / Hz"	"Sound Pressure Level / dB (re 20 µPa/V)  [2.83  V @ 1. m]"	"Frequency / Hz"	"Sound Pressure Level / dB (re 20 µPa/V)  [2.83  V @ 1. m]"	"Frequency / Hz"	"Sound Pressure Level / dB (re 20 µPa/V)  [2.83  V @ 1. m]"	"Frequency / Hz"	"Sound Pressure Level / dB (re 20 µPa/V)  [2.83  V @ 1. m]"	"Frequency / Hz"	"Sound Pressure Level / dB (re 20 µPa/V)  [2.83  V @ 1. m]"	"Frequency / Hz"	"Sound Pressure Level / dB (re 20 µPa/V)  [2.83  V @ 1. m]"	"Frequency / Hz"	"Sound Pressure Level / dB (re 20 µPa/V)  [2.83  V @ 1. m]"	"Frequency / Hz"	"Sound Pressure Level / dB (re 20 µPa/V)  [2.83  V @ 1. m]"
20.5078	45.7765	20.5078	46.0745	20.5078	45.479	20.5078	46.3405	20.5078	45.2362	20.5078	46.5595	20.5078	45.1226	20.5078	46.7299	20.5078	45.2174	20.5078	46.8589	20.5078	45.5695	20.5078	46.9546	20.5078	46.1634	20.5078	47.0204	20.5078	46.9189	20.5078	47.0506	20.5078	47.7256	20.5078	47.0332	20.5078	48.4794	20.5078	46.9567	20.5078	49.0993	20.5078	46.8178	20.5078	49.5292	20.5078	46.6285	20.5078	49.7355	20.5078	46.4197	20.5078	49.7045	20.5078	46.2428	20.5078	49.4431	20.5078	46.1652	20.5078	48.9804	20.5078	46.2555	20.5078	48.3714	20.5078	46.5567	20.5078	47.6974	20.5078	47.0593
21.9727	53.1052	21.9727	53.1475	21.9727	53.0469	21.9727	53.1693	21.9727	52.9773	21.9727	53.1679	21.9727	52.8983	21.9727	53.1435	21.9727	52.8087	21.9727	53.0992	21.9727	52.7043	21.9727	53.0402	21.9727	52.5813	21.9727	52.9735	21.9727	52.4394	21.9727	52.9061	21.9727	52.2846	21.9727	52.8444	21.9727	52.1299	21.9727	52.7932	21.9727	51.9939	21.9727	52.7553	21.9727	51.8967	21.9727	52.7306	21.9727	51.8552	21.9727	52.7159	21.9727	51.8775	21.9727	52.7045	21.9727	51.9596	21.9727	52.6874	21.9727	52.0859	21.9727	52.6537	21.9727	52.2334	21.9727	52.5938	21.9727	52.3782	21.9727	52.5016
23.4375	58.5363	23.4375	58.6517	23.4375	58.4324	23.4375	58.7769	23.4375	58.3394	23.4375	58.9077	23.4375	58.2544	23.4375	59.0382	23.4375	58.1729	23.4375	59.1605	23.4375	58.091	23.4375	59.2654	23.4375	58.0056	23.4375	59.3433	23.4375	57.9165	23.4375	59.385	23.4375	57.8259	23.4375	59.3835	23.4375	57.7388	23.4375	59.3349	23.4375	57.6618	23.4375	59.2397	23.4375	57.6021	23.4375	59.103	23.4375	57.5667	23.4375	58.9335	23.4375	57.5607	23.4375	58.7427	23.4375	57.5868	23.4375	58.5431	23.4375	57.6453	23.4375	58.3462	23.4375	57.7345	23.4375	58.1614	23.4375	57.852	23.4375	57.9953
24.9023	60.4844	24.9023	60.4574	24.9023	60.4946	24.9023	60.4147	24.9023	60.4866	24.9023	60.3575	24.9023	60.4591	24.9023	60.2871	24.9023	60.4109	24.9023	60.2061	24.9023	60.3419	24.9023	60.1177	24.9023	60.2534	24.9023	60.0267	24.9023	60.1483	24.9023	59.9382	24.9023	60.0313	24.9023	59.857	24.9023	59.9089	24.9023	59.7868	24.9023	59.7888	24.9023	59.7291	24.9023	59.6793	24.9023	59.6835	24.9023	59.5883	24.9023	59.6477	24.9023	59.5213	24.9023	59.6183	24.9023	59.4806	24.9023	59.5919	24.9023	59.4647	24.9023	59.5659	24.9023	59.4688	24.9023	59.5389	24.9023	59.4865	24.9023	59.5115
26.3672	64.4833	26.3672	64.5111	26.3672	64.4488	26.3672	64.5311	26.3672	64.4085	26.3672	64.5424	26.3672	64.363	26.3672	64.5444	26.3672	64.3128	26.3672	64.5368	26.3672	64.2584	26.3672	64.5195	26.3672	64.2005	26.3672	64.4925	26.3672	64.1404	26.3672	64.4555	26.3672	64.0799	26.3672	64.4087	26.3672	64.0212	26.3672	64.3528	26.3672	63.9664	26.3672	64.2894	26.3672	63.9174	26.3672	64.2209	26.3672	63.8761	26.3672	64.1504	26.3672	63.8442	26.3672	64.081	26.3672	63.823	26.3672	64.0155	26.3672	63.8139	26.3672	63.9563	26.3672	63.8177	26.3672	63.9052	26.3672	63.8346	26.3672	63.8642
27.832	65.1806	27.832	65.1913	27.832	65.1606	27.832	65.1926	27.832	65.1313	27.832	65.185	27.832	65.0932	27.832	65.1692	27.832	65.0472	27.832	65.1458	27.832	64.9942	27.832	65.1156	27.832	64.9356	27.832	65.0795	27.832	64.873	27.832	65.0379	27.832	64.8088	27.832	64.9913	27.832	64.7456	27.832	64.9403	27.832	64.6864	27.832	64.8862	27.832	64.6344	27.832	64.8304	27.832	64.5921	27.832	64.7752	27.832	64.5611	27.832	64.7226	27.832	64.5419	27.832	64.6745	27.832	64.534	27.832	64.6323	27.832	64.5365	27.832	64.5968	27.832	64.5484	27.832	64.5687
29.2969	67.7413	29.2969	67.7499	29.2969	67.7257	29.2969	67.7511	29.2969	67.7039	29.2969	67.7449	29.2969	67.6767	29.2969	67.7317	29.2969	67.6455	29.2969	67.7123	29.2969	67.6115	29.2969	67.6874	29.2969	67.576	29.2969	67.658	29.2969	67.5404	29.2969	67.6252	29.2969	67.5058	29.2969	67.59	29.2969	67.4734	29.2969	67.5533	29.2969	67.444	29.2969	67.5165	29.2969	67.4181	29.2969	67.4808	29.2969	67.3959	29.2969	67.4476	29.2969	67.3777	29.2969	67.4181	29.2969	67.3633	29.2969	67.3932	29.2969	67.3531	29.2969	67.3733	29.2969	67.3472	29.2969	67.3588	29.2969	67.3459	29.2969	67.3497
30.7617	69.5165	30.7617	69.5232	30.7617	69.5042	30.7617	69.524	30.7617	69.4869	30.7617	69.5189	30.7617	69.4651	30.7617	69.5079	30.7617	69.4395	30.7617	69.4914	30.7617	69.4107	30.7617	69.4698	30.7617	69.3795	30.7617	69.4433	30.7617	69.3465	30.7617	69.4122	30.7617	69.3126	30.7617	69.3767	30.7617	69.2786	30.7617	69.3372	30.7617	69.2453	30.7617	69.2949	30.7617	69.2132	30.7617	69.2512	30.7617	69.183	30.7617	69.2084	30.7617	69.1553	30.7617	69.1692	30.7617	69.1309	30.7617	69.1359	30.7617	69.1108	30.7617	69.1105	30.7617	69.096	30.7617	69.0941	30.7617	69.0876	30.7617	69.0866
32.2266	71.1517	32.2266	71.1562	32.2266	71.1403	32.2266	71.1533	32.2266	71.1223	32.2266	71.1426	32.2266	71.0984	32.2266	71.1243	32.2266	71.0692	32.2266	71.0982	32.2266	71.0354	32.2266	71.0648	32.2266	70.9978	32.2266	71.0243	32.2266	70.957	32.2266	70.9772	32.2266	70.9136	32.2266	70.9244	32.2266	70.8682	32.2266	70.867	32.2266	70.8213	32.2266	70.8068	32.2266	70.7733	32.2266	70.7463	32.2266	70.7254	32.2266	70.6884	32.2266	70.6788	32.2266	70.6365	32.2266	70.6354	32.2266	70.5936	32.2266	70.5974	32.2266	70.5622	32.2266	70.5672	32.2266	70.5438	32.2266	70.5471	32.2266	70.5389
33.6914	73.013	33.6914	73.0191	33.6914	73.0008	33.6914	73.0189	33.6914	72.9831	33.6914	73.0119	33.6914	72.9604	33.6914	72.9978	33.6914	72.9334	33.6914	72.9766	33.6914	72.9027	33.6914	72.9482	33.6914	72.869	33.6914	72.9125	33.6914	72.8329	33.6914	72.8699	33.6914	72.7947	33.6914	72.8211	33.6914	72.7546	33.6914	72.7673	33.6914	72.7126	33.6914	72.7102	33.6914	72.669	33.6914	72.6524	33.6914	72.6245	33.6914	72.5967	33.6914	72.5805	33.6914	72.5463	33.6914	72.5389	33.6914	72.5041	33.6914	72.5022	33.6914	72.4724	33.6914	72.4731	33.6914	72.4531	33.6914	72.4541	33.6914	72.4471
35.1562	74.4273	35.1562	74.4292	35.1562	74.4191	35.1562	74.4245	35.1562	74.405	35.1562	74.413	35.1562	74.3857	35.1562	74.3947	35.1562	74.3618	35.1562	74.3697	35.1562	74.3338	35.1562	74.3383	35.1562	74.3025	35.1562	74.3009	35.1562	74.2683	35.1562	74.2581	35.1562	74.2317	35.1562	74.2108	35.1562	74.1928	35.1562	74.16	35.1562	74.1517	35.1562	74.1074	35.1562	74.1088	35.1562	74.055	35.1562	74.065	35.1562	74.0055	35.1562	74.0216	35.1562	73.9616	35.1562	73.9805	35.1562	73.9258	35.1562	73.944	35.1562	73.9001	35.1562	73.9145	35.1562	73.8861	35.1562	73.8939	35.1562	73.8841
36.6211	75.6169	36.6211	75.6176	36.6211	75.6078	36.6211	75.6097	36.6211	75.5905	36.6211	75.5934	36.6211	75.5658	36.6211	75.569	36.6211	75.5345	36.6211	75.537	36.6211	75.4979	36.6211	75.498	36.6211	75.457	36.6211	75.4528	36.6211	75.4131	36.6211	75.4025	36.6211	75.3675	36.6211	75.3481	36.6211	75.3209	36.6211	75.2913	36.6211	75.2742	36.6211	75.2339	36.6211	75.2281	36.6211	75.1783	36.6211	75.1833	36.6211	75.1271	36.6211	75.1408	36.6211	75.083	36.6211	75.1019	36.6211	75.0482	36.6211	75.068	36.6211	75.0243	36.6211	75.0406	36.6211	75.0121	36.6211	75.0213	36.6211	75.0114
38.0859	76.7622	38.0859	76.7642	38.0859	76.751	38.0859	76.7565	38.0859	76.7312	38.0859	76.7394	38.0859	76.7035	38.0859	76.713	38.0859	76.669	38.0859	76.6782	38.0859	76.6289	38.0859	76.6357	38.0859	76.5844	38.0859	76.5865	38.0859	76.5367	38.0859	76.5319	38.0859	76.4869	38.0859	76.4732	38.0859	76.4359	38.0859	76.4121	38.0859	76.3846	38.0859	76.3504	38.0859	76.3337	38.0859	76.2905	38.0859	76.2841	38.0859	76.2349	38.0859	76.2368	38.0859	76.1862	38.0859	76.1935	38.0859	76.1466	38.0859	76.1561	38.0859	76.1182	38.0859	76.1265	38.0859	76.1019	38.0859	76.1067	38.0859	76.0981
39.5508	77.7723	39.5508	77.7744	39.5508	77.7604	39.5508	77.7666	39.5508	77.7395	39.5508	77.7488	39.5508	77.7103	39.5508	77.7215	39.5508	77.6741	39.5508	77.6852	39.5508	77.632	39.5508	77.6409	39.5508	77.5855	39.5508	77.5898	39.5508	77.5359	39.5508	77.5334	39.5508	77.4842	39.5508	77.4735	39.5508	77.4316	39.5508	77.412	39.5508	77.379	39.5508	77.3512	39.5508	77.3274	39.5508	77.2933	39.5508	77.278	39.5508	77.2406	39.5508	77.232	39.5508	77.195	39.5508	77.1913	39.5508	77.1583	39.5508	77.1574	39.5508	77.1316	39.5508	77.1319	39.5508	77.1155	39.5508	77.1159	39.5508	77.1103
41.0156	78.6698	41.0156	78.6689	41.0156	78.6584	41.0156	78.6556	41.0156	78.6354	41.0156	78.6299	41.0156	78.6016	41.0156	78.5923	41.0156	78.5582	41.0156	78.5437	41.0156	78.5069	41.0156	78.4851	41.0156	78.4496	41.0156	78.4183	41.0156	78.3883	41.0156	78.3453	41.0156	78.3252	41.0156	78.2687	41.0156	78.2621	41.0156	78.1913	41.0156	78.2003	41.0156	78.1164	41.0156	78.1408	41.0156	78.047	41.0156	78.0842	41.0156	77.9859	41.0156	78.0314	41.0156	77.9357	41.0156	77.9832	41.0156	77.8979	41.0156	77.9411	41.0156	77.8736	41.0156	77.9063	41.0156	77.8631	41.0156	77.8807	41.0156	77.8658
42.4805	79.28	42.4805	79.2684	42.4805	79.2796	42.4805	79.2452	42.4805	79.2675	42.4805	79.2109	42.4805	79.244	42.4805	79.1665	42.4805	79.2101	42.4805	79.1133	42.4805	79.1668	42.4805	79.0528	42.4805	79.1157	42.4805	78.987	42.4805	79.0581	42.4805	78.9182	42.4805	78.9958	42.4805	78.8488	42.4805	78.9305	42.4805	78.7814	42.4805	78.8641	42.4805	78.7182	42.4805	78.7985	42.4805	78.6612	42.4805	78.7356	42.4805	78.6117	42.4805	78.6774	42.4805	78.5711	42.4805	78.6257	42.4805	78.5401	42.4805	78.5822	42.4805	78.5196	42.4805	78.5481	42.4805	78.5099	42.4805	78.5243	42.4805	78.5115
43.9453	79.8717	43.9453	79.8709	43.9453	79.8619	43.9453	79.8594	43.9453	79.8418	43.9453	79.8374	43.9453	79.8119	43.9453	79.8055	43.9453	79.7731	43.9453	79.7644	43.9453	79.7264	43.9453	79.7152	43.9453	79.6733	43.9453	79.6592	43.9453	79.6154	43.9453	79.5981	43.9453	79.5543	43.9453	79.5339	43.9453	79.4921	43.9453	79.469	43.9453	79.4305	43.9453	79.4057	43.9453	79.3717	43.9453	79.3465	43.9453	79.3175	43.9453	79.2933	43.9453	79.2694	43.9453	79.2476	43.9453	79.2289	43.9453	79.2106	43.9453	79.1969	43.9453	79.1831	43.9453	79.1742	43.9453	79.1656	43.9453	79.1612	43.9453	79.1583
45.4102	80.1509	45.4102	80.1496	45.4102	80.1405	45.4102	80.1367	45.4102	80.1187	45.4102	80.1128	45.4102	80.0861	45.4102	80.0785	45.4102	80.0436	45.4102	80.0349	45.4102	79.9925	45.4102	79.9832	45.4102	79.9344	45.4102	79.925	45.4102	79.8713	45.4102	79.862	45.4102	79.8052	45.4102	79.7961	45.4102	79.7385	45.4102	79.7297	45.4102	79.6734	45.4102	79.6648	45.4102	79.612	45.4102	79.6037	45.4102	79.5562	45.4102	79.5482	45.4102	79.5075	45.4102	79.5	45.4102	79.4671	45.4102	79.4604	45.4102	79.4358	45.4102	79.4304	45.4102	79.4142	45.4102	79.4106	45.4102	79.4026	45.4102	79.4014
46.875	80.6221	46.875	80.6195	46.875	80.6119	46.875	80.6044	46.875	80.5895	46.875	80.5771	46.875	80.5554	46.875	80.5382	46.875	80.5105	46.875	80.489	46.875	80.4563	46.875	80.431	46.875	80.3944	46.875	80.3661	46.875	80.3268	46.875	80.2966	46.875	80.2557	46.875	80.2247	46.875	80.1834	46.875	80.1529	46.875	80.1122	46.875	80.0835	46.875	80.0445	46.875	80.0186	46.875	79.9823	46.875	79.9598	46.875	79.9274	46.875	79.9089	46.875	79.8814	46.875	79.8669	46.875	79.8454	46.875	79.835	46.875	79.8203	46.875	79.8141	46.875	79.8066	46.875	79.8045
48.3398	80.8847	48.3398	80.8832	48.3398	80.8732	48.3398	80.8687	48.3398	80.849	48.3398	80.8416	48.3398	80.8128	48.3398	80.8028	48.3398	80.7658	48.3398	80.7535	48.3398	80.7093	48.3398	80.6954	48.3398	80.6453	48.3398	80.6302	48.3398	80.576	48.3398	80.5603	48.3398	80.5035	48.3398	80.488	48.3398	80.4305	48.3398	80.4158	48.3398	80.3593	48.3398	80.3459	48.3398	80.292	48.3398	80.2804	48.3398	80.2308	48.3398	80.2213	48.3398	80.1773	48.3398	80.1699	48.3398	80.1328	48.3398	80.1274	48.3398	80.0985	48.3398	80.0949	48.3398	80.075	48.3398	80.073	48.3398	80.0629	48.3398	80.0623
51.2695	81.3485	51.2695	81.3443	51.2695	81.3383	51.2695	81.326	51.2695	81.3141	51.2695	81.2939	51.2695	81.2768	51.2695	81.2495	51.2695	81.2277	51.2695	81.1941	51.2695	81.1686	51.2695	81.1299	51.2695	81.1016	51.2695	81.0593	51.2695	81.0292	51.2695	80.9849	51.2695	80.9541	51.2695	80.9095	51.2695	80.8789	51.2695	80.8358	51.2695	80.8062	51.2695	80.7663	51.2695	80.7384	51.2695	80.7029	51.2695	80.6774	51.2695	80.6473	51.2695	80.6247	51.2695	80.6005	51.2695	80.5814	51.2695	80.563	51.2695	80.5479	51.2695	80.5352	51.2695	80.5248	51.2695	80.5174	51.2695	80.512	51.2695	80.5096
52.7344	81.6008	52.7344	81.599	52.7344	81.587	52.7344	81.5815	52.7344	81.5578	52.7344	81.549	52.7344	81.5144	52.7344	81.5025	52.7344	81.4581	52.7344	81.4438	52.7344	81.3908	52.7344	81.3751	52.7344	81.3151	52.7344	81.2992	52.7344	81.2337	52.7344	81.2189	52.7344	81.1495	52.7344	81.1376	52.7344	81.0658	52.7344	81.0579	52.7344	80.9857	52.7344	80.9826	52.7344	80.9119	52.7344	80.9136	52.7344	80.8468	52.7344	80.8525	52.7344	80.792	52.7344	80.8003	52.7344	80.7485	52.7344	80.7576	52.7344	80.7168	52.7344	80.7249	52.7344	80.6967	52.7344	80.7023	52.7344	80.6879	52.7344	80.6898
54.1992	81.7931	54.1992	81.792	54.1992	81.7783	54.1992	81.7749	54.1992	81.7478	54.1992	81.7424	54.1992	81.7029	54.1992	81.6958	54.1992	81.6449	54.1992	81.6369	54.1992	81.576	54.1992	81.568	54.1992	81.4987	54.1992	81.4919	54.1992	81.4158	54.1992	81.4118	54.1992	81.3307	54.1992	81.3308	54.1992	81.2465	54.1992	81.2518	54.1992	81.1666	54.1992	81.1773	54.1992	81.0938	54.1992	81.1094	54.1992	81.0303	54.1992	81.0495	54.1992	80.9778	54.1992	80.9985	54.1992	80.9372	54.1992	80.9569	54.1992	80.9085	54.1992	80.9248	54.1992	80.8914	54.1992	80.9022	54.1992	80.8851	54.1992	80.8888
55.6641	82.0024	55.6641	82.0017	55.6641	81.985	55.6641	81.9831	55.6641	81.9501	55.6641	81.9472	55.6641	81.8986	55.6641	81.8953	55.6641	81.8324	55.6641	81.8295	55.6641	81.7538	55.6641	81.7521	55.6641	81.6655	55.6641	81.6662	55.6641	81.5711	55.6641	81.575	55.6641	81.4741	55.6641	81.4819	55.6641	81.3786	55.6641	81.3906	55.6641	81.2882	55.6641	81.304	55.6641	81.2062	55.6641	81.2248	55.6641	81.1352	55.6641	81.1551	55.6641	81.0768	55.6641	81.0961	55.6641	81.0315	55.6641	81.0485	55.6641	80.9993	55.6641	81.0125	55.6641	80.9795	55.6641	80.9877	55.6641	80.9712	55.6641	80.9741
58.5938	82.3416	58.5938	82.3346	58.5938	82.3291	58.5938	82.3085	58.5938	82.2973	58.5938	82.2642	58.5938	82.2474	58.5938	82.2034	58.5938	82.1811	58.5938	82.1284	58.5938	82.1006	58.5938	82.042	58.5938	82.0089	58.5938	81.9475	58.5938	81.9096	58.5938	81.8483	58.5938	81.8065	58.5938	81.7483	58.5938	81.7038	58.5938	81.6511	58.5938	81.6055	58.5938	81.56	58.5938	81.5154	58.5938	81.4778	58.5938	81.4362	58.5938	81.4066	58.5938	81.37	58.5938	81.3476	58.5938	81.3175	58.5938	81.3014	58.5938	81.2788	58.5938	81.2679	58.5938	81.253	58.5938	81.2467	58.5938	81.2393	58.5938	81.2373
60.0586	82.5617	60.0586	82.5591	60.0586	82.5451	60.0586	82.5377	60.0586	82.5097	60.0586	82.4983	60.0586	82.4564	60.0586	82.4425	60.0586	82.387	60.0586	82.3722	60.0586	82.3036	60.0586	82.2901	60.0586	82.2093	60.0586	82.199	60.0586	82.1073	60.0586	82.1024	60.0586	82.0014	60.0586	82.0035	60.0586	81.8957	60.0586	81.9056	60.0586	81.7941	60.0586	81.8117	60.0586	81.7003	60.0586	81.7245	60.0586	81.6176	60.0586	81.6461	60.0586	81.5482	60.0586	81.5781	60.0586	81.4938	60.0586	81.5216	60.0586	81.4548	60.0586	81.4774	60.0586	81.4311	60.0586	81.4459	60.0586	81.4222	60.0586	81.4274
62.9883	82.9341	62.9883	82.9289	62.9883	82.92	62.9883	82.9047	62.9883	82.8868	62.9883	82.8625	62.9883	82.8358	62.9883	82.8039	62.9883	82.7685	62.9883	82.7312	62.9883	82.6875	62.9883	82.6471	62.9883	82.5956	62.9883	82.555	62.9883	82.4964	62.9883	82.4584	62.9883	82.3936	62.9883	82.3609	62.9883	82.2914	62.9883	82.2659	62.9883	82.1934	62.9883	82.1765	62.9883	82.1033	62.9883	82.095	62.9883	82.0239	62.9883	82.0232	62.9883	81.9573	62.9883	81.9623	62.9883	81.9047	62.9883	81.9129	62.9883	81.8666	62.9883	81.8751	62.9883	81.8427	62.9883	81.849	62.9883	81.8323	62.9883	81.8346
64.4531	83.0729	64.4531	83.0667	64.4531	83.0596	64.4531	83.0414	64.4531	83.0275	64.4531	82.9979	64.4531	82.9776	64.4531	82.938	64.4531	82.9117	64.4531	82.864	64.4531	82.8324	64.4531	82.7788	64.4531	82.7427	64.4531	82.686	64.4531	82.6461	64.4531	82.5892	64.4531	82.5465	64.4531	82.4924	64.4531	82.4478	64.4531	82.3993	64.4531	82.3536	64.4531	82.3129	64.4531	82.2671	64.4531	82.2355	64.4531	82.191	64.4531	82.1686	64.4531	82.1269	64.4531	82.1129	64.4531	82.0759	64.4531	82.0685	64.4531	82.0383	64.4531	82.0353	64.4531	82.0138	64.4531	82.013	64.4531	82.0018	64.4531	82.0018
67.3828	83.3838	67.3828	83.3718	67.3828	83.3768	67.3828	83.3414	67.3828	83.3512	67.3828	83.2935	67.3828	83.3081	67.3828	83.2301	67.3828	83.249	67.3828	83.1535	67.3828	83.1762	67.3828	83.0668	67.3828	83.0926	67.3828	82.9738	67.3828	83.0014	67.3828	82.878	67.3828	82.9063	67.3828	82.7834	67.3828	82.8111	67.3828	82.6932	67.3828	82.7193	67.3828	82.6104	67.3828	82.6343	67.3828	82.5373	67.3828	82.5585	67.3828	82.4753	67.3828	82.4937	67.3828	82.4253	67.3828	82.4408	67.3828	82.3877	67.3828	82.3999	67.3828	82.3621	67.3828	82.3707	67.3828	82.3481	67.3828	82.3525	67.3828	82.345
