"SPL Vertical"
"On-Axis"		"10°"		"-10°"		"20°"		"-20°"		"30°"		"-30°"		"40°"		"-40°"		"50°"		"-50°"		"60°"		"-60°"		"70°"		"-70°"		"80°"		"-80°"		"90°"		"-90°"		"100°"		"-100°"		"110°"		"-110°"		"120°"		"-120°"		"130°"		"-130°"		"140°"		"-140°"		"150°"		"-150°"		"160°"		"-160°"		"170°"		"-170°"		"180°"
"Frequency [Hz]"	"Sound Pessure Level [dB]    /[0.3V at 1m]"	"Frequency [Hz]"	"Sound Pessure Level [dB]    /[0.3V at 1m]"	"Frequency [Hz]"	"Sound Pessure Level [dB]    /[0.3V at 1m]"	"Frequency [Hz]"	"Sound Pessure Level [dB]    /[0.3V at 1m]"	"Frequency [Hz]"	"Sound Pessure Level [dB]    /[0.3V at 1m]"	"Frequency [Hz]"	"Sound Pessure Level [dB]    /[0.3V at 1m]"	"Frequency [Hz]"	"Sound Pessure Level [dB]    /[0.3V at 1m]"	"Frequency [Hz]"	"Sound Pessure Level [dB]    /[0.3V at 1m]"	"Frequency [Hz]"	"Sound Pessure Level [dB]    /[0.3V at 1m]"	"Frequency [Hz]"	"Sound Pessure Level [dB]    /[0.3V at 1m]"	"Frequency [Hz]"	"Sound Pessure Level [dB]    /[0.3V at 1m]"	"Frequency [Hz]"	"Sound Pessure Level [dB]    /[0.3V at 1m]"	"Frequency [Hz]"	"Sound Pessure Level [dB]    /[0.3V at 1m]"	"Frequency [Hz]"	"Sound Pessure Level [dB]    /[0.3V at 1m]"	"Frequency [Hz]"	"Sound Pessure Level [dB]    /[0.3V at 1m]"	"Frequency [Hz]"	"Sound Pessure Level [dB]    /[0.3V at 1m]"	"Frequency [Hz]"	"Sound Pessure Level [dB]    /[0.3V at 1m]"	"Frequency [Hz]"	"Sound Pessure Level [dB]    /[0.3V at 1m]"	"Frequency [Hz]"	"Sound Pessure Level [dB]    /[0.3V at 1m]"	"Frequency [Hz]"	"Sound Pessure Level [dB]    /[0.3V at 1m]"	"Frequency [Hz]"	"Sound Pessure Level [dB]    /[0.3V at 1m]"	"Frequency [Hz]"	"Sound Pessure Level [dB]    /[0.3V at 1m]"	"Frequency [Hz]"	"Sound Pessure Level [dB]    /[0.3V at 1m]"	"Frequency [Hz]"	"Sound Pessure Level [dB]    /[0.3V at 1m]"	"Frequency [Hz]"	"Sound Pessure Level [dB]    /[0.3V at 1m]"	"Frequency [Hz]"	"Sound Pessure Level [dB]    /[0.3V at 1m]"	"Frequency [Hz]"	"Sound Pessure Level [dB]    /[0.3V at 1m]"	"Frequency [Hz]"	"Sound Pessure Level [dB]    /[0.3V at 1m]"	"Frequency [Hz]"	"Sound Pessure Level [dB]    /[0.3V at 1m]"	"Frequency [Hz]"	"Sound Pessure Level [dB]    /[0.3V at 1m]"	"Frequency [Hz]"	"Sound Pessure Level [dB]    /[0.3V at 1m]"	"Frequency [Hz]"	"Sound Pessure Level [dB]    /[0.3V at 1m]"	"Frequency [Hz]"	"Sound Pessure Level [dB]    /[0.3V at 1m]"	"Frequency [Hz]"	"Sound Pessure Level [dB]    /[0.3V at 1m]"	"Frequency [Hz]"	"Sound Pessure Level [dB]    /[0.3V at 1m]"	"Frequency [Hz]"	"Sound Pessure Level [dB]    /[0.3V at 1m]"
30.7617	65.0474	30.7617	65.0001	30.7617	65.1111	30.7617	64.991	30.7617	65.1732	30.7617	65.043	30.7617	65.2216	30.7617	65.176	30.7617	65.2529	30.7617	65.4027	30.7617	65.2736	30.7617	65.7256	30.7617	65.3025	30.7617	66.1364	30.7617	65.3709	30.7617	66.6173	30.7617	65.5181	30.7617	67.1445	30.7617	65.7809	30.7617	67.6917	30.7617	66.1778	30.7617	68.2327	30.7617	66.6981	30.7617	68.7428	30.7617	67.3028	30.7617	69.1994	30.7617	67.9381	30.7617	69.5825	30.7617	68.5501	30.7617	69.8739	30.7617	69.0944	30.7617	70.0583	30.7617	69.5393	30.7617	70.1233	30.7617	69.8645	30.7617	70.0599
32.2266	67.117	32.2266	67.1341	32.2266	67.128	32.2266	67.1965	32.2266	67.1525	32.2266	67.3209	32.2266	67.1821	32.2266	67.5205	32.2266	67.2162	32.2266	67.8017	32.2266	67.2641	32.2266	68.1629	32.2266	67.3461	32.2266	68.5944	32.2266	67.4911	32.2266	69.0799	32.2266	67.7301	32.2266	69.5992	32.2266	68.0854	32.2266	70.1298	32.2266	68.5592	32.2266	70.6495	32.2266	69.1292	32.2266	71.1366	32.2266	69.7543	32.2266	71.571	32.2266	70.386	32.2266	71.9347	32.2266	70.979	32.2266	72.2115	32.2266	71.4972	32.2266	72.3877	32.2266	71.9151	32.2266	72.4521	32.2266	72.2174	32.2266	72.3967
33.6914	69.9918	33.6914	69.9912	33.6914	70.0042	33.6914	70.0154	33.6914	70.0188	33.6914	70.0796	33.6914	70.0315	33.6914	70.1991	33.6914	70.0446	33.6914	70.3865	33.6914	70.068	33.6914	70.6492	33.6914	70.1199	33.6914	70.987	33.6914	70.2253	33.6914	71.3916	33.6914	70.4109	33.6914	71.8469	33.6914	70.6972	33.6914	72.3318	33.6914	71.0901	33.6914	72.8223	33.6914	71.5755	33.6914	73.2936	33.6914	72.1217	33.6914	73.7221	33.6914	72.6875	33.6914	74.0862	33.6914	73.2305	33.6914	74.3667	33.6914	73.714	33.6914	74.548	33.6914	74.1095	33.6914	74.6178	33.6914	74.398	33.6914	74.5687
35.1562	72.4242	35.1562	72.3906	35.1562	72.4568	35.1562	72.3693	35.1562	72.4786	35.1562	72.3761	35.1562	72.485	35.1562	72.4276	35.1562	72.4778	35.1562	72.5387	35.1562	72.4657	35.1562	72.72	35.1562	72.466	35.1562	72.9748	35.1562	72.5032	35.1562	73.2987	35.1562	72.6057	35.1562	73.6787	35.1562	72.7987	35.1562	74.0959	35.1562	73.0951	35.1562	74.5275	35.1562	73.4885	35.1562	74.9494	35.1562	73.953	35.1562	75.3383	35.1562	74.4496	35.1562	75.6726	35.1562	74.9359	35.1562	75.9338	35.1562	75.3731	35.1562	76.1062	35.1562	75.7315	35.1562	76.1779	35.1562	75.9909	35.1562	76.1406
36.6211	74.356	36.6211	74.3313	36.6211	74.3716	36.6211	74.3078	36.6211	74.3738	36.6211	74.302	36.6211	74.3646	36.6211	74.3344	36.6211	74.3522	36.6211	74.4266	36.6211	74.3511	36.6211	74.5975	36.6211	74.3814	36.6211	74.8577	36.6211	74.4673	36.6211	75.2064	36.6211	74.6331	36.6211	75.6308	36.6211	74.8967	36.6211	76.1087	36.6211	75.2626	36.6211	76.6122	36.6211	75.7185	36.6211	77.1115	36.6211	76.2359	36.6211	77.5777	36.6211	76.777	36.6211	77.9841	36.6211	77.3018	36.6211	78.307	36.6211	77.7734	36.6211	78.5262	36.6211	78.1609	36.6211	78.6264	36.6211	78.4411	36.6211	78.5985
38.0859	75.5995	38.0859	75.5633	38.0859	75.6507	38.0859	75.5538	38.0859	75.7088	38.0859	75.5859	38.0859	75.7708	38.0859	75.6745	38.0859	75.839	38.0859	75.8326	38.0859	75.921	38.0859	76.0678	38.0859	76.0294	38.0859	76.3803	38.0859	76.1803	38.0859	76.7623	38.0859	76.3899	38.0859	77.1986	38.0859	76.6706	38.0859	77.6692	38.0859	77.0257	38.0859	78.1512	38.0859	77.4466	38.0859	78.6211	38.0859	77.913	38.0859	79.0555	38.0859	78.396	38.0859	79.4327	38.0859	78.8633	38.0859	79.7324	38.0859	79.2833	38.0859	79.9374	38.0859	79.6284	38.0859	80.0341	38.0859	79.8769	38.0859	80.0144
39.5508	77.292	39.5508	77.2417	39.5508	77.3631	39.5508	77.2251	39.5508	77.4456	39.5508	77.257	39.5508	77.5347	39.5508	77.352	39.5508	77.6301	39.5508	77.5215	39.5508	77.737	39.5508	77.7714	39.5508	77.8652	39.5508	78.0998	39.5508	78.0283	39.5508	78.4964	39.5508	78.2406	39.5508	78.9445	39.5508	78.5138	39.5508	79.4228	39.5508	78.8521	39.5508	79.9076	39.5508	79.2498	39.5508	80.3755	39.5508	79.6899	39.5508	80.8036	39.5508	80.1472	39.5508	81.171	39.5508	80.5921	39.5508	81.4589	39.5508	80.9947	39.5508	81.6516	39.5508	81.3285	39.5508	81.7377	39.5508	81.5722	39.5508	81.7111
41.0156	79.4703	41.0156	79.4407	41.0156	79.518	41.0156	79.438	41.0156	79.5766	41.0156	79.4712	41.0156	79.6411	41.0156	79.5484	41.0156	79.7099	41.0156	79.6756	41.0156	79.7856	41.0156	79.8558	41.0156	79.8747	41.0156	80.0882	41.0156	79.9873	41.0156	80.368	41.0156	80.1355	41.0156	80.6865	41.0156	80.3303	41.0156	81.0317	41.0156	80.5783	41.0156	81.3888	41.0156	80.8777	41.0156	81.741	41.0156	81.2173	41.0156	82.0707	41.0156	81.5773	41.0156	82.3603	41.0156	81.932	41.0156	82.593	41.0156	82.2549	41.0156	82.7539	41.0156	82.5218	41.0156	82.8315	41.0156	82.7137	41.0156	82.8186
42.4805	80.8931	42.4805	80.8655	42.4805	80.9386	42.4805	80.8632	42.4805	80.9968	42.4805	80.8946	42.4805	81.0646	42.4805	80.9685	42.4805	81.142	42.4805	81.0922	42.4805	81.2323	42.4805	81.271	42.4805	81.3415	42.4805	81.5059	42.4805	81.4785	42.4805	81.7934	42.4805	81.6529	42.4805	82.1249	42.4805	81.873	42.4805	82.4876	42.4805	82.1423	42.4805	82.8649	42.4805	82.4574	42.4805	83.2385	42.4805	82.8065	42.4805	83.5889	42.4805	83.1705	42.4805	83.897	42.4805	83.5255	42.4805	84.1454	42.4805	83.8466	42.4805	84.3187	42.4805	84.1106	42.4805	84.4056	42.4805	84.299	42.4805	84.3992
43.9453	82.393	43.9453	82.3723	43.9453	82.4314	43.9453	82.3757	43.9453	82.4827	43.9453	82.4104	43.9453	82.5447	43.9453	82.484	43.9453	82.6174	43.9453	82.6029	43.9453	82.704	43.9453	82.7712	43.9453	82.8106	43.9453	82.9901	43.9453	82.9452	43.9453	83.2566	43.9453	83.1165	43.9453	83.5633	43.9453	83.3315	43.9453	83.8992	43.9453	83.5927	43.9453	84.25	43.9453	83.8962	43.9453	84.599	43.9453	84.2301	43.9453	84.9285	43.9453	84.576	43.9453	85.2207	43.9453	84.9112	43.9453	85.4586	43.9453	85.2122	43.9453	85.6276	43.9453	85.4572	43.9453	85.7162	43.9453	85.6293	43.9453	85.7172
45.4102	84.136	45.4102	84.1093	45.4102	84.1794	45.4102	84.1051	45.4102	84.2352	45.4102	84.1299	45.4102	84.3009	45.4102	84.1903	45.4102	84.3761	45.4102	84.2918	45.4102	84.4628	45.4102	84.4386	45.4102	84.5655	45.4102	84.6319	45.4102	84.6903	45.4102	84.8693	45.4102	84.8443	45.4102	85.145	45.4102	85.0335	45.4102	85.4491	45.4102	85.2604	45.4102	85.7688	45.4102	85.5227	45.4102	86.0888	45.4102	85.8116	45.4102	86.3924	45.4102	86.1123	45.4102	86.6625	45.4102	86.4059	45.4102	86.8829	45.4102	86.6718	45.4102	87.0397	45.4102	86.8901	45.4102	87.1219	45.4102	87.0446	45.4102	87.1237
46.875	85.5232	46.875	85.5068	46.875	85.5592	46.875	85.5142	46.875	85.6115	46.875	85.5501	46.875	85.6781	46.875	85.6193	46.875	85.7586	46.875	85.7257	46.875	85.8543	46.875	85.8721	46.875	85.9682	46.875	86.0589	46.875	86.1045	46.875	86.2841	46.875	86.2676	46.875	86.5424	46.875	86.461	46.875	86.8256	46.875	86.6855	46.875	87.1226	46.875	86.9381	46.875	87.4199	46.875	87.2105	46.875	87.7028	46.875	87.4897	46.875	87.9557	46.875	87.7593	46.875	88.1636	46.875	88.0012	46.875	88.3133	46.875	88.198	46.875	88.3949	46.875	88.3351	46.875	88.4023
48.3398	86.7868	48.3398	86.7588	48.3398	86.8315	48.3398	86.752	48.3398	86.8894	48.3398	86.7711	48.3398	86.9584	48.3398	86.8214	48.3398	87.0379	48.3398	86.9071	48.3398	87.129	48.3398	87.0313	48.3398	87.2343	48.3398	87.1951	48.3398	87.3577	48.3398	87.397	48.3398	87.5035	48.3398	87.6325	48.3398	87.6754	48.3398	87.8941	48.3398	87.875	48.3398	88.1714	48.3398	88.1003	48.3398	88.4518	48.3398	88.3445	48.3398	88.721	48.3398	88.5962	48.3398	88.9639	48.3398	88.8402	48.3398	89.166	48.3398	89.0594	48.3398	89.3144	48.3398	89.2369	48.3398	89.3991	48.3398	89.3584	48.3398	89.414
51.2695	88.623	51.2695	88.6057	51.2695	88.6625	51.2695	88.6133	51.2695	88.7224	51.2695	88.6485	51.2695	88.8009	51.2695	88.7137	51.2695	88.8975	51.2695	88.8113	51.2695	89.012	51.2695	88.9422	51.2695	89.145	51.2695	89.1065	51.2695	89.2974	51.2695	89.3022	51.2695	89.47	51.2695	89.5256	51.2695	89.6628	51.2695	89.7707	51.2695	89.8742	51.2695	90.0293	51.2695	90.1	51.2695	90.2911	51.2695	90.3335	51.2695	90.5442	51.2695	90.5645	51.2695	90.7754	51.2695	90.781	51.2695	90.9718	51.2695	90.9693	51.2695	91.1211	51.2695	91.1162	51.2695	91.2139	51.2695	91.2105	51.2695	91.2442
52.7344	89.3808	52.7344	89.3636	52.7344	89.422	52.7344	89.3724	52.7344	89.4855	52.7344	89.4088	52.7344	89.5695	52.7344	89.4746	52.7344	89.6728	52.7344	89.5706	52.7344	89.7942	52.7344	89.6974	52.7344	89.9331	52.7344	89.854	52.7344	90.0887	52.7344	90.0387	52.7344	90.2605	52.7344	90.2478	52.7344	90.4472	52.7344	90.476	52.7344	90.6466	52.7344	90.7162	52.7344	90.855	52.7344	90.9592	52.7344	91.0665	52.7344	91.1944	52.7344	91.2732	52.7344	91.4101	52.7344	91.4649	52.7344	91.5944	52.7344	91.6301	52.7344	91.7364	52.7344	91.7574	52.7344	91.8271	52.7344	91.8367	52.7344	91.861
54.1992	90.0196	54.1992	90.0044	54.1992	90.058	54.1992	90.0135	54.1992	90.1183	54.1992	90.0481	54.1992	90.1988	54.1992	90.1088	54.1992	90.2981	54.1992	90.196	54.1992	90.4147	54.1992	90.3095	54.1992	90.5471	54.1992	90.4485	54.1992	90.6939	54.1992	90.6112	54.1992	90.8536	54.1992	90.7949	54.1992	91.0244	54.1992	90.9952	54.1992	91.2039	54.1992	91.2065	54.1992	91.3886	54.1992	91.4211	54.1992	91.5738	54.1992	91.6301	54.1992	91.7529	54.1992	91.8234	54.1992	91.9175	54.1992	91.9904	54.1992	92.058	54.1992	92.121	54.1992	92.1645	54.1992	92.2071	54.1992	92.2284	54.1992	92.2434
55.6641	90.5628	55.6641	90.5471	55.6641	90.5983	55.6641	90.5516	55.6641	90.6526	55.6641	90.5767	55.6641	90.7247	55.6641	90.6228	55.6641	90.813	55.6641	90.6898	55.6641	90.916	55.6641	90.7778	55.6641	91.0318	55.6641	90.8863	55.6641	91.1586	55.6641	91.0144	55.6641	91.2945	55.6641	91.1605	55.6641	91.4374	55.6641	91.3218	55.6641	91.5853	55.6641	91.4942	55.6641	91.7355	55.6641	91.6719	55.6641	91.8843	55.6641	91.8477	55.6641	92.0267	55.6641	92.0129	55.6641	92.1564	55.6641	92.1583	55.6641	92.2656	55.6641	92.275	55.6641	92.3462	55.6641	92.3554	55.6641	92.3909	55.6641	92.3946
58.5938	91.228	58.5938	91.2054	58.5938	91.2687	58.5938	91.2014	58.5938	91.3268	58.5938	91.216	58.5938	91.4012	58.5938	91.2492	58.5938	91.4902	58.5938	91.3011	58.5938	91.5918	58.5938	91.3715	58.5938	91.7038	58.5938	91.4603	58.5938	91.8235	58.5938	91.5669	58.5938	91.9486	58.5938	91.6904	58.5938	92.0766	58.5938	91.8287	58.5938	92.2051	58.5938	91.9787	58.5938	92.3316	58.5938	92.1358	58.5938	92.4534	58.5938	92.2936	58.5938	92.5667	58.5938	92.4445	58.5938	92.667	58.5938	92.5803	58.5938	92.7485	58.5938	92.6925	58.5938	92.8049	58.5938	92.7742	58.5938	92.8304	58.5938	92.8207
60.0586	91.3608	60.0586	91.3377	60.0586	91.4022	60.0586	91.3329	60.0586	91.4615	60.0586	91.3464	60.0586	91.5375	60.0586	91.3777	60.0586	91.6286	60.0586	91.4265	60.0586	91.7326	60.0586	91.4923	60.0586	91.8466	60.0586	91.5749	60.0586	91.9678	60.0586	91.6736	60.0586	92.0931	60.0586	91.7876	60.0586	92.2192	60.0586	91.9153	60.0586	92.3434	60.0586	92.0541	60.0586	92.4629	60.0586	92.2	60.0586	92.5748	60.0586	92.3477	60.0586	92.6759	60.0586	92.4905	60.0586	92.7624	60.0586	92.6208	60.0586	92.8294	60.0586	92.731	60.0586	92.8721	60.0586	92.8146	60.0586	92.8856	60.0586	92.8667
62.9883	91.6022	62.9883	91.573	62.9883	91.6486	62.9883	91.5607	62.9883	91.7118	62.9883	91.5647	62.9883	91.7907	62.9883	91.5844	62.9883	91.8836	62.9883	91.6189	62.9883	91.9878	62.9883	91.6678	62.9883	92.1	62.9883	91.7305	62.9883	92.2165	62.9883	91.8068	62.9883	92.3333	62.9883	91.8963	62.9883	92.4467	62.9883	91.9981	62.9883	92.5531	62.9883	92.1108	62.9883	92.6498	62.9883	92.2319	62.9883	92.7341	62.9883	92.3576	62.9883	92.804	62.9883	92.4827	62.9883	92.8574	62.9883	92.6012	62.9883	92.8918	62.9883	92.7066	62.9883	92.9046	62.9883	92.793	62.9883	92.8932	62.9883	92.856
64.4531	91.6177	64.4531	91.5853	64.4531	91.6653	64.4531	91.5681	64.4531	91.728	64.4531	91.5656	64.4531	91.8049	64.4531	91.5773	64.4531	91.8942	64.4531	91.6026	64.4531	91.9934	64.4531	91.6412	64.4531	92.0994	64.4531	91.6928	64.4531	92.2083	64.4531	91.7574	64.4531	92.3162	64.4531	91.8348	64.4531	92.4193	64.4531	91.9242	64.4531	92.5141	64.4531	92.0246	64.4531	92.5976	64.4531	92.1337	64.4531	92.6679	64.4531	92.2483	64.4531	92.7233	64.4531	92.3639	64.4531	92.7623	64.4531	92.4748	64.4531	92.7836	64.4531	92.5752	64.4531	92.7854	64.4531	92.6596	64.4531	92.7659	64.4531	92.7239
67.3828	91.6559	67.3828	91.6367	67.3828	91.6917	67.3828	91.6332	67.3828	91.7442	67.3828	91.6439	67.3828	91.8127	67.3828	91.667	67.3828	91.8952	67.3828	91.7007	67.3828	91.989	67.3828	91.7432	67.3828	92.0899	67.3828	91.7932	67.3828	92.1936	67.3828	91.8494	67.3828	92.2951	67.3828	91.9112	67.3828	92.3897	67.3828	91.978	67.3828	92.4733	67.3828	92.0495	67.3828	92.5427	67.3828	92.1251	67.3828	92.5959	67.3828	92.2039	67.3828	92.6319	67.3828	92.284	67.3828	92.6506	67.3828	92.3631	67.3828	92.6524	67.3828	92.438	67.3828	92.6378	67.3828	92.5057	67.3828	92.6076	67.3828	92.563
68.8477	91.6485	68.8477	91.6273	68.8477	91.6872	68.8477	91.6225	68.8477	91.7435	68.8477	91.6321	68.8477	91.8166	68.8477	91.654	68.8477	91.9043	68.8477	91.686	68.8477	92.0034	68.8477	91.7259	68.8477	92.1097	68.8477	91.7719	68.8477	92.218	68.8477	91.823	68.8477	92.323	68.8477	91.8785	68.8477	92.4194	68.8477	91.9382	68.8477	92.5028	68.8477	92.0023	68.8477	92.5694	68.8477	92.0709	68.8477	92.6171	68.8477	92.1439	68.8477	92.645	68.8477	92.2203	68.8477	92.6532	68.8477	92.2986	68.8477	92.6427	68.8477	92.376	68.8477	92.615	68.8477	92.4495	68.8477	92.572	68.8477	92.5159
71.7773	91.5997	71.7773	91.5736	71.7773	91.6432	71.7773	91.5635	71.7773	91.7044	71.7773	91.5673	71.7773	91.7824	71.7773	91.5826	71.7773	91.8751	71.7773	91.6069	71.7773	91.9788	71.7773	91.6379	71.7773	92.089	71.7773	91.6738	71.7773	92.2001	71.7773	91.7134	71.7773	92.306	71.7773	91.7565	71.7773	92.4011	71.7773	91.8033	71.7773	92.48	71.7773	91.8547	71.7773	92.5388	71.7773	91.9119	71.7773	92.5749	71.7773	91.9756	71.7773	92.5877	71.7773	92.0462	71.7773	92.5779	71.7773	92.1228	71.7773	92.5475	71.7773	92.2034	71.7773	92.4995	71.7773	92.2852	71.7773	92.4372	71.7773	92.3645
74.707	91.5864	74.707	91.5601	74.707	91.6293	74.707	91.5487	74.707	91.6893	74.707	91.5499	74.707	91.7655	74.707	91.561	74.707	91.8558	74.707	91.5791	74.707	91.9565	74.707	91.6018	74.707	92.0628	74.707	91.627	74.707	92.1689	74.707	91.6535	74.707	92.2685	74.707	91.6812	74.707	92.3553	74.707	91.7107	74.707	92.4237	74.707	91.7436	74.707	92.4696	74.707	91.7817	74.707	92.4904	74.707	91.8272	74.707	92.4857	74.707	91.8817	74.707	92.457	74.707	91.9459	74.707	92.4075	74.707	92.019	74.707	92.3419	74.707	92.099	74.707	92.2651	74.707	92.1825
77.6367	91.5356	77.6367	91.5052	77.6367	91.5816	77.6367	91.4889	77.6367	91.6435	77.6367	91.4841	77.6367	91.7207	77.6367	91.4882	77.6367	91.8109	77.6367	91.4982	77.6367	91.9105	77.6367	91.5116	77.6367	92.0145	77.6367	91.5263	77.6367	92.1171	77.6367	91.5411	77.6367	92.2117	77.6367	91.556	77.6367	92.2919	77.6367	91.5718	77.6367	92.3518	77.6367	91.5905	77.6367	92.387	77.6367	91.6148	77.6367	92.3948	77.6367	91.6477	77.6367	92.3749	77.6367	91.6919	77.6367	92.3294	77.6367	91.7492	77.6367	92.2624	77.6367	91.8199	77.6367	92.1797	77.6367	91.9023	77.6367	92.0878	77.6367	91.9933
79.1016	91.4944	79.1016	91.462	79.1016	91.5425	79.1016	91.4438	79.1016	91.6069	79.1016	91.4375	79.1016	91.6865	79.1016	91.4402	79.1016	91.779	79.1016	91.4491	79.1016	91.8807	79.1016	91.4613	79.1016	91.9866	79.1016	91.4748	79.1016	92.0907	79.1016	91.4882	79.1016	92.1863	79.1016	91.5014	79.1016	92.2669	79.1016	91.5153	79.1016	92.3263	79.1016	91.5319	79.1016	92.36	79.1016	91.5541	79.1016	92.3652	79.1016	91.5852	79.1016	92.3417	79.1016	91.6282	79.1016	92.2917	79.1016	91.6851	79.1016	92.2196	79.1016	91.7566	79.1016	92.1315	79.1016	91.8412	79.1016	92.0344	79.1016	91.9356
82.0312	91.418	82.0312	91.3827	82.0312	91.4683	82.0312	91.3612	82.0312	91.5341	82.0312	91.3512	82.0312	91.6145	82.0312	91.3501	82.0312	91.7075	82.0312	91.3552	82.0312	91.8095	82.0312	91.364	82.0312	91.9156	82.0312	91.3745	82.0312	92.02	82.0312	91.3856	82.0312	92.1159	82.0312	91.397	82.0312	92.1966	82.0312	91.4097	82.0312	92.2559	82.0312	91.426	82.0312	92.2889	82.0312	91.4486	82.0312	92.2926	82.0312	91.4809	82.0312	92.2668	82.0312	91.5257	82.0312	92.2138	82.0312	91.5851	82.0312	92.1383	82.0312	91.6594	82.0312	92.0467	82.0312	91.7469	82.0312	91.9463	82.0312	91.8443
84.9609	91.4365	84.9609	91.4031	84.9609	91.4831	84.9609	91.3814	84.9609	91.5434	84.9609	91.3697	84.9609	91.617	84.9609	91.3654	84.9609	91.7023	84.9609	91.3663	84.9609	91.7963	84.9609	91.3703	84.9609	91.8947	84.9609	91.3755	84.9609	91.9921	84.9609	91.381	84.9609	92.082	84.9609	91.3868	84.9609	92.1577	84.9609	91.3939	84.9609	92.2129	84.9609	91.4045	84.9609	92.2425	84.9609	91.4216	84.9609	92.2433	84.9609	91.4486	84.9609	92.2149	84.9609	91.4884	84.9609	92.1598	84.9609	91.5432	84.9609	92.0829	84.9609	91.6133	84.9609	91.9911	84.9609	91.6972	84.9609	91.8916	84.9609	91.7916
87.8906	91.3002	87.8906	91.2709	87.8906	91.3436	87.8906	91.2538	87.8906	91.4019	87.8906	91.2468	87.8906	91.4749	87.8906	91.2471	87.8906	91.5609	87.8906	91.2522	87.8906	91.6572	87.8906	91.2597	87.8906	91.7593	87.8906	91.2678	87.8906	91.8614	87.8906	91.2757	87.8906	91.9569	87.8906	91.2834	87.8906	92.0386	87.8906	91.2924	87.8906	92.0995	87.8906	91.305	87.8906	92.1343	87.8906	91.3244	87.8906	92.1394	87.8906	91.354	87.8906	92.1144	87.8906	91.3964	87.8906	92.062	87.8906	91.4534	87.8906	91.9874	87.8906	91.5249	87.8906	91.8978	87.8906	91.6089	87.8906	91.8005	87.8906	91.7023
