"SPL Horizontal"
"On-Axis"		"10°"		"-10°"		"20°"		"-20°"		"30°"		"-30°"		"40°"		"-40°"		"50°"		"-50°"		"60°"		"-60°"		"70°"		"-70°"		"80°"		"-80°"		"90°"		"-90°"		"100°"		"-100°"		"110°"		"-110°"		"120°"		"-120°"		"130°"		"-130°"		"140°"		"-140°"		"150°"		"-150°"		"160°"		"-160°"		"170°"		"-170°"		"180°"
"Frequency / Hz"	"Sound Pressure Level / dB (re 20 µPa/V)  [2.83  V @ 1. m]"	"Frequency / Hz"	"Sound Pressure Level / dB (re 20 µPa/V)  [2.83  V @ 1. m]"	"Frequency / Hz"	"Sound Pressure Level / dB (re 20 µPa/V)  [2.83  V @ 1. m]"	"Frequency / Hz"	"Sound Pressure Level / dB (re 20 µPa/V)  [2.83  V @ 1. m]"	"Frequency / Hz"	"Sound Pressure Level / dB (re 20 µPa/V)  [2.83  V @ 1. m]"	"Frequency / Hz"	"Sound Pressure Level / dB (re 20 µPa/V)  [2.83  V @ 1. m]"	"Frequency / Hz"	"Sound Pressure Level / dB (re 20 µPa/V)  [2.83  V @ 1. m]"	"Frequency / Hz"	"Sound Pressure Level / dB (re 20 µPa/V)  [2.83  V @ 1. m]"	"Frequency / Hz"	"Sound Pressure Level / dB (re 20 µPa/V)  [2.83  V @ 1. m]"	"Frequency / Hz"	"Sound Pressure Level / dB (re 20 µPa/V)  [2.83  V @ 1. m]"	"Frequency / Hz"	"Sound Pressure Level / dB (re 20 µPa/V)  [2.83  V @ 1. m]"	"Frequency / Hz"	"Sound Pressure Level / dB (re 20 µPa/V)  [2.83  V @ 1. m]"	"Frequency / Hz"	"Sound Pressure Level / dB (re 20 µPa/V)  [2.83  V @ 1. m]"	"Frequency / Hz"	"Sound Pressure Level / dB (re 20 µPa/V)  [2.83  V @ 1. m]"	"Frequency / Hz"	"Sound Pressure Level / dB (re 20 µPa/V)  [2.83  V @ 1. m]"	"Frequency / Hz"	"Sound Pressure Level / dB (re 20 µPa/V)  [2.83  V @ 1. m]"	"Frequency / Hz"	"Sound Pressure Level / dB (re 20 µPa/V)  [2.83  V @ 1. m]"	"Frequency / Hz"	"Sound Pressure Level / dB (re 20 µPa/V)  [2.83  V @ 1. m]"	"Frequency / Hz"	"Sound Pressure Level / dB (re 20 µPa/V)  [2.83  V @ 1. m]"	"Frequency / Hz"	"Sound Pressure Level / dB (re 20 µPa/V)  [2.83  V @ 1. m]"	"Frequency / Hz"	"Sound Pressure Level / dB (re 20 µPa/V)  [2.83  V @ 1. m]"	"Frequency / Hz"	"Sound Pressure Level / dB (re 20 µPa/V)  [2.83  V @ 1. m]"	"Frequency / Hz"	"Sound Pressure Level / dB (re 20 µPa/V)  [2.83  V @ 1. m]"	"Frequency / Hz"	"Sound Pressure Level / dB (re 20 µPa/V)  [2.83  V @ 1. m]"	"Frequency / Hz"	"Sound Pressure Level / dB (re 20 µPa/V)  [2.83  V @ 1. m]"	"Frequency / Hz"	"Sound Pressure Level / dB (re 20 µPa/V)  [2.83  V @ 1. m]"	"Frequency / Hz"	"Sound Pressure Level / dB (re 20 µPa/V)  [2.83  V @ 1. m]"	"Frequency / Hz"	"Sound Pressure Level / dB (re 20 µPa/V)  [2.83  V @ 1. m]"	"Frequency / Hz"	"Sound Pressure Level / dB (re 20 µPa/V)  [2.83  V @ 1. m]"	"Frequency / Hz"	"Sound Pressure Level / dB (re 20 µPa/V)  [2.83  V @ 1. m]"	"Frequency / Hz"	"Sound Pressure Level / dB (re 20 µPa/V)  [2.83  V @ 1. m]"	"Frequency / Hz"	"Sound Pressure Level / dB (re 20 µPa/V)  [2.83  V @ 1. m]"	"Frequency / Hz"	"Sound Pressure Level / dB (re 20 µPa/V)  [2.83  V @ 1. m]"	"Frequency / Hz"	"Sound Pressure Level / dB (re 20 µPa/V)  [2.83  V @ 1. m]"	"Frequency / Hz"	"Sound Pressure Level / dB (re 20 µPa/V)  [2.83  V @ 1. m]"	"Frequency / Hz"	"Sound Pressure Level / dB (re 20 µPa/V)  [2.83  V @ 1. m]"
20.5078	43.0804	20.5078	43.0861	20.5078	42.7857	20.5078	42.7948	20.5078	42.187	20.5078	42.1755	20.5078	41.2421	20.5078	41.1697	20.5078	39.8704	20.5078	39.6875	20.5078	37.9393	20.5078	37.6371	20.5078	35.3047	20.5078	35.2236	20.5078	32.4587	20.5078	34.1919	20.5078	32.6685	20.5078	36.3605	20.5078	36.1222	20.5078	39.4644	20.5078	39.4434	20.5078	42.1077	20.5078	42.0501	20.5078	44.1865	20.5078	44.0789	20.5078	45.7983	20.5078	45.6653	20.5078	47.029	20.5078	46.8956	20.5078	47.9361	20.5078	47.8212	20.5078	48.5561	20.5078	48.4728	20.5078	48.9109	20.5078	48.8674	20.5078	49.013
21.9727	45.0769	21.9727	45.0513	21.9727	44.8147	21.9727	44.7304	21.9727	44.2463	21.9727	44.0786	21.9727	43.3198	21.9727	43.0212	21.9727	41.9294	21.9727	41.4132	21.9727	39.8605	21.9727	38.9541	21.9727	36.6192	21.9727	34.9088	21.9727	30.7565	21.9727	27.5041	21.9727	24.8789	21.9727	30.5611	21.9727	34.18	21.9727	37.3495	21.9727	39.3098	21.9727	41.3513	21.9727	42.5698	21.9727	44.063	21.9727	44.8841	21.9727	46.0284	21.9727	46.6016	21.9727	47.4829	21.9727	47.8848	21.9727	48.5452	21.9727	48.8189	21.9727	49.2801	21.9727	49.4508	21.9727	49.724	21.9727	49.8061	21.9727	49.8966
23.4375	45.129	23.4375	45.0919	23.4375	44.9312	23.4375	44.8155	23.4375	44.5116	23.4375	44.3063	23.4375	43.906	23.4375	43.602	23.4375	43.2096	23.4375	42.8242	23.4375	42.6387	23.4375	42.2649	23.4375	42.5442	23.4375	42.362	23.4375	43.1951	23.4375	43.325	23.4375	44.4807	23.4375	44.8641	23.4375	46.0464	23.4375	46.5549	23.4375	47.6101	23.4375	48.1472	23.4375	49.0343	23.4375	49.5451	23.4375	50.2686	23.4375	50.7241	23.4375	51.2998	23.4375	51.6846	23.4375	52.1281	23.4375	52.4334	23.4375	52.7568	23.4375	52.9776	23.4375	53.189	23.4375	53.3225	23.4375	53.4271	23.4375	53.4717
24.9023	48.2429	24.9023	48.2263	24.9023	48.0484	24.9023	47.9973	24.9023	47.6439	24.9023	47.5557	24.9023	47.0358	24.9023	46.9101	24.9023	46.2523	24.9023	46.1009	24.9023	45.3819	24.9023	45.2489	24.9023	44.642	24.9023	44.6268	24.9023	44.4001	24.9023	44.623	24.9023	44.9438	24.9023	45.4175	24.9023	46.1493	24.9023	46.758	24.9023	47.6347	24.9023	48.2597	24.9023	49.1046	24.9023	49.6806	24.9023	50.4194	24.9023	50.9189	24.9023	51.5297	24.9023	51.9423	24.9023	52.4235	24.9023	52.7455	24.9023	53.1009	24.9023	53.3313	24.9023	53.5654	24.9023	53.7037	24.9023	53.8199	24.9023	53.866
26.3672	50.3739	26.3672	50.3017	26.3672	50.2636	26.3672	50.0457	26.3672	49.974	26.3672	49.6082	26.3672	49.514	26.3672	49.0026	26.3672	48.9079	26.3672	48.2724	26.3672	48.2176	26.3672	47.5278	26.3672	47.5771	26.3672	46.9886	26.3672	47.2138	26.3672	46.9477	26.3672	47.3678	26.3672	47.5573	26.3672	48.096	26.3672	48.6628	26.3672	49.2104	26.3672	49.9672	26.3672	50.4551	26.3672	51.2458	26.3672	51.6509	26.3672	52.3839	26.3672	52.7059	26.3672	53.3347	26.3672	53.5805	26.3672	54.0822	26.3672	54.2596	26.3672	54.6231	26.3672	54.7381	26.3672	54.9579	26.3672	55.0144	26.3672	55.0879
27.832	50.9967	27.832	50.9462	27.832	50.8903	27.832	50.7397	27.832	50.6355	27.832	50.3887	27.832	50.2543	27.832	49.925	27.832	49.795	27.832	49.4192	27.832	49.3504	27.832	49.003	27.832	49.071	27.832	48.8667	27.832	49.1324	27.832	49.1766	27.832	49.6338	27.832	49.9452	27.832	50.515	27.832	51.0177	27.832	51.6069	27.832	52.1971	27.832	52.743	27.832	53.3385	27.832	53.8118	27.832	54.3609	27.832	54.752	27.832	55.2249	27.832	55.533	27.832	55.9128	27.832	56.1405	27.832	56.4172	27.832	56.5672	27.832	56.7353	27.832	56.8097	27.832	56.8661
29.2969	53.4341	29.2969	53.4018	29.2969	53.3411	29.2969	53.2453	29.2969	53.1289	29.2969	52.9733	29.2969	52.8135	29.2969	52.6081	29.2969	52.4271	29.2969	52.1939	29.2969	52.0288	29.2969	51.809	29.2969	51.7133	29.2969	51.5694	29.2969	51.602	29.2969	51.6014	29.2969	51.7978	29.2969	51.9767	29.2969	52.322	29.2969	52.66	29.2969	53.0962	29.2969	53.533	29.2969	53.9935	29.2969	54.4635	29.2969	54.8983	29.2969	55.3504	29.2969	55.7301	29.2969	56.1306	29.2969	56.4405	29.2969	56.7682	29.2969	57.0021	29.2969	57.244	29.2969	57.4	29.2969	57.548	29.2969	57.626	29.2969	57.6757
30.7617	55.0513	30.7617	55.0405	30.7617	54.9611	30.7617	54.9304	30.7617	54.7769	30.7617	54.7319	30.7617	54.5162	30.7617	54.4681	30.7617	54.2117	30.7617	54.1801	30.7617	53.9176	30.7617	53.9316	30.7617	53.7109	30.7617	53.8063	30.7617	53.6803	30.7617	53.8869	30.7617	53.8933	30.7617	54.2185	30.7617	54.3602	30.7617	54.781	30.7617	55.0256	30.7617	55.4994	30.7617	55.7982	30.7617	56.2801	30.7617	56.5883	30.7617	57.0413	30.7617	57.3266	30.7617	57.7244	30.7617	57.9665	30.7617	58.2912	30.7617	58.4789	30.7617	58.7183	30.7617	58.8456	30.7617	58.9922	30.7617	59.0564	30.7617	59.1057
32.2266	56.7094	32.2266	56.6684	32.2266	56.6647	32.2266	56.5434	32.2266	56.5405	32.2266	56.3448	32.2266	56.3521	32.2266	56.0943	32.2266	56.1266	32.2266	55.8295	32.2266	55.9068	32.2266	55.6061	32.2266	55.7515	32.2266	55.495	32.2266	55.7273	32.2266	55.5647	32.2266	55.8891	32.2266	55.8535	32.2266	56.2542	32.2266	56.3477	32.2266	56.7922	32.2266	56.9875	32.2266	57.4379	32.2266	57.6936	32.2266	58.1174	32.2266	58.3925	32.2266	58.7666	32.2266	59.028	32.2266	59.3379	32.2266	59.5617	32.2266	59.7989	32.2266	59.9689	32.2266	60.1288	32.2266	60.2347	32.2266	60.3151	32.2266	60.351
33.6914	58.3291	33.6914	58.3176	33.6914	58.2679	33.6914	58.2351	33.6914	58.1395	33.6914	58.0909	33.6914	57.9581	33.6914	57.904	33.6914	57.7482	33.6914	57.7047	33.6914	57.5471	33.6914	57.5366	33.6914	57.4044	33.6914	57.4529	33.6914	57.3753	33.6914	57.5056	33.6914	57.5051	33.6914	57.7273	33.6914	57.8106	33.6914	58.1154	33.6914	58.2706	33.6914	58.632	33.6914	58.8343	33.6914	59.2182	33.6914	59.4392	33.6914	59.8129	33.6914	60.0275	33.6914	60.364	33.6914	60.5533	33.6914	60.8328	33.6914	60.9838	33.6914	61.1922	33.6914	61.2967	33.6914	61.4252	33.6914	61.4785	33.6914	61.5219
35.1562	59.4431	35.1562	59.4231	35.1562	59.3902	35.1562	59.3315	35.1562	59.2699	35.1562	59.1767	35.1562	59.0956	35.1562	58.9761	35.1562	58.8904	35.1562	58.7583	35.1562	58.6892	35.1562	58.5647	35.1562	58.5389	35.1562	58.4478	35.1562	58.4921	35.1562	58.4612	35.1562	58.5938	35.1562	58.6417	35.1562	58.8633	35.1562	58.9929	35.1562	59.2843	35.1562	59.4811	35.1562	59.8107	35.1562	60.0489	35.1562	60.3828	35.1562	60.6337	35.1562	60.9436	35.1562	61.1814	35.1562	61.4468	35.1562	61.6512	35.1562	61.8589	35.1562	62.0148	35.1562	62.1568	35.1562	62.2542	35.1562	62.3261	35.1562	62.3592
36.6211	60.7097	36.6211	60.6894	36.6211	60.677	36.6211	60.6184	36.6211	60.596	36.6211	60.5059	36.6211	60.4787	36.6211	60.3694	36.6211	60.3458	36.6211	60.2351	36.6211	60.2268	36.6211	60.1377	36.6211	60.1589	36.6211	60.117	36.6211	60.1811	36.6211	60.2087	36.6211	60.3242	36.6211	60.4333	36.6211	60.5995	36.6211	60.7867	36.6211	60.9931	36.6211	61.2406	36.6211	61.4695	36.6211	61.7508	36.6211	61.9826	36.6211	62.2695	36.6211	62.4863	36.6211	62.7535	36.6211	62.941	36.6211	63.1684	36.6211	63.3166	36.6211	63.4891	36.6211	63.5911	36.6211	63.6985	36.6211	63.7505	36.6211	63.7869
38.0859	62.2204	38.0859	62.2094	38.0859	62.1889	38.0859	62.1576	38.0859	62.1191	38.0859	62.0727	38.0859	62.0216	38.0859	61.969	38.0859	61.9141	38.0859	61.8675	38.0859	61.8207	38.0859	61.7954	38.0859	61.7712	38.0859	61.7831	38.0859	61.796	38.0859	61.8584	38.0859	61.9194	38.0859	62.0387	38.0859	62.151	38.0859	62.3242	38.0859	62.4819	38.0859	62.6964	38.0859	62.8855	38.0859	63.1229	38.0859	63.3253	38.0859	63.5649	38.0859	63.7622	38.0859	63.9848	38.0859	64.1609	38.0859	64.3503	38.0859	64.4925	38.0859	64.6365	38.0859	64.7359	38.0859	64.8257	38.0859	64.8768	38.0859	64.9073
39.5508	63.3786	39.5508	63.3575	39.5508	63.3574	39.5508	63.2958	39.5508	63.2976	39.5508	63.2007	39.5508	63.2082	39.5508	63.0854	39.5508	63.1045	39.5508	62.9695	39.5508	63.0077	39.5508	62.8786	39.5508	62.9443	39.5508	62.8418	39.5508	62.9428	39.5508	62.8868	39.5508	63.0273	39.5508	63.0323	39.5508	63.211	39.5508	63.2812	39.5508	63.4901	39.5508	63.6183	39.5508	63.8441	39.5508	64.0137	39.5508	64.2406	39.5508	64.43	39.5508	64.6426	39.5508	64.8299	39.5508	65.0149	39.5508	65.1808	39.5508	65.3279	39.5508	65.4571	39.5508	65.5591	39.5508	65.6408	39.5508	65.6929	39.5508	65.7208
41.0156	64.4571	41.0156	64.4539	41.0156	64.4241	41.0156	64.4159	41.0156	64.3581	41.0156	64.3499	41.0156	64.2679	41.0156	64.2675	41.0156	64.1679	41.0156	64.1859	41.0156	64.0779	41.0156	64.1266	41.0156	64.0226	41.0156	64.1138	41.0156	64.0276	41.0156	64.1699	41.0156	64.1147	41.0156	64.3101	41.0156	64.295	41.0156	64.537	41.0156	64.5645	41.0156	64.8389	41.0156	64.9042	41.0156	65.1916	41.0156	65.2838	41.0156	65.5638	41.0156	65.669	41.0156	65.9229	41.0156	66.0267	41.0156	66.2391	41.0156	66.3288	41.0156	66.4882	41.0156	66.5537	41.0156	66.6523	41.0156	66.6868	41.0156	66.7201
42.4805	65.6756	42.4805	65.6677	42.4805	65.6548	42.4805	65.6322	42.4805	65.6086	42.4805	65.575	42.4805	65.5452	42.4805	65.5068	42.4805	65.4772	42.4805	65.4429	42.4805	65.4223	42.4805	65.4025	42.4805	65.4008	42.4805	65.407	42.4805	65.4337	42.4805	65.4755	42.4805	65.5374	42.4805	65.6208	42.4805	65.7197	42.4805	65.8441	42.4805	65.9758	42.4805	66.1342	42.4805	66.2892	42.4805	66.469	42.4805	66.6344	42.4805	66.8201	42.4805	66.982	42.4805	67.1581	42.4805	67.3036	42.4805	67.4558	42.4805	67.5742	42.4805	67.6912	42.4805	67.7746	42.4805	67.8481	42.4805	67.8911	42.4805	67.9161
43.9453	66.8335	43.9453	66.8292	43.9453	66.8125	43.9453	66.8009	43.9453	66.7691	43.9453	66.7538	43.9453	66.7103	43.9453	66.6971	43.9453	66.647	43.9453	66.6441	43.9453	66.594	43.9453	66.6109	43.9453	66.5688	43.9453	66.6151	43.9453	66.5891	43.9453	66.6726	43.9453	66.6697	43.9453	66.794	43.9453	66.8181	43.9453	66.9811	43.9453	67.0324	43.9453	67.2257	43.9453	67.2999	43.9453	67.5105	43.9453	67.5998	43.9453	67.8119	43.9453	67.9067	43.9453	68.1046	43.9453	68.1946	43.9453	68.3641	43.9453	68.4403	43.9453	68.5697	43.9453	68.6248	43.9453	68.7058	43.9453	68.7346	43.9453	68.7622
45.4102	67.8628	45.4102	67.858	45.4102	67.8476	45.4102	67.8343	45.4102	67.8147	45.4102	67.7969	45.4102	67.7705	45.4102	67.7542	45.4102	67.7247	45.4102	67.7181	45.4102	67.6907	45.4102	67.7028	45.4102	67.6835	45.4102	67.7233	45.4102	67.7186	45.4102	67.7929	45.4102	67.8083	45.4102	67.9201	45.4102	67.9588	45.4102	68.1061	45.4102	68.1677	45.4102	68.343	45.4102	68.4236	45.4102	68.6154	45.4102	68.7077	45.4102	68.9021	45.4102	68.9972	45.4102	69.1797	45.4102	69.2684	45.4102	69.4256	45.4102	69.4998	45.4102	69.6206	45.4102	69.6737	45.4102	69.7496	45.4102	69.7773	45.4102	69.8032
46.875	68.8768	46.875	68.8752	46.875	68.8618	46.875	68.8577	46.875	68.8328	46.875	68.8283	46.875	68.7958	46.875	68.7943	46.875	68.7599	46.875	68.7662	46.875	68.7366	46.875	68.7567	46.875	68.7394	46.875	68.7792	46.875	68.7814	46.875	68.8461	46.875	68.8729	46.875	68.9652	46.875	69.0191	46.875	69.1381	46.875	69.2176	46.875	69.3584	46.875	69.4584	46.875	69.6123	46.875	69.7245	46.875	69.8808	46.875	69.9952	46.875	70.1423	46.875	70.2486	46.875	70.3756	46.875	70.4643	46.875	70.5621	46.875	70.6256	46.875	70.6872	46.875	70.7203	46.875	70.7413
48.3398	70.0242	48.3398	70.0207	48.3398	70.0133	48.3398	70.0031	48.3398	69.99	48.3398	69.9749	48.3398	69.9593	48.3398	69.9423	48.3398	69.9288	48.3398	69.9141	48.3398	69.9081	48.3398	69.9015	48.3398	69.9086	48.3398	69.9164	48.3398	69.9417	48.3398	69.9697	48.3398	70.0169	48.3398	70.0692	48.3398	70.1396	48.3398	70.2171	48.3398	70.309	48.3398	70.4088	48.3398	70.5172	48.3398	70.6328	48.3398	70.7502	48.3398	70.8724	48.3398	70.9897	48.3398	71.1081	48.3398	71.2158	48.3398	71.3202	48.3398	71.4094	48.3398	71.491	48.3398	71.5547	48.3398	71.6064	48.3398	71.6396	48.3398	71.6573
51.2695	71.8868	51.2695	71.882	51.2695	71.8839	51.2695	71.8707	51.2695	71.8747	51.2695	71.8562	51.2695	71.8628	51.2695	71.8443	51.2695	71.8541	51.2695	71.8421	51.2695	71.8564	51.2695	71.858	51.2695	71.8784	51.2695	71.9005	51.2695	71.9288	51.2695	71.9766	51.2695	72.0145	51.2695	72.0905	51.2695	72.139	51.2695	72.2421	51.2695	72.3009	51.2695	72.4263	51.2695	72.4937	51.2695	72.6332	51.2695	72.7058	51.2695	72.8493	51.2695	72.9221	51.2695	73.0585	51.2695	73.126	51.2695	73.2447	51.2695	73.3013	51.2695	73.3932	51.2695	73.4339	51.2695	73.4919	51.2695	73.5133	51.2695	73.5331
52.7344	72.7765	52.7344	72.7771	52.7344	72.7696	52.7344	72.7722	52.7344	72.7578	52.7344	72.7645	52.7344	72.7447	52.7344	72.7584	52.7344	72.7354	52.7344	72.7601	52.7344	72.7365	52.7344	72.7766	52.7344	72.7558	52.7344	72.8151	52.7344	72.8005	52.7344	72.8818	52.7344	72.8767	52.7344	72.9808	52.7344	72.9878	52.7344	73.1126	52.7344	73.1328	52.7344	73.2734	52.7344	73.3063	52.7344	73.4554	52.7344	73.4983	52.7344	73.6468	52.7344	73.6953	52.7344	73.8334	52.7344	73.882	52.7344	74.0004	52.7344	74.0434	52.7344	74.1341	52.7344	74.1661	52.7344	74.2231	52.7344	74.2401	52.7344	74.2595
54.1992	73.6303	54.1992	73.6373	54.1992	73.6192	54.1992	73.6404	54.1992	73.6053	54.1992	73.6417	54.1992	73.5919	54.1992	73.645	54.1992	73.584	54.1992	73.6551	54.1992	73.5874	54.1992	73.6782	54.1992	73.6091	54.1992	73.7204	54.1992	73.6556	54.1992	73.7871	54.1992	73.7321	54.1992	73.8819	54.1992	73.8413	54.1992	74.0055	54.1992	73.982	54.1992	74.1548	54.1992	74.1489	54.1992	74.3229	54.1992	74.3325	54.1992	74.4992	54.1992	74.5201	54.1992	74.6711	54.1992	74.6978	54.1992	74.8247	54.1992	74.8513	54.1992	74.9473	54.1992	74.9684	54.1992	75.0283	54.1992	75.0399	54.1992	75.0602
55.6641	74.4971	55.6641	74.5	55.6641	74.4918	55.6641	74.5007	55.6641	74.4852	55.6641	74.5008	55.6641	74.4798	55.6641	74.5034	55.6641	74.4794	55.6641	74.5126	55.6641	74.4889	55.6641	74.5334	55.6641	74.5137	55.6641	74.5711	55.6641	74.559	55.6641	74.6304	55.6641	74.6291	55.6641	74.7146	55.6641	74.726	55.6641	74.8243	55.6641	74.8489	55.6641	74.957	55.6641	74.9933	55.6641	75.1066	55.6641	75.1515	55.6641	75.264	55.6641	75.3129	55.6641	75.4177	55.6641	75.4655	55.6641	75.5558	55.6641	75.5971	55.6641	75.6667	55.6641	75.6971	55.6641	75.7409	55.6641	75.757	55.6641	75.772
58.5938	75.8351	58.5938	75.8344	58.5938	75.8365	58.5938	75.8347	58.5938	75.8393	58.5938	75.8374	58.5938	75.8453	58.5938	75.8452	58.5938	75.8574	58.5938	75.8613	58.5938	75.879	58.5938	75.8897	58.5938	75.9139	58.5938	75.9342	58.5938	75.9659	58.5938	75.9981	58.5938	76.0378	58.5938	76.0836	58.5938	76.131	58.5938	76.1906	58.5938	76.2447	58.5938	76.3165	58.5938	76.3754	58.5938	76.4559	58.5938	76.5169	58.5938	76.601	58.5938	76.6605	58.5938	76.7421	58.5938	76.7961	58.5938	76.8684	58.5938	76.9131	58.5938	76.97	58.5938	77.0019	58.5938	77.0383	58.5938	77.0549	58.5938	77.0674
60.0586	76.6053	60.0586	76.6058	60.0586	76.6063	60.0586	76.6083	60.0586	76.6095	60.0586	76.6138	60.0586	76.6164	60.0586	76.6245	60.0586	76.6292	60.0586	76.6429	60.0586	76.6508	60.0586	76.6723	60.0586	76.6843	60.0586	76.7157	60.0586	76.7329	60.0586	76.7759	60.0586	76.799	60.0586	76.8545	60.0586	76.8839	60.0586	76.9514	60.0586	76.987	60.0586	77.0646	60.0586	77.1053	60.0586	77.1895	60.0586	77.2336	60.0586	77.3193	60.0586	77.364	60.0586	77.4455	60.0586	77.4874	60.0586	77.5587	60.0586	77.5943	60.0586	77.6497	60.0586	77.6757	60.0586	77.7109	60.0586	77.7246	60.0586	77.7366
62.9883	77.9895	62.9883	77.9899	62.9883	77.9924	62.9883	77.9936	62.9883	77.9989	62.9883	78.0016	62.9883	78.01	62.9883	78.015	62.9883	78.0272	62.9883	78.0356	62.9883	78.0524	62.9883	78.0654	62.9883	78.0877	62.9883	78.1067	62.9883	78.1352	62.9883	78.1612	62.9883	78.1966	62.9883	78.2302	62.9883	78.2727	62.9883	78.3138	62.9883	78.3628	62.9883	78.4103	62.9883	78.4645	62.9883	78.5165	62.9883	78.5735	62.9883	78.6268	62.9883	78.6834	62.9883	78.7345	62.9883	78.7868	62.9883	78.8317	62.9883	78.8756	62.9883	78.9108	62.9883	78.9424	62.9883	78.9649	62.9883	78.9815	62.9883	78.9892
64.4531	78.4018	64.4531	78.4036	64.4531	78.4044	64.4531	78.41	64.4531	78.412	64.4531	78.4213	64.4531	78.4254	64.4531	78.4385	64.4531	78.4458	64.4531	78.463	64.4531	78.4749	64.4531	78.4964	64.4531	78.5142	64.4531	78.5404	64.4531	78.5653	64.4531	78.5964	64.4531	78.6294	64.4531	78.6655	64.4531	78.7066	64.4531	78.7475	64.4531	78.7961	64.4531	78.841	64.4531	78.8953	64.4531	78.9426	64.4531	79.0001	64.4531	79.0476	64.4531	79.1046	64.4531	79.1495	64.4531	79.2022	64.4531	79.2414	64.4531	79.2855	64.4531	79.3161	64.4531	79.3478	64.4531	79.3673	64.4531	79.3839	64.4531	79.3906
67.3828	79.163	67.3828	79.1627	67.3828	79.1702	67.3828	79.1694	67.3828	79.1846	67.3828	79.1833	67.3828	79.2061	67.3828	79.2046	67.3828	79.2352	67.3828	79.2339	67.3828	79.2721	67.3828	79.2717	67.3828	79.3173	67.3828	79.3187	67.3828	79.371	67.3828	79.3752	67.3828	79.4333	67.3828	79.4413	67.3828	79.5039	67.3828	79.5164	67.3828	79.5818	67.3828	79.5991	67.3828	79.6652	67.3828	79.6868	67.3828	79.7511	67.3828	79.7755	67.3828	79.8355	67.3828	79.8606	67.3828	79.9133	67.3828	79.9367	67.3828	79.9794	67.3828	79.9984	67.3828	80.0285	67.3828	80.0409	67.3828	80.0564	67.3828	80.0608
