"SPL Vertical"
"On-Axis"		"10°"		"-10°"		"20°"		"-20°"		"30°"		"-30°"		"40°"		"-40°"		"50°"		"-50°"		"60°"		"-60°"		"70°"		"-70°"		"80°"		"-80°"		"90°"		"-90°"		"100°"		"-100°"		"110°"		"-110°"		"120°"		"-120°"		"130°"		"-130°"		"140°"		"-140°"		"150°"		"-150°"		"160°"		"-160°"		"170°"		"-170°"		"180°"
"Frequency / Hz"	"Sound Pressure Level / dB (re 20 µPa/V)  [2.83  V @ 1. m]"	"Frequency / Hz"	"Sound Pressure Level / dB (re 20 µPa/V)  [2.83  V @ 1. m]"	"Frequency / Hz"	"Sound Pressure Level / dB (re 20 µPa/V)  [2.83  V @ 1. m]"	"Frequency / Hz"	"Sound Pressure Level / dB (re 20 µPa/V)  [2.83  V @ 1. m]"	"Frequency / Hz"	"Sound Pressure Level / dB (re 20 µPa/V)  [2.83  V @ 1. m]"	"Frequency / Hz"	"Sound Pressure Level / dB (re 20 µPa/V)  [2.83  V @ 1. m]"	"Frequency / Hz"	"Sound Pressure Level / dB (re 20 µPa/V)  [2.83  V @ 1. m]"	"Frequency / Hz"	"Sound Pressure Level / dB (re 20 µPa/V)  [2.83  V @ 1. m]"	"Frequency / Hz"	"Sound Pressure Level / dB (re 20 µPa/V)  [2.83  V @ 1. m]"	"Frequency / Hz"	"Sound Pressure Level / dB (re 20 µPa/V)  [2.83  V @ 1. m]"	"Frequency / Hz"	"Sound Pressure Level / dB (re 20 µPa/V)  [2.83  V @ 1. m]"	"Frequency / Hz"	"Sound Pressure Level / dB (re 20 µPa/V)  [2.83  V @ 1. m]"	"Frequency / Hz"	"Sound Pressure Level / dB (re 20 µPa/V)  [2.83  V @ 1. m]"	"Frequency / Hz"	"Sound Pressure Level / dB (re 20 µPa/V)  [2.83  V @ 1. m]"	"Frequency / Hz"	"Sound Pressure Level / dB (re 20 µPa/V)  [2.83  V @ 1. m]"	"Frequency / Hz"	"Sound Pressure Level / dB (re 20 µPa/V)  [2.83  V @ 1. m]"	"Frequency / Hz"	"Sound Pressure Level / dB (re 20 µPa/V)  [2.83  V @ 1. m]"	"Frequency / Hz"	"Sound Pressure Level / dB (re 20 µPa/V)  [2.83  V @ 1. m]"	"Frequency / Hz"	"Sound Pressure Level / dB (re 20 µPa/V)  [2.83  V @ 1. m]"	"Frequency / Hz"	"Sound Pressure Level / dB (re 20 µPa/V)  [2.83  V @ 1. m]"	"Frequency / Hz"	"Sound Pressure Level / dB (re 20 µPa/V)  [2.83  V @ 1. m]"	"Frequency / Hz"	"Sound Pressure Level / dB (re 20 µPa/V)  [2.83  V @ 1. m]"	"Frequency / Hz"	"Sound Pressure Level / dB (re 20 µPa/V)  [2.83  V @ 1. m]"	"Frequency / Hz"	"Sound Pressure Level / dB (re 20 µPa/V)  [2.83  V @ 1. m]"	"Frequency / Hz"	"Sound Pressure Level / dB (re 20 µPa/V)  [2.83  V @ 1. m]"	"Frequency / Hz"	"Sound Pressure Level / dB (re 20 µPa/V)  [2.83  V @ 1. m]"	"Frequency / Hz"	"Sound Pressure Level / dB (re 20 µPa/V)  [2.83  V @ 1. m]"	"Frequency / Hz"	"Sound Pressure Level / dB (re 20 µPa/V)  [2.83  V @ 1. m]"	"Frequency / Hz"	"Sound Pressure Level / dB (re 20 µPa/V)  [2.83  V @ 1. m]"	"Frequency / Hz"	"Sound Pressure Level / dB (re 20 µPa/V)  [2.83  V @ 1. m]"	"Frequency / Hz"	"Sound Pressure Level / dB (re 20 µPa/V)  [2.83  V @ 1. m]"	"Frequency / Hz"	"Sound Pressure Level / dB (re 20 µPa/V)  [2.83  V @ 1. m]"	"Frequency / Hz"	"Sound Pressure Level / dB (re 20 µPa/V)  [2.83  V @ 1. m]"	"Frequency / Hz"	"Sound Pressure Level / dB (re 20 µPa/V)  [2.83  V @ 1. m]"	"Frequency / Hz"	"Sound Pressure Level / dB (re 20 µPa/V)  [2.83  V @ 1. m]"	"Frequency / Hz"	"Sound Pressure Level / dB (re 20 µPa/V)  [2.83  V @ 1. m]"
20.5078	43.0804	20.5078	43.5274	20.5078	42.3263	20.5078	43.6859	20.5078	41.2193	20.5078	43.552	20.5078	39.6797	20.5078	43.098	20.5078	37.5992	20.5078	42.2675	20.5078	34.9908	20.5078	40.9636	20.5078	32.9707	20.5078	39.0387	20.5078	34.2326	20.5078	36.3852	20.5078	37.3823	20.5078	33.9284	20.5078	40.26	20.5078	35.1476	20.5078	42.5661	20.5078	38.6789	20.5078	44.3975	20.5078	41.7493	20.5078	45.8541	20.5078	44.0857	20.5078	47.0029	20.5078	45.8398	20.5078	47.8841	20.5078	47.1394	20.5078	48.5204	20.5078	48.0684	20.5078	48.9216	20.5078	48.681	20.5078	49.0882	20.5078	49.013
21.9727	45.0769	21.9727	45.5111	21.9727	44.3287	21.9727	45.6513	21.9727	43.2115	21.9727	45.4909	21.9727	41.6112	21.9727	44.9958	21.9727	39.2903	21.9727	44.0944	21.9727	35.6808	21.9727	42.6494	21.9727	29.0364	21.9727	40.3782	21.9727	25.8814	21.9727	36.5799	21.9727	34.6267	21.9727	28.8062	21.9727	39.3404	21.9727	29.039	21.9727	42.4169	21.9727	37.4038	21.9727	44.6454	21.9727	41.765	21.9727	46.3346	21.9727	44.5797	21.9727	47.631	21.9727	46.5481	21.9727	48.6108	21.9727	47.9521	21.9727	49.3144	21.9727	48.9315	21.9727	49.7613	21.9727	49.5642	21.9727	49.9571	21.9727	49.8966
23.4375	45.129	23.4375	45.4361	23.4375	44.6101	23.4375	45.5098	23.4375	43.9228	23.4375	45.3354	23.4375	43.1676	23.4375	44.9031	23.4375	42.5564	23.4375	44.2243	23.4375	42.4149	23.4375	43.3819	23.4375	42.9834	23.4375	42.6438	23.4375	44.1635	23.4375	42.5367	23.4375	45.6358	23.4375	43.4532	23.4375	47.1371	23.4375	45.1065	23.4375	48.5329	23.4375	46.94	23.4375	49.7709	23.4375	48.631	23.4375	50.8351	23.4375	50.0704	23.4375	51.7227	23.4375	51.2393	23.4375	52.434	23.4375	52.1475	23.4375	52.9684	23.4375	52.8119	23.4375	53.3232	23.4375	53.2485	23.4375	53.4934	23.4375	53.4717
24.9023	48.2429	24.9023	48.5481	24.9023	47.7339	24.9023	48.6419	24.9023	47.0335	24.9023	48.5159	24.9023	46.1752	24.9023	48.1599	24.9023	45.2505	24.9023	47.5688	24.9023	44.4688	24.9023	46.7629	24.9023	44.1711	24.9023	45.8415	24.9023	44.6244	24.9023	45.0842	24.9023	45.7292	24.9023	44.9698	24.9023	47.1399	24.9023	45.7835	24.9023	48.574	24.9023	47.229	24.9023	49.8905	24.9023	48.8217	24.9023	51.0353	24.9023	50.2785	24.9023	51.9921	24.9023	51.4972	24.9023	52.7574	24.9023	52.4563	24.9023	53.3305	24.9023	53.1618	24.9023	53.7096	24.9023	53.6271	24.9023	53.8903	24.9023	53.866
26.3672	50.3739	26.3672	50.6408	26.3672	49.9298	26.3672	50.722	26.3672	49.3229	26.3672	50.61	26.3672	48.5844	26.3672	50.2989	26.3672	47.7864	26.3672	49.7905	26.3672	47.0769	26.3672	49.111	26.3672	46.6935	26.3672	48.3483	26.3672	46.8648	26.3672	47.7111	26.3672	47.6153	26.3672	47.5327	26.3672	48.7394	26.3672	48.0538	26.3672	49.9886	26.3672	49.1507	26.3672	51.1971	26.3672	50.4786	26.3672	52.282	26.3672	51.7658	26.3672	53.2071	26.3672	52.8796	26.3672	53.9575	26.3672	53.7724	26.3672	54.5263	26.3672	54.4343	26.3672	54.9084	26.3672	54.8699	26.3672	55.0979	26.3672	55.0879
27.832	50.9967	27.832	51.2512	27.832	50.5971	27.832	51.3441	27.832	50.0833	27.832	51.2669	27.832	49.5133	27.832	51.0203	27.832	48.9908	27.832	50.6223	27.832	48.6724	27.832	50.1279	27.832	48.7253	27.832	49.6602	27.832	49.2258	27.832	49.4287	27.832	50.0963	27.832	49.6576	27.832	51.1701	27.832	50.4072	27.832	52.2929	27.832	51.5103	27.832	53.3639	27.832	52.7251	27.832	54.3276	27.832	53.8761	27.832	55.1556	27.832	54.8718	27.832	55.8328	27.832	55.6745	27.832	56.3498	27.832	56.2731	27.832	56.6992	27.832	56.6683	27.832	56.8737	27.832	56.8661
29.2969	53.4341	29.2969	53.6423	29.2969	53.111	29.2969	53.7221	29.2969	52.6962	29.2969	53.6665	29.2969	52.2284	29.2969	53.4756	29.2969	51.7718	29.2969	53.1618	29.2969	51.421	29.2969	52.7605	29.2969	51.2892	29.2969	52.3472	29.2969	51.4651	29.2969	52.0501	29.2969	51.9604	29.2969	52.0281	29.2969	52.701	29.2969	52.3874	29.2969	53.5727	29.2969	53.0953	29.2969	54.4708	29.2969	54.0047	29.2969	55.3204	29.2969	54.953	29.2969	56.0743	29.2969	55.8245	29.2969	56.7036	29.2969	56.5542	29.2969	57.1899	29.2969	57.1118	29.2969	57.5203	29.2969	57.486	29.2969	57.685	29.2969	57.6757
30.7617	55.0513	30.7617	55.2188	30.7617	54.7928	30.7617	55.282	30.7617	54.4665	30.7617	55.235	30.7617	54.1088	30.7617	55.0809	30.7617	53.774	30.7617	54.8361	30.7617	53.5348	30.7617	54.5382	30.7617	53.4708	30.7617	54.2561	30.7617	53.6417	30.7617	54.0913	30.7617	54.0574	30.7617	54.1543	30.7617	54.6721	30.7617	54.5087	30.7617	55.4071	30.7617	55.1259	30.7617	56.1817	30.7617	55.9019	30.7617	56.9311	30.7617	56.7161	30.7617	57.6088	30.7617	57.4742	30.7617	58.1835	30.7617	58.1163	30.7617	58.6339	30.7617	58.6103	30.7617	58.9449	30.7617	58.9415	30.7617	59.105	30.7617	59.1057
32.2266	56.7094	32.2266	56.8595	32.2266	56.4838	32.2266	56.9218	32.2266	56.2035	32.2266	56.8915	32.2266	55.8999	32.2266	56.7722	32.2266	55.6183	32.2266	56.5796	32.2266	55.4165	32.2266	56.3471	32.2266	55.3565	32.2266	56.1317	32.2266	55.4865	32.2266	56.0132	32.2266	55.8205	32.2266	56.0755	32.2266	56.3303	32.2266	56.3693	32.2266	56.9583	32.2266	56.8799	32.2266	57.6381	32.2266	57.5332	32.2266	58.3106	32.2266	58.2337	32.2266	58.9301	32.2266	58.8984	32.2266	59.4635	32.2266	59.4692	32.2266	59.8871	32.2266	59.9116	32.2266	60.1838	32.2266	60.2078	32.2266	60.3413	32.2266	60.351
33.6914	58.3291	33.6914	58.4653	33.6914	58.1294	33.6914	58.527	33.6914	57.8848	33.6914	58.5098	33.6914	57.6225	33.6914	58.4171	33.6914	57.38	33.6914	58.2627	33.6914	57.2038	33.6914	58.0748	33.6914	57.1434	33.6914	57.8997	33.6914	57.2383	33.6914	57.8004	33.6914	57.5037	33.6914	57.8434	33.6914	57.9234	33.6914	58.0726	33.6914	58.4554	33.6914	58.4851	33.6914	59.046	33.6914	59.0295	33.6914	59.643	33.6914	59.6301	33.6914	60.2026	33.6914	60.2134	33.6914	60.6911	33.6914	60.7234	33.6914	61.0832	33.6914	61.1234	33.6914	61.3606	33.6914	61.3927	33.6914	61.5097	33.6914	61.5219
35.1562	59.4431	35.1562	59.5834	35.1562	59.2361	35.1562	59.6468	35.1562	58.9795	35.1562	59.6299	35.1562	58.6993	35.1562	59.5363	35.1562	58.4314	35.1562	59.3795	35.1562	58.2222	35.1562	59.1868	35.1562	58.1223	35.1562	59.0024	35.1562	58.1751	35.1562	58.8867	35.1562	58.4011	35.1562	58.9042	35.1562	58.7887	35.1562	59.0998	35.1562	59.2979	35.1562	59.4743	35.1562	59.8743	35.1562	59.9819	35.1562	60.464	35.1562	60.5502	35.1562	61.021	35.1562	61.1075	35.1562	61.5098	35.1562	61.5972	35.1562	61.9044	35.1562	61.9816	35.1562	62.1856	35.1562	62.239	35.1562	62.3401	35.1562	62.3592
36.6211	60.7097	36.6211	60.8273	36.6211	60.5465	36.6211	60.8895	36.6211	60.3546	36.6211	60.8927	36.6211	60.1577	36.6211	60.8407	36.6211	59.9865	36.6211	60.7468	36.6211	59.8769	36.6211	60.6358	36.6211	59.8644	36.6211	60.5452	36.6211	59.9762	36.6211	60.5221	36.6211	60.2219	36.6211	60.612	36.6211	60.5896	36.6211	60.8427	36.6211	61.0491	36.6211	61.2094	36.6211	61.5603	36.6211	61.6749	36.6211	62.0817	36.6211	62.1834	36.6211	62.5762	36.6211	62.6783	36.6211	63.0131	36.6211	63.1128	36.6211	63.3684	36.6211	63.4541	36.6211	63.6239	36.6211	63.6821	36.6211	63.7663	36.6211	63.7869
38.0859	62.2204	38.0859	62.3273	38.0859	62.0779	38.0859	62.3898	38.0859	61.914	38.0859	62.4049	38.0859	61.7482	38.0859	62.3758	38.0859	61.6053	38.0859	62.3134	38.0859	61.5136	38.0859	62.2376	38.0859	61.5008	38.0859	62.1777	38.0859	61.5887	38.0859	62.1697	38.0859	61.7868	38.0859	62.2487	38.0859	62.0886	38.0859	62.4372	38.0859	62.4729	38.0859	62.7347	38.0859	62.9088	38.0859	63.1162	38.0859	63.3615	38.0859	63.5395	38.0859	63.798	38.0859	63.9578	38.0859	64.1894	38.0859	64.3298	38.0859	64.512	38.0859	64.6241	38.0859	64.7473	38.0859	64.8203	38.0859	64.8819	38.0859	64.9073
39.5508	63.3786	39.5508	63.4839	39.5508	63.2367	39.5508	63.5443	39.5508	63.0715	39.5508	63.5566	39.5508	62.9013	39.5508	63.5233	39.5508	62.7489	39.5508	63.4542	39.5508	62.6409	39.5508	63.3674	39.5508	62.6037	39.5508	63.2901	39.5508	62.6593	39.5508	63.2565	39.5508	62.8189	39.5508	63.3012	39.5508	63.0795	39.5508	63.4486	39.5508	63.4235	39.5508	63.7025	39.5508	63.8229	39.5508	64.0425	39.5508	64.2448	39.5508	64.4299	39.5508	64.6566	39.5508	64.8199	39.5508	65.0293	39.5508	65.1708	39.5508	65.3385	39.5508	65.4507	39.5508	65.5653	39.5508	65.638	39.5508	65.6956	39.5508	65.7208
41.0156	64.4571	41.0156	64.5466	41.0156	64.3368	41.0156	64.5976	41.0156	64.1975	41.0156	64.6076	41.0156	64.0557	41.0156	64.5793	41.0156	63.9317	41.0156	64.522	41.0156	63.8482	41.0156	64.4528	41.0156	63.8277	41.0156	64.3962	41.0156	63.8887	41.0156	64.3822	41.0156	64.0407	41.0156	64.4402	41.0156	64.2813	41.0156	64.5903	41.0156	64.5962	41.0156	64.8346	41.0156	64.9615	41.0156	65.1546	41.0156	65.3488	41.0156	65.5163	41.0156	65.7287	41.0156	65.8796	41.0156	66.0741	41.0156	66.2067	41.0156	66.362	41.0156	66.4679	41.0156	66.574	41.0156	66.6428	41.0156	66.6962	41.0156	66.7201
42.4805	65.6756	42.4805	65.7537	42.4805	65.5736	42.4805	65.8013	42.4805	65.4584	42.4805	65.8164	42.4805	65.3443	42.4805	65.8019	42.4805	65.2489	42.4805	65.767	42.4805	65.1914	42.4805	65.7271	42.4805	65.1906	42.4805	65.7034	42.4805	65.2612	42.4805	65.7212	42.4805	65.411	42.4805	65.8035	42.4805	65.6378	42.4805	65.9649	42.4805	65.9295	42.4805	66.2047	42.4805	66.2662	42.4805	66.5059	42.4805	66.6233	42.4805	66.8389	42.4805	66.9747	42.4805	67.1692	42.4805	67.2962	42.4805	67.4643	42.4805	67.5664	42.4805	67.698	42.4805	67.7676	42.4805	67.8521	42.4805	67.887	42.4805	67.9161
43.9453	66.8335	43.9453	66.9093	43.9453	66.7365	43.9453	66.9583	43.9453	66.6274	43.9453	66.9784	43.9453	66.5187	43.9453	66.9723	43.9453	66.4252	43.9453	66.9472	43.9453	66.3636	43.9453	66.9159	43.9453	66.3502	43.9453	66.8961	43.9453	66.3988	43.9453	66.9085	43.9453	66.5172	43.9453	66.973	43.9453	66.7054	43.9453	67.1027	43.9453	66.9547	43.9453	67.2992	43.9453	67.2487	43.9453	67.5502	43.9453	67.5661	43.9453	67.8324	43.9453	67.8833	43.9453	68.1161	43.9453	68.1772	43.9453	68.3723	43.9453	68.427	43.9453	68.5761	43.9453	68.6156	43.9453	68.7096	43.9453	68.73	43.9453	68.7622
45.4102	67.8628	45.4102	67.934	45.4102	67.7752	45.4102	67.9835	45.4102	67.6796	45.4102	68.0094	45.4102	67.5874	45.4102	68.0141	45.4102	67.5121	45.4102	68.0042	45.4102	67.4682	45.4102	67.9914	45.4102	67.4698	45.4102	67.9914	45.4102	67.5284	45.4102	68.0222	45.4102	67.6503	45.4102	68.1005	45.4102	67.835	45.4102	68.2369	45.4102	68.0746	45.4102	68.4318	45.4102	68.3545	45.4102	68.6738	45.4102	68.6555	45.4102	68.9413	45.4102	68.9564	45.4102	69.208	45.4102	69.2359	45.4102	69.447	45.4102	69.4746	45.4102	69.6359	45.4102	69.6563	45.4102	69.7579	45.4102	69.7684	45.4102	69.8032
46.875	68.8768	46.875	68.9465	46.875	68.7935	46.875	68.9977	46.875	68.7042	46.875	69.0289	46.875	68.6193	46.875	69.0421	46.875	68.5508	46.875	69.0434	46.875	68.5121	46.875	69.0432	46.875	68.5156	46.875	69.0552	46.875	68.5717	46.875	69.0951	46.875	68.6862	46.875	69.1771	46.875	68.8589	46.875	69.3103	46.875	69.083	46.875	69.4945	46.875	69.3456	46.875	69.7194	46.875	69.6293	46.875	69.966	46.875	69.9145	46.875	70.2104	46.875	70.1813	46.875	70.4283	46.875	70.4113	46.875	70.5987	46.875	70.5886	46.875	70.7061	46.875	70.7012	46.875	70.7413
48.3398	70.0242	48.3398	70.0883	48.3398	69.9482	48.3398	70.1361	48.3398	69.8667	48.3398	70.1663	48.3398	69.7884	48.3398	70.1804	48.3398	69.7238	48.3398	70.1837	48.3398	69.6839	48.3398	70.1849	48.3398	69.6799	48.3398	70.1956	48.3398	69.7211	48.3398	70.2295	48.3398	69.8134	48.3398	70.2991	48.3398	69.9579	48.3398	70.4127	48.3398	70.1498	48.3398	70.5709	48.3398	70.3789	48.3398	70.7658	48.3398	70.6305	48.3398	70.981	48.3398	70.8871	48.3398	71.1956	48.3398	71.1302	48.3398	71.3876	48.3398	71.3423	48.3398	71.5373	48.3398	71.5082	48.3398	71.6302	48.3398	71.6157	48.3398	71.6573
51.2695	71.8868	51.2695	71.9469	51.2695	71.8212	51.2695	71.9982	51.2695	71.7556	51.2695	72.0397	51.2695	71.697	51.2695	72.0731	51.2695	71.6538	51.2695	72.1023	51.2695	71.6349	51.2695	72.1341	51.2695	71.6488	51.2695	72.177	51.2695	71.7024	51.2695	72.2401	51.2695	71.7997	51.2695	72.3313	51.2695	71.9409	51.2695	72.4552	51.2695	72.1217	51.2695	72.6107	51.2695	72.3337	51.2695	72.7905	51.2695	72.5645	51.2695	72.9812	51.2695	72.7997	51.2695	73.1661	51.2695	73.0235	51.2695	73.3277	51.2695	73.2208	51.2695	73.4499	51.2695	73.3781	51.2695	73.5208	51.2695	73.4846	51.2695	73.5331
52.7344	72.7765	52.7344	72.8338	52.7344	72.7148	52.7344	72.8839	52.7344	72.6536	52.7344	72.9257	52.7344	72.5991	52.7344	72.9604	52.7344	72.5585	52.7344	72.9915	52.7344	72.5395	52.7344	73.0244	52.7344	72.5495	52.7344	73.0663	52.7344	72.5945	52.7344	73.1251	52.7344	72.6785	52.7344	73.2076	52.7344	72.802	52.7344	73.3178	52.7344	72.9619	52.7344	73.4552	52.7344	73.151	52.7344	73.6137	52.7344	73.3589	52.7344	73.7818	52.7344	73.5727	52.7344	73.9448	52.7344	73.7782	52.7344	74.0868	52.7344	73.9611	52.7344	74.1933	52.7344	74.1086	52.7344	74.2532	52.7344	74.2104	52.7344	74.2595
54.1992	73.6303	54.1992	73.6866	54.1992	73.572	54.1992	73.738	54.1992	73.5159	54.1992	73.7834	54.1992	73.4674	54.1992	73.8238	54.1992	73.4328	54.1992	73.8617	54.1992	73.4188	54.1992	73.9018	54.1992	73.4317	54.1992	73.9501	54.1992	73.4768	54.1992	74.013	54.1992	73.5574	54.1992	74.0964	54.1992	73.6741	54.1992	74.2035	54.1992	73.8242	54.1992	74.3335	54.1992	74.0016	54.1992	74.481	54.1992	74.1969	54.1992	74.6357	54.1992	74.3985	54.1992	74.7846	54.1992	74.5931	54.1992	74.9131	54.1992	74.7675	54.1992	75.008	54.1992	74.9096	54.1992	75.0592	54.1992	75.0094	54.1992	75.0602
55.6641	74.4971	55.6641	74.5535	55.6641	74.4401	55.6641	74.6066	55.6641	74.386	55.6641	74.6554	55.6641	74.3394	55.6641	74.7001	55.6641	74.3055	55.6641	74.7423	55.6641	74.2898	55.6641	74.7856	55.6641	74.2977	55.6641	74.8344	55.6641	74.334	55.6641	74.894	55.6641	74.4017	55.6641	74.9691	55.6641	74.5019	55.6641	75.0627	55.6641	74.6329	55.6641	75.1745	55.6641	74.7896	55.6641	75.3001	55.6641	74.9644	55.6641	75.4313	55.6641	75.1468	55.6641	75.5567	55.6641	75.3251	55.6641	75.6639	55.6641	75.4872	55.6641	75.7411	55.6641	75.6215	55.6641	75.779	55.6641	75.7186	55.6641	75.772
58.5938	75.8351	58.5938	75.8878	58.5938	75.7844	58.5938	75.9405	58.5938	75.7385	58.5938	75.9923	58.5938	75.7009	58.5938	76.0434	58.5938	75.6758	58.5938	76.095	58.5938	75.6676	58.5938	76.1496	58.5938	75.6805	58.5938	76.2101	58.5938	75.7183	58.5938	76.28	58.5938	75.7835	58.5938	76.3622	58.5938	75.877	58.5938	76.4579	58.5938	75.9974	58.5938	76.566	58.5938	76.1408	58.5938	76.6823	58.5938	76.3007	58.5938	76.7994	58.5938	76.4683	58.5938	76.9081	58.5938	76.6335	58.5938	76.9977	58.5938	76.7855	58.5938	77.0587	58.5938	76.9139	58.5938	77.0834	58.5938	77.0099	58.5938	77.0674
60.0586	76.6053	60.0586	76.6572	60.0586	76.5561	60.0586	76.7101	60.0586	76.512	60.0586	76.7633	60.0586	76.476	60.0586	76.8167	60.0586	76.4516	60.0586	76.871	60.0586	76.4425	60.0586	76.9278	60.0586	76.4524	60.0586	76.9894	60.0586	76.4846	60.0586	77.0583	60.0586	76.5418	60.0586	77.1364	60.0586	76.6248	60.0586	77.2247	60.0586	76.7328	60.0586	77.322	60.0586	76.8625	60.0586	77.4247	60.0586	77.0085	60.0586	77.5267	60.0586	77.1631	60.0586	77.6198	60.0586	77.3169	60.0586	77.6948	60.0586	77.4601	60.0586	77.7433	60.0586	77.5829	60.0586	77.7585	60.0586	77.6771	60.0586	77.7366
62.9883	77.9895	62.9883	78.0429	62.9883	77.9401	62.9883	78.0987	62.9883	77.8966	62.9883	78.1559	62.9883	77.8615	62.9883	78.2141	62.9883	77.8374	62.9883	78.2733	62.9883	77.8273	62.9883	78.3341	62.9883	77.8341	62.9883	78.3978	62.9883	77.8605	62.9883	78.4655	62.9883	77.9085	62.9883	78.5384	62.9883	77.979	62.9883	78.6168	62.9883	78.0717	62.9883	78.6995	62.9883	78.184	62.9883	78.7837	62.9883	78.3118	62.9883	78.8645	62.9883	78.4488	62.9883	78.9354	62.9883	78.5872	62.9883	78.9893	62.9883	78.7185	62.9883	79.0194	62.9883	78.8339	62.9883	79.0203	62.9883	78.9261	62.9883	78.9892
64.4531	78.4018	64.4531	78.4533	64.4531	78.3553	64.4531	78.5086	64.4531	78.3156	64.4531	78.5666	64.4531	78.2848	64.4531	78.6268	64.4531	78.2651	64.4531	78.6892	64.4531	78.259	64.4531	78.7541	64.4531	78.2691	64.4531	78.8221	64.4531	78.2974	64.4531	78.8938	64.4531	78.3458	64.4531	78.9697	64.4531	78.4151	64.4531	79.0494	64.4531	78.5046	64.4531	79.1316	64.4531	78.6125	64.4531	79.2131	64.4531	78.7346	64.4531	79.2895	64.4531	78.8656	64.4531	79.3549	64.4531	78.9981	64.4531	79.403	64.4531	79.1244	64.4531	79.4276	64.4531	79.2364	64.4531	79.4243	64.4531	79.327	64.4531	79.3906
67.3828	79.163	67.3828	79.2123	67.3828	79.1211	67.3828	79.268	67.3828	79.0877	67.3828	79.3292	67.3828	79.064	67.3828	79.3947	67.3828	79.0512	67.3828	79.4638	67.3828	79.0505	67.3828	79.5354	67.3828	79.0635	67.3828	79.6088	67.3828	79.0914	67.3828	79.6834	67.3828	79.1352	67.3828	79.7582	67.3828	79.1957	67.3828	79.8322	67.3828	79.2726	67.3828	79.9039	67.3828	79.3646	67.3828	79.9708	67.3828	79.469	67.3828	80.0296	67.3828	79.5817	67.3828	80.0762	67.3828	79.6973	67.3828	80.1062	67.3828	79.8093	67.3828	80.1154	67.3828	79.9111	67.3828	80.1007	67.3828	79.9966	67.3828	80.0608
