"SPL Horizontal"
"On-Axis"		"10°"		"-10°"		"20°"		"-20°"		"30°"		"-30°"		"40°"		"-40°"		"50°"		"-50°"		"60°"		"-60°"		"70°"		"-70°"		"80°"		"-80°"		"90°"		"-90°"		"100°"		"-100°"		"110°"		"-110°"		"120°"		"-120°"		"130°"		"-130°"		"140°"		"-140°"		"150°"		"-150°"		"160°"		"-160°"		"170°"		"-170°"		"180°"
"Frequency / Hz"	"Sound Pressure Level / dB (re 20 µPa/V)  [2.83  V @ 1. m]"	"Frequency / Hz"	"Sound Pressure Level / dB (re 20 µPa/V)  [2.83  V @ 1. m]"	"Frequency / Hz"	"Sound Pressure Level / dB (re 20 µPa/V)  [2.83  V @ 1. m]"	"Frequency / Hz"	"Sound Pressure Level / dB (re 20 µPa/V)  [2.83  V @ 1. m]"	"Frequency / Hz"	"Sound Pressure Level / dB (re 20 µPa/V)  [2.83  V @ 1. m]"	"Frequency / Hz"	"Sound Pressure Level / dB (re 20 µPa/V)  [2.83  V @ 1. m]"	"Frequency / Hz"	"Sound Pressure Level / dB (re 20 µPa/V)  [2.83  V @ 1. m]"	"Frequency / Hz"	"Sound Pressure Level / dB (re 20 µPa/V)  [2.83  V @ 1. m]"	"Frequency / Hz"	"Sound Pressure Level / dB (re 20 µPa/V)  [2.83  V @ 1. m]"	"Frequency / Hz"	"Sound Pressure Level / dB (re 20 µPa/V)  [2.83  V @ 1. m]"	"Frequency / Hz"	"Sound Pressure Level / dB (re 20 µPa/V)  [2.83  V @ 1. m]"	"Frequency / Hz"	"Sound Pressure Level / dB (re 20 µPa/V)  [2.83  V @ 1. m]"	"Frequency / Hz"	"Sound Pressure Level / dB (re 20 µPa/V)  [2.83  V @ 1. m]"	"Frequency / Hz"	"Sound Pressure Level / dB (re 20 µPa/V)  [2.83  V @ 1. m]"	"Frequency / Hz"	"Sound Pressure Level / dB (re 20 µPa/V)  [2.83  V @ 1. m]"	"Frequency / Hz"	"Sound Pressure Level / dB (re 20 µPa/V)  [2.83  V @ 1. m]"	"Frequency / Hz"	"Sound Pressure Level / dB (re 20 µPa/V)  [2.83  V @ 1. m]"	"Frequency / Hz"	"Sound Pressure Level / dB (re 20 µPa/V)  [2.83  V @ 1. m]"	"Frequency / Hz"	"Sound Pressure Level / dB (re 20 µPa/V)  [2.83  V @ 1. m]"	"Frequency / Hz"	"Sound Pressure Level / dB (re 20 µPa/V)  [2.83  V @ 1. m]"	"Frequency / Hz"	"Sound Pressure Level / dB (re 20 µPa/V)  [2.83  V @ 1. m]"	"Frequency / Hz"	"Sound Pressure Level / dB (re 20 µPa/V)  [2.83  V @ 1. m]"	"Frequency / Hz"	"Sound Pressure Level / dB (re 20 µPa/V)  [2.83  V @ 1. m]"	"Frequency / Hz"	"Sound Pressure Level / dB (re 20 µPa/V)  [2.83  V @ 1. m]"	"Frequency / Hz"	"Sound Pressure Level / dB (re 20 µPa/V)  [2.83  V @ 1. m]"	"Frequency / Hz"	"Sound Pressure Level / dB (re 20 µPa/V)  [2.83  V @ 1. m]"	"Frequency / Hz"	"Sound Pressure Level / dB (re 20 µPa/V)  [2.83  V @ 1. m]"	"Frequency / Hz"	"Sound Pressure Level / dB (re 20 µPa/V)  [2.83  V @ 1. m]"	"Frequency / Hz"	"Sound Pressure Level / dB (re 20 µPa/V)  [2.83  V @ 1. m]"	"Frequency / Hz"	"Sound Pressure Level / dB (re 20 µPa/V)  [2.83  V @ 1. m]"	"Frequency / Hz"	"Sound Pressure Level / dB (re 20 µPa/V)  [2.83  V @ 1. m]"	"Frequency / Hz"	"Sound Pressure Level / dB (re 20 µPa/V)  [2.83  V @ 1. m]"	"Frequency / Hz"	"Sound Pressure Level / dB (re 20 µPa/V)  [2.83  V @ 1. m]"	"Frequency / Hz"	"Sound Pressure Level / dB (re 20 µPa/V)  [2.83  V @ 1. m]"	"Frequency / Hz"	"Sound Pressure Level / dB (re 20 µPa/V)  [2.83  V @ 1. m]"	"Frequency / Hz"	"Sound Pressure Level / dB (re 20 µPa/V)  [2.83  V @ 1. m]"
20.5078	58.1713	20.5078	58.1608	20.5078	58.1763	20.5078	58.1477	20.5078	58.1735	20.5078	58.1342	20.5078	58.1615	20.5078	58.1225	20.5078	58.1408	20.5078	58.1145	20.5078	58.1132	20.5078	58.1115	20.5078	58.0819	20.5078	58.1143	20.5078	58.0499	20.5078	58.1219	20.5078	58.0195	20.5078	58.1312	20.5078	57.9918	20.5078	58.1376	20.5078	57.9669	20.5078	58.1359	20.5078	57.9441	20.5078	58.1221	20.5078	57.9226	20.5078	58.095	20.5078	57.9021	20.5078	58.0563	20.5078	57.8835	20.5078	58.0106	20.5078	57.8696	20.5078	57.9636	20.5078	57.8639	20.5078	57.9215	20.5078	57.8698	20.5078	57.8892
21.9727	58.4269	21.9727	58.362	21.9727	58.4973	21.9727	58.3006	21.9727	58.5746	21.9727	58.2407	21.9727	58.6594	21.9727	58.1811	21.9727	58.7508	21.9727	58.1223	21.9727	58.8471	21.9727	58.0668	21.9727	58.9454	21.9727	58.0184	21.9727	59.0412	21.9727	57.9815	21.9727	59.1293	21.9727	57.9599	21.9727	59.2038	21.9727	57.9566	21.9727	59.259	21.9727	57.9738	21.9727	59.2896	21.9727	58.0129	21.9727	59.2914	21.9727	58.0752	21.9727	59.2619	21.9727	58.161	21.9727	59.1999	21.9727	58.2695	21.9727	59.1067	21.9727	58.3983	21.9727	58.9866	21.9727	58.5426	21.9727	58.8463	21.9727	58.695
23.4375	57.7171	23.4375	57.7335	23.4375	57.6878	23.4375	57.7379	23.4375	57.6453	23.4375	57.7317	23.4375	57.5905	23.4375	57.7164	23.4375	57.5252	23.4375	57.6937	23.4375	57.452	23.4375	57.6647	23.4375	57.3741	23.4375	57.6294	23.4375	57.2945	23.4375	57.5869	23.4375	57.2161	23.4375	57.5351	23.4375	57.1407	23.4375	57.472	23.4375	57.0691	23.4375	57.3965	23.4375	57.0016	23.4375	57.3095	23.4375	56.9384	23.4375	57.2141	23.4375	56.8809	23.4375	57.1151	23.4375	56.8321	23.4375	57.0188	23.4375	56.7962	23.4375	56.9318	23.4375	56.778	23.4375	56.8603	23.4375	56.7817	23.4375	56.8093
24.9023	59.4508	24.9023	59.4409	24.9023	59.4537	24.9023	59.4246	24.9023	59.4493	24.9023	59.403	24.9023	59.4374	24.9023	59.3774	24.9023	59.4186	24.9023	59.3492	24.9023	59.3934	24.9023	59.3197	24.9023	59.363	24.9023	59.2897	24.9023	59.3287	24.9023	59.259	24.9023	59.2917	24.9023	59.227	24.9023	59.2534	24.9023	59.1926	24.9023	59.2145	24.9023	59.1555	24.9023	59.1756	24.9023	59.1163	24.9023	59.1371	24.9023	59.0769	24.9023	59.0994	24.9023	59.0404	24.9023	59.0637	24.9023	59.0097	24.9023	59.0315	24.9023	58.9877	24.9023	59.0047	24.9023	58.9761	24.9023	58.9854	24.9023	58.9755
26.3672	60.6512	26.3672	60.649	26.3672	60.6461	26.3672	60.6396	26.3672	60.6337	26.3672	60.6239	26.3672	60.6141	26.3672	60.6025	26.3672	60.5881	26.3672	60.5765	26.3672	60.5567	26.3672	60.5469	26.3672	60.5208	26.3672	60.5149	26.3672	60.4818	26.3672	60.4812	26.3672	60.4407	26.3672	60.4463	26.3672	60.399	26.3672	60.4105	26.3672	60.3579	26.3672	60.374	26.3672	60.3185	26.3672	60.3374	26.3672	60.2821	26.3672	60.3017	26.3672	60.2498	26.3672	60.2682	26.3672	60.2226	26.3672	60.2385	26.3672	60.2018	26.3672	60.214	26.3672	60.1882	26.3672	60.1959	26.3672	60.1826	26.3672	60.1853
27.832	61.0362	27.832	61.0217	27.832	61.0424	27.832	60.9997	27.832	61.0401	27.832	60.971	27.832	61.0291	27.832	60.9368	27.832	61.0098	27.832	60.8984	27.832	60.983	27.832	60.8573	27.832	60.9502	27.832	60.8152	27.832	60.913	27.832	60.7736	27.832	60.8737	27.832	60.734	27.832	60.834	27.832	60.6977	27.832	60.7955	27.832	60.6657	27.832	60.759	27.832	60.6389	27.832	60.7249	27.832	60.6175	27.832	60.6935	27.832	60.6016	27.832	60.6648	27.832	60.591	27.832	60.6395	27.832	60.5856	27.832	60.6182	27.832	60.5855	27.832	60.6018	27.832	60.5909
29.2969	62.0353	29.2969	62.0379	29.2969	62.0224	29.2969	62.03	29.2969	61.9996	29.2969	62.0114	29.2969	61.9676	29.2969	61.9825	29.2969	61.9275	29.2969	61.944	29.2969	61.8805	29.2969	61.8967	29.2969	61.828	29.2969	61.8423	29.2969	61.7717	29.2969	61.7823	29.2969	61.7133	29.2969	61.7184	29.2969	61.6542	29.2969	61.6523	29.2969	61.5957	29.2969	61.5859	29.2969	61.5392	29.2969	61.5215	29.2969	61.4855	29.2969	61.4613	29.2969	61.4359	29.2969	61.4079	29.2969	61.3917	29.2969	61.3637	29.2969	61.3545	29.2969	61.3306	29.2969	61.3261	29.2969	61.31	29.2969	61.3083	29.2969	61.3026
30.7617	62.6723	30.7617	62.6727	30.7617	62.6633	30.7617	62.6644	30.7617	62.6455	30.7617	62.6479	30.7617	62.6195	30.7617	62.6235	30.7617	62.586	30.7617	62.592	30.7617	62.5456	30.7617	62.5542	30.7617	62.4996	30.7617	62.5111	30.7617	62.449	30.7617	62.4635	30.7617	62.395	30.7617	62.4121	30.7617	62.3387	30.7617	62.3576	30.7617	62.2812	30.7617	62.3007	30.7617	62.2241	30.7617	62.2428	30.7617	62.169	30.7617	62.1857	30.7617	62.1179	30.7617	62.1318	30.7617	62.073	30.7617	62.0838	30.7617	62.0369	30.7617	62.0444	30.7617	62.0117	30.7617	62.0161	30.7617	61.9993	30.7617	62.0008
32.2266	63.2249	32.2266	63.2216	32.2266	63.2195	32.2266	63.2098	32.2266	63.2055	32.2266	63.1896	32.2266	63.183	32.2266	63.1615	32.2266	63.1526	32.2266	63.126	32.2266	63.1149	32.2266	63.0838	32.2266	63.071	32.2266	63.0359	32.2266	63.0219	32.2266	62.9835	32.2266	62.9691	32.2266	62.9279	32.2266	62.9139	32.2266	62.8707	32.2266	62.858	32.2266	62.8135	32.2266	62.803	32.2266	62.7577	32.2266	62.7504	32.2266	62.7054	32.2266	62.7016	32.2266	62.6587	32.2266	62.6581	32.2266	62.6196	32.2266	62.6214	32.2266	62.5905	32.2266	62.5931	32.2266	62.5729	32.2266	62.5747	32.2266	62.5677
33.6914	64.016	33.6914	64.0141	33.6914	64.0083	33.6914	64.0028	33.6914	63.991	33.6914	63.9825	33.6914	63.9643	33.6914	63.9534	33.6914	63.9288	33.6914	63.9163	33.6914	63.8854	33.6914	63.872	33.6914	63.8353	33.6914	63.8214	33.6914	63.78	33.6914	63.7657	33.6914	63.7214	33.6914	63.7062	33.6914	63.6614	33.6914	63.6445	33.6914	63.6017	33.6914	63.582	33.6914	63.544	33.6914	63.5208	33.6914	63.4897	33.6914	63.4631	33.6914	63.4401	33.6914	63.4115	33.6914	63.3965	33.6914	63.3686	33.6914	63.3601	33.6914	63.3365	33.6914	63.3326	33.6914	63.3167	33.6914	63.3153	33.6914	63.3097
35.1562	64.5106	35.1562	64.51	35.1562	64.5015	35.1562	64.5	35.1562	64.4828	35.1562	64.4809	35.1562	64.4552	35.1562	64.4537	35.1562	64.4195	35.1562	64.4192	35.1562	64.3768	35.1562	64.3785	35.1562	64.3286	35.1562	64.3328	35.1562	64.2764	35.1562	64.283	35.1562	64.2218	35.1562	64.23	35.1562	64.1664	35.1562	64.1747	35.1562	64.1116	35.1562	64.1181	35.1562	64.059	35.1562	64.0619	35.1562	64.0099	35.1562	64.0082	35.1562	63.9655	35.1562	63.9594	35.1562	63.927	35.1562	63.9182	35.1562	63.8956	35.1562	63.8866	35.1562	63.8726	35.1562	63.866	35.1562	63.8594	35.1562	63.8569
36.6211	65.6446	36.6211	65.6444	36.6211	65.6332	36.6211	65.6325	36.6211	65.6102	36.6211	65.6091	36.6211	65.5762	36.6211	65.5747	36.6211	65.5318	36.6211	65.5298	36.6211	65.4784	36.6211	65.4754	36.6211	65.4173	36.6211	65.4126	36.6211	65.3506	36.6211	65.3433	36.6211	65.2805	36.6211	65.2695	36.6211	65.2095	36.6211	65.1936	36.6211	65.14	36.6211	65.1183	36.6211	65.074	36.6211	65.0464	36.6211	65.0135	36.6211	64.9807	36.6211	64.9596	36.6211	64.9238	36.6211	64.9132	36.6211	64.8782	36.6211	64.8752	36.6211	64.8455	36.6211	64.8464	36.6211	64.8264	36.6211	64.8278	36.6211	64.8208
38.0859	65.8763	38.0859	65.8663	38.0859	65.8742	38.0859	65.8442	38.0859	65.8607	38.0859	65.8097	38.0859	65.8365	38.0859	65.7634	38.0859	65.802	38.0859	65.7058	38.0859	65.758	38.0859	65.6382	38.0859	65.7049	38.0859	65.562	38.0859	65.6432	38.0859	65.4791	38.0859	65.5737	38.0859	65.3918	38.0859	65.4976	38.0859	65.3029	38.0859	65.4166	38.0859	65.2155	38.0859	65.3327	38.0859	65.1326	38.0859	65.2486	38.0859	65.0578	38.0859	65.1672	38.0859	64.9945	38.0859	65.0917	38.0859	64.9457	38.0859	65.025	38.0859	64.9139	38.0859	64.9702	38.0859	64.9006	38.0859	64.9298	38.0859	64.9061
39.5508	66.2117	39.5508	66.1889	39.5508	66.2253	39.5508	66.1573	39.5508	66.2294	39.5508	66.1175	39.5508	66.2243	39.5508	66.0705	39.5508	66.2101	39.5508	66.0173	39.5508	66.1874	39.5508	65.9593	39.5508	66.157	39.5508	65.898	39.5508	66.1194	39.5508	65.8354	39.5508	66.0756	39.5508	65.7736	39.5508	66.0264	39.5508	65.7151	39.5508	65.9727	39.5508	65.662	39.5508	65.9157	39.5508	65.6163	39.5508	65.8569	39.5508	65.5797	39.5508	65.7978	39.5508	65.5536	39.5508	65.7403	39.5508	65.5388	39.5508	65.6864	39.5508	65.536	39.5508	65.6381	39.5508	65.5452	39.5508	65.5974	39.5508	65.5659
41.0156	66.9262	41.0156	66.9156	41.0156	66.9287	41.0156	66.8968	41.0156	66.9235	41.0156	66.8695	41.0156	66.9116	41.0156	66.8341	41.0156	66.8938	41.0156	66.7907	41.0156	66.8716	41.0156	66.7402	41.0156	66.8464	41.0156	66.6836	41.0156	66.82	41.0156	66.6228	41.0156	66.7939	41.0156	66.5602	41.0156	66.7691	41.0156	66.4992	41.0156	66.7461	41.0156	66.4437	41.0156	66.7242	41.0156	66.3979	41.0156	66.7017	41.0156	66.366	41.0156	66.6765	41.0156	66.3513	41.0156	66.6462	41.0156	66.3556	41.0156	66.6089	41.0156	66.3781	41.0156	66.5644	41.0156	66.4156	41.0156	66.5145	41.0156	66.4631
42.4805	67.3893	42.4805	67.3883	42.4805	67.3812	42.4805	67.3779	42.4805	67.3645	42.4805	67.3581	42.4805	67.3393	42.4805	67.3289	42.4805	67.3064	42.4805	67.2904	42.4805	67.2659	42.4805	67.2431	42.4805	67.2185	42.4805	67.1876	42.4805	67.1647	42.4805	67.1252	42.4805	67.1052	42.4805	67.0577	42.4805	67.0412	42.4805	66.9873	42.4805	66.9742	42.4805	66.9165	42.4805	66.9063	42.4805	66.8481	42.4805	66.8402	42.4805	66.7847	42.4805	66.7787	42.4805	66.7288	42.4805	66.7244	42.4805	66.6825	42.4805	66.6797	42.4805	66.6479	42.4805	66.6463	42.4805	66.6264	42.4805	66.6258	42.4805	66.619
43.9453	67.8259	43.9453	67.8339	43.9453	67.8155	43.9453	67.8393	43.9453	67.803	43.9453	67.8418	43.9453	67.7889	43.9453	67.8415	43.9453	67.7736	43.9453	67.838	43.9453	67.7578	43.9453	67.8313	43.9453	67.742	43.9453	67.8214	43.9453	67.7268	43.9453	67.8084	43.9453	67.7126	43.9453	67.7927	43.9453	67.6996	43.9453	67.775	43.9453	67.6883	43.9453	67.7564	43.9453	67.6789	43.9453	67.7378	43.9453	67.6718	43.9453	67.7204	43.9453	67.667	43.9453	67.7049	43.9453	67.6644	43.9453	67.6921	43.9453	67.6636	43.9453	67.682	43.9453	67.6642	43.9453	67.6745	43.9453	67.6661	43.9453	67.6694
45.4102	68.3271	45.4102	68.3214	45.4102	68.3263	45.4102	68.3093	45.4102	68.319	45.4102	68.2913	45.4102	68.3059	45.4102	68.2683	45.4102	68.2878	45.4102	68.2415	45.4102	68.2658	45.4102	68.212	45.4102	68.2414	45.4102	68.1815	45.4102	68.2163	45.4102	68.1514	45.4102	68.1919	45.4102	68.1236	45.4102	68.1699	45.4102	68.0996	45.4102	68.1515	45.4102	68.0807	45.4102	68.1372	45.4102	68.0678	45.4102	68.127	45.4102	68.0612	45.4102	68.1202	45.4102	68.0605	45.4102	68.1154	45.4102	68.0646	45.4102	68.111	45.4102	68.0721	45.4102	68.1059	45.4102	68.0813	45.4102	68.0991	45.4102	68.0907
46.875	68.9953	46.875	68.9914	46.875	68.9883	46.875	68.9767	46.875	68.9705	46.875	68.9515	46.875	68.9424	46.875	68.9164	46.875	68.9047	46.875	68.8724	46.875	68.8585	46.875	68.8206	46.875	68.8051	46.875	68.7624	46.875	68.7461	46.875	68.6996	46.875	68.6834	46.875	68.6341	46.875	68.6191	46.875	68.5681	46.875	68.5554	46.875	68.5038	46.875	68.4942	46.875	68.4436	46.875	68.4375	46.875	68.3895	46.875	68.3868	46.875	68.3431	46.875	68.3432	46.875	68.3061	46.875	68.3078	46.875	68.2793	46.875	68.2814	46.875	68.2634	46.875	68.2648	46.875	68.2587
48.3398	69.4825	48.3398	69.4793	48.3398	69.4742	48.3398	69.4647	48.3398	69.4546	48.3398	69.4389	48.3398	69.424	48.3398	69.402	48.3398	69.3827	48.3398	69.3547	48.3398	69.3314	48.3398	69.2978	48.3398	69.271	48.3398	69.2325	48.3398	69.2026	48.3398	69.1604	48.3398	69.1281	48.3398	69.0837	48.3398	69.0496	48.3398	69.0046	48.3398	68.9697	48.3398	68.9257	48.3398	68.8912	48.3398	68.8498	48.3398	68.8171	48.3398	68.7796	48.3398	68.7499	48.3398	68.7174	48.3398	68.6922	48.3398	68.6657	48.3398	68.6459	48.3398	68.6262	48.3398	68.6126	48.3398	68.6005	48.3398	68.5936	48.3398	68.5895
51.2695	70.1723	51.2695	70.1706	51.2695	70.1676	51.2695	70.1627	51.2695	70.1567	51.2695	70.1486	51.2695	70.1398	51.2695	70.1286	51.2695	70.1171	51.2695	70.1029	51.2695	70.0893	51.2695	70.0721	51.2695	70.0567	51.2695	70.0364	51.2695	70.0203	51.2695	69.9967	51.2695	69.981	51.2695	69.9535	51.2695	69.9396	51.2695	69.908	51.2695	69.8974	51.2695	69.8617	51.2695	69.8556	51.2695	69.8163	51.2695	69.8153	51.2695	69.7741	51.2695	69.7778	51.2695	69.7373	51.2695	69.7444	51.2695	69.7077	51.2695	69.7161	51.2695	69.6867	51.2695	69.6941	51.2695	69.675	51.2695	69.6793	51.2695	69.6726
52.7344	70.4773	52.7344	70.4861	52.7344	70.4635	52.7344	70.4902	52.7344	70.4448	52.7344	70.4901	52.7344	70.4215	52.7344	70.4864	52.7344	70.3944	52.7344	70.4798	52.7344	70.3645	52.7344	70.4706	52.7344	70.3331	52.7344	70.4592	52.7344	70.3019	52.7344	70.4454	52.7344	70.2724	52.7344	70.4289	52.7344	70.2459	52.7344	70.4092	52.7344	70.2234	52.7344	70.3862	52.7344	70.2054	52.7344	70.36	52.7344	70.1921	52.7344	70.3314	52.7344	70.1834	52.7344	70.3017	52.7344	70.1792	52.7344	70.2729	52.7344	70.1792	52.7344	70.2464	52.7344	70.1835	52.7344	70.2237	52.7344	70.1922	52.7344	70.2056
54.1992	70.7121	54.1992	70.7176	54.1992	70.703	54.1992	70.7198	54.1992	70.6903	54.1992	70.7197	54.1992	70.6742	54.1992	70.7183	54.1992	70.6557	54.1992	70.7166	54.1992	70.6361	54.1992	70.7157	54.1992	70.6171	54.1992	70.7162	54.1992	70.6006	54.1992	70.7186	54.1992	70.5883	54.1992	70.7228	54.1992	70.582	54.1992	70.7283	54.1992	70.5825	54.1992	70.7343	54.1992	70.5899	54.1992	70.7397	54.1992	70.6034	54.1992	70.7438	54.1992	70.6216	54.1992	70.7456	54.1992	70.6426	54.1992	70.7446	54.1992	70.6644	54.1992	70.7402	54.1992	70.6854	54.1992	70.732	54.1992	70.7043	54.1992	70.72
55.6641	71.2014	55.6641	71.2115	55.6641	71.183	55.6641	71.2131	55.6641	71.1564	55.6641	71.2068	55.6641	71.1227	55.6641	71.1934	55.6641	71.0831	55.6641	71.1743	55.6641	71.0396	55.6641	71.1508	55.6641	70.9945	55.6641	71.125	55.6641	70.9503	55.6641	71.0989	55.6641	70.9097	55.6641	71.0745	55.6641	70.8752	55.6641	71.0533	55.6641	70.8487	55.6641	71.0362	55.6641	70.8318	55.6641	71.0228	55.6641	70.8249	55.6641	71.0117	55.6641	70.8278	55.6641	71.0009	55.6641	70.8394	55.6641	70.9886	55.6641	70.8577	55.6641	70.973	55.6641	70.8807	55.6641	70.9537	55.6641	70.9058	55.6641	70.9308
58.5938	72.5581	58.5938	72.5241	58.5938	72.5742	58.5938	72.4728	58.5938	72.5725	58.5938	72.4057	58.5938	72.5536	58.5938	72.3247	58.5938	72.5184	58.5938	72.2329	58.5938	72.4684	58.5938	72.1337	58.5938	72.4048	58.5938	72.031	58.5938	72.3296	58.5938	71.9288	58.5938	72.2447	58.5938	71.8308	58.5938	72.1526	58.5938	71.7406	58.5938	72.0559	58.5938	71.6607	58.5938	71.9576	58.5938	71.5928	58.5938	71.8607	58.5938	71.5378	58.5938	71.7683	58.5938	71.4958	58.5938	71.6831	58.5938	71.4671	58.5938	71.6081	58.5938	71.4521	58.5938	71.5458	58.5938	71.4516	58.5938	71.4983	58.5938	71.4669
60.0586	72.8479	60.0586	72.8148	60.0586	72.864	60.0586	72.7645	60.0586	72.8637	60.0586	72.6973	60.0586	72.8477	60.0586	72.6141	60.0586	72.8167	60.0586	72.5164	60.0586	72.7714	60.0586	72.4068	60.0586	72.7129	60.0586	72.2886	60.0586	72.6424	60.0586	72.1659	60.0586	72.5616	60.0586	72.0434	60.0586	72.4725	60.0586	71.9263	60.0586	72.3773	60.0586	71.8201	60.0586	72.2783	60.0586	71.7299	60.0586	72.1778	60.0586	71.66	60.0586	72.0778	60.0586	71.6135	60.0586	71.9805	60.0586	71.5919	60.0586	71.888	60.0586	71.5948	60.0586	71.8029	60.0586	71.6204	60.0586	71.7277	60.0586	71.6658
62.9883	73.7524	62.9883	73.7529	62.9883	73.7323	62.9883	73.7341	62.9883	73.6928	62.9883	73.6968	62.9883	73.6342	62.9883	73.6418	62.9883	73.5579	62.9883	73.5703	62.9883	73.4657	62.9883	73.4837	62.9883	73.3602	62.9883	73.3839	62.9883	73.2446	62.9883	73.2732	62.9883	73.1228	62.9883	73.1544	62.9883	72.9988	62.9883	73.031	62.9883	72.8769	62.9883	72.9069	62.9883	72.7612	62.9883	72.7866	62.9883	72.6554	62.9883	72.6747	62.9883	72.5629	62.9883	72.5755	62.9883	72.4859	62.9883	72.493	62.9883	72.4266	62.9883	72.4296	62.9883	72.3862	62.9883	72.387	62.9883	72.3657	62.9883	72.3658
64.4531	73.8399	64.4531	73.8406	64.4531	73.8239	64.4531	73.826	64.4531	73.7928	64.4531	73.7967	64.4531	73.7473	64.4531	73.7534	64.4531	73.6883	64.4531	73.6975	64.4531	73.6174	64.4531	73.6301	64.4531	73.5364	64.4531	73.5528	64.4531	73.4474	64.4531	73.4677	64.4531	73.353	64.4531	73.3767	64.4531	73.2557	64.4531	73.2824	64.4531	73.1586	64.4531	73.1874	64.4531	73.0648	64.4531	73.0945	64.4531	72.9774	64.4531	73.007	64.4531	72.8997	64.4531	72.9276	64.4531	72.8347	64.4531	72.8592	64.4531	72.7849	64.4531	72.8042	64.4531	72.7523	64.4531	72.7646	64.4531	72.7379	64.4531	72.7422
67.3828	74.2355	67.3828	74.2322	67.3828	74.2272	67.3828	74.2178	67.3828	74.2077	67.3828	74.1928	67.3828	74.1776	67.3828	74.1583	67.3828	74.1379	67.3828	74.1157	67.3828	74.0901	67.3828	74.0667	67.3828	74.0359	67.3828	74.0129	67.3828	73.9773	67.3828	73.9565	67.3828	73.9163	67.3828	73.8993	67.3828	73.8554	67.3828	73.843	67.3828	73.7965	67.3828	73.7893	67.3828	73.7418	67.3828	73.7396	67.3828	73.6929	67.3828	73.695	67.3828	73.6513	67.3828	73.6562	67.3828	73.6178	67.3828	73.624	67.3828	73.593	67.3828	73.5989	67.3828	73.5771	67.3828	73.5813	67.3828	73.5701	67.3828	73.5716
