"SPL Vertical"
"On-Axis"		"10°"		"-10°"		"20°"		"-20°"		"30°"		"-30°"		"40°"		"-40°"		"50°"		"-50°"		"60°"		"-60°"		"70°"		"-70°"		"80°"		"-80°"		"90°"		"-90°"		"100°"		"-100°"		"110°"		"-110°"		"120°"		"-120°"		"130°"		"-130°"		"140°"		"-140°"		"150°"		"-150°"		"160°"		"-160°"		"170°"		"-170°"		"180°"
"Frequency / Hz"	"Sound Pressure Level / dB (re 20 µPa/V)  [2.83  V @ 1. m]"	"Frequency / Hz"	"Sound Pressure Level / dB (re 20 µPa/V)  [2.83  V @ 1. m]"	"Frequency / Hz"	"Sound Pressure Level / dB (re 20 µPa/V)  [2.83  V @ 1. m]"	"Frequency / Hz"	"Sound Pressure Level / dB (re 20 µPa/V)  [2.83  V @ 1. m]"	"Frequency / Hz"	"Sound Pressure Level / dB (re 20 µPa/V)  [2.83  V @ 1. m]"	"Frequency / Hz"	"Sound Pressure Level / dB (re 20 µPa/V)  [2.83  V @ 1. m]"	"Frequency / Hz"	"Sound Pressure Level / dB (re 20 µPa/V)  [2.83  V @ 1. m]"	"Frequency / Hz"	"Sound Pressure Level / dB (re 20 µPa/V)  [2.83  V @ 1. m]"	"Frequency / Hz"	"Sound Pressure Level / dB (re 20 µPa/V)  [2.83  V @ 1. m]"	"Frequency / Hz"	"Sound Pressure Level / dB (re 20 µPa/V)  [2.83  V @ 1. m]"	"Frequency / Hz"	"Sound Pressure Level / dB (re 20 µPa/V)  [2.83  V @ 1. m]"	"Frequency / Hz"	"Sound Pressure Level / dB (re 20 µPa/V)  [2.83  V @ 1. m]"	"Frequency / Hz"	"Sound Pressure Level / dB (re 20 µPa/V)  [2.83  V @ 1. m]"	"Frequency / Hz"	"Sound Pressure Level / dB (re 20 µPa/V)  [2.83  V @ 1. m]"	"Frequency / Hz"	"Sound Pressure Level / dB (re 20 µPa/V)  [2.83  V @ 1. m]"	"Frequency / Hz"	"Sound Pressure Level / dB (re 20 µPa/V)  [2.83  V @ 1. m]"	"Frequency / Hz"	"Sound Pressure Level / dB (re 20 µPa/V)  [2.83  V @ 1. m]"	"Frequency / Hz"	"Sound Pressure Level / dB (re 20 µPa/V)  [2.83  V @ 1. m]"	"Frequency / Hz"	"Sound Pressure Level / dB (re 20 µPa/V)  [2.83  V @ 1. m]"	"Frequency / Hz"	"Sound Pressure Level / dB (re 20 µPa/V)  [2.83  V @ 1. m]"	"Frequency / Hz"	"Sound Pressure Level / dB (re 20 µPa/V)  [2.83  V @ 1. m]"	"Frequency / Hz"	"Sound Pressure Level / dB (re 20 µPa/V)  [2.83  V @ 1. m]"	"Frequency / Hz"	"Sound Pressure Level / dB (re 20 µPa/V)  [2.83  V @ 1. m]"	"Frequency / Hz"	"Sound Pressure Level / dB (re 20 µPa/V)  [2.83  V @ 1. m]"	"Frequency / Hz"	"Sound Pressure Level / dB (re 20 µPa/V)  [2.83  V @ 1. m]"	"Frequency / Hz"	"Sound Pressure Level / dB (re 20 µPa/V)  [2.83  V @ 1. m]"	"Frequency / Hz"	"Sound Pressure Level / dB (re 20 µPa/V)  [2.83  V @ 1. m]"	"Frequency / Hz"	"Sound Pressure Level / dB (re 20 µPa/V)  [2.83  V @ 1. m]"	"Frequency / Hz"	"Sound Pressure Level / dB (re 20 µPa/V)  [2.83  V @ 1. m]"	"Frequency / Hz"	"Sound Pressure Level / dB (re 20 µPa/V)  [2.83  V @ 1. m]"	"Frequency / Hz"	"Sound Pressure Level / dB (re 20 µPa/V)  [2.83  V @ 1. m]"	"Frequency / Hz"	"Sound Pressure Level / dB (re 20 µPa/V)  [2.83  V @ 1. m]"	"Frequency / Hz"	"Sound Pressure Level / dB (re 20 µPa/V)  [2.83  V @ 1. m]"	"Frequency / Hz"	"Sound Pressure Level / dB (re 20 µPa/V)  [2.83  V @ 1. m]"	"Frequency / Hz"	"Sound Pressure Level / dB (re 20 µPa/V)  [2.83  V @ 1. m]"	"Frequency / Hz"	"Sound Pressure Level / dB (re 20 µPa/V)  [2.83  V @ 1. m]"
20.5078	58.1713	20.5078	58.0351	20.5078	58.2994	20.5078	57.8963	20.5078	58.415	20.5078	57.7608	20.5078	58.5146	20.5078	57.6343	20.5078	58.5957	20.5078	57.5219	20.5078	58.657	20.5078	57.4276	20.5078	58.6978	20.5078	57.3542	20.5078	58.718	20.5078	57.3033	20.5078	58.7178	20.5078	57.2756	20.5078	58.698	20.5078	57.271	20.5078	58.6597	20.5078	57.2889	20.5078	58.6042	20.5078	57.328	20.5078	58.5331	20.5078	57.3867	20.5078	58.4479	20.5078	57.463	20.5078	58.3507	20.5078	57.5544	20.5078	58.2436	20.5078	57.6581	20.5078	58.1289	20.5078	57.7708	20.5078	58.0097	20.5078	57.8892
21.9727	58.4269	21.9727	58.3465	21.9727	58.5101	21.9727	58.2738	21.9727	58.5912	21.9727	58.2132	21.9727	58.6656	21.9727	58.1679	21.9727	58.7299	21.9727	58.1397	21.9727	58.7816	21.9727	58.1293	21.9727	58.8196	21.9727	58.1362	21.9727	58.8437	21.9727	58.159	21.9727	58.8552	21.9727	58.1958	21.9727	58.8561	21.9727	58.2443	21.9727	58.8488	21.9727	58.3017	21.9727	58.8361	21.9727	58.3649	21.9727	58.8205	21.9727	58.4307	21.9727	58.8037	21.9727	58.4956	21.9727	58.7866	21.9727	58.5565	21.9727	58.7688	21.9727	58.6109	21.9727	58.749	21.9727	58.6572	21.9727	58.7251	21.9727	58.695
23.4375	57.7171	23.4375	57.6011	23.4375	57.8226	23.4375	57.4778	23.4375	57.9145	23.4375	57.3507	23.4375	57.9901	23.4375	57.2238	23.4375	58.0465	23.4375	57.1007	23.4375	58.0812	23.4375	56.9849	23.4375	58.0916	23.4375	56.8796	23.4375	58.0761	23.4375	56.7869	23.4375	58.0338	23.4375	56.7086	23.4375	57.9651	23.4375	56.6461	23.4375	57.872	23.4375	56.6002	23.4375	57.7577	23.4375	56.5716	23.4375	57.6267	23.4375	56.561	23.4375	57.4844	23.4375	56.5693	23.4375	57.3366	23.4375	56.5975	23.4375	57.1895	23.4375	56.6467	23.4375	57.0491	23.4375	56.7174	23.4375	56.9209	23.4375	56.8093
24.9023	59.4508	24.9023	59.3485	24.9023	59.5485	24.9023	59.2446	24.9023	59.6381	24.9023	59.1423	24.9023	59.7166	24.9023	59.0446	24.9023	59.7808	24.9023	58.954	24.9023	59.8278	24.9023	58.8729	24.9023	59.8553	24.9023	58.8031	24.9023	59.8615	24.9023	58.7461	24.9023	59.8457	24.9023	58.7028	24.9023	59.8083	24.9023	58.674	24.9023	59.751	24.9023	58.6603	24.9023	59.6763	24.9023	58.6619	24.9023	59.5877	24.9023	58.6786	24.9023	59.489	24.9023	58.7105	24.9023	59.3842	24.9023	58.757	24.9023	59.2771	24.9023	58.8174	24.9023	59.1712	24.9023	58.8907	24.9023	59.0697	24.9023	58.9755
26.3672	60.6512	26.3672	60.54	26.3672	60.7563	26.3672	60.4264	26.3672	60.8514	26.3672	60.3145	26.3672	60.9329	26.3672	60.2078	26.3672	60.9977	26.3672	60.1096	26.3672	61.0435	26.3672	60.0223	26.3672	61.0685	26.3672	59.9482	26.3672	61.0717	26.3672	59.889	26.3672	61.0532	26.3672	59.8458	26.3672	61.014	26.3672	59.8194	26.3672	60.956	26.3672	59.8104	26.3672	60.882	26.3672	59.8187	26.3672	60.7953	26.3672	59.8441	26.3672	60.6991	26.3672	59.8857	26.3672	60.5969	26.3672	59.9423	26.3672	60.4918	26.3672	60.0125	26.3672	60.3864	26.3672	60.0942	26.3672	60.2835	26.3672	60.1853
27.832	61.0362	27.832	60.9212	27.832	61.146	27.832	60.805	27.832	61.2469	27.832	60.6913	27.832	61.3349	27.832	60.5836	27.832	61.4064	27.832	60.4847	27.832	61.4584	27.832	60.3973	27.832	61.4886	27.832	60.3235	27.832	61.4957	27.832	60.2651	27.832	61.4794	27.832	60.2234	27.832	61.4408	27.832	60.1992	27.832	61.382	27.832	60.193	27.832	61.3061	27.832	60.2046	27.832	61.2168	27.832	60.2335	27.832	61.1178	27.832	60.2787	27.832	61.0127	27.832	60.3389	27.832	60.9049	27.832	60.4124	27.832	60.797	27.832	60.497	27.832	60.6916	27.832	60.5909
29.2969	62.0353	29.2969	61.9127	29.2969	62.1492	29.2969	61.7855	29.2969	62.25	29.2969	61.6579	29.2969	62.3341	29.2969	61.5338	29.2969	62.3979	29.2969	61.4165	29.2969	62.4387	29.2969	61.3091	29.2969	62.4547	29.2969	61.2139	29.2969	62.445	29.2969	61.133	29.2969	62.4097	29.2969	61.0679	29.2969	62.3503	29.2969	61.0197	29.2969	62.269	29.2969	60.9894	29.2969	62.169	29.2969	60.9777	29.2969	62.0544	29.2969	60.985	29.2969	61.9294	29.2969	61.0116	29.2969	61.7985	29.2969	61.0574	29.2969	61.6663	29.2969	61.122	29.2969	61.5369	29.2969	61.2043	29.2969	61.4145	29.2969	61.3026
30.7617	62.6723	30.7617	62.5722	30.7617	62.765	30.7617	62.468	30.7617	62.8469	30.7617	62.3631	30.7617	62.9148	30.7617	62.2604	30.7617	62.9659	30.7617	62.1628	30.7617	62.9977	30.7617	62.0726	30.7617	63.0084	30.7617	61.992	30.7617	62.9967	30.7617	61.9224	30.7617	62.9627	30.7617	61.8651	30.7617	62.9073	30.7617	61.8211	30.7617	62.8325	30.7617	61.7911	30.7617	62.7414	30.7617	61.7756	30.7617	62.6379	30.7617	61.775	30.7617	62.5265	30.7617	61.7895	30.7617	62.4117	30.7617	61.8195	30.7617	62.298	30.7617	61.8649	30.7617	62.1894	30.7617	61.9255	30.7617	62.0894	30.7617	62.0008
32.2266	63.2249	32.2266	63.1207	32.2266	63.3219	32.2266	63.0129	32.2266	63.4083	32.2266	62.9047	32.2266	63.4808	32.2266	62.7993	32.2266	63.5363	32.2266	62.6997	32.2266	63.572	32.2266	62.6082	32.2266	63.5859	32.2266	62.5272	32.2266	63.5765	32.2266	62.4584	32.2266	63.5437	32.2266	62.4031	32.2266	63.4883	32.2266	62.3621	32.2266	63.4126	32.2266	62.336	32.2266	63.3197	32.2266	62.3249	32.2266	63.214	32.2266	62.3288	32.2266	63.1002	32.2266	62.3476	32.2266	62.9831	32.2266	62.3811	32.2266	62.8676	32.2266	62.4291	32.2266	62.7578	32.2266	62.4914	32.2266	62.657	32.2266	62.5677
33.6914	64.016	33.6914	63.9093	33.6914	64.1153	33.6914	63.7988	33.6914	64.2039	33.6914	63.6874	33.6914	64.2787	33.6914	63.5784	33.6914	64.3363	33.6914	63.4745	33.6914	64.3741	33.6914	63.3782	33.6914	64.3898	33.6914	63.2916	33.6914	64.382	33.6914	63.2167	33.6914	64.3501	33.6914	63.1549	33.6914	64.2948	33.6914	63.1073	33.6914	64.2179	33.6914	63.0748	33.6914	64.1223	33.6914	63.0581	33.6914	64.0119	33.6914	63.0578	33.6914	63.8914	33.6914	63.0741	33.6914	63.7658	33.6914	63.1075	33.6914	63.6404	33.6914	63.1581	33.6914	63.5199	33.6914	63.2257	33.6914	63.4085	33.6914	63.3097
35.1562	64.5106	35.1562	64.405	35.1562	64.6094	35.1562	64.2961	35.1562	64.6978	35.1562	64.1874	35.1562	64.7724	35.1562	64.082	35.1562	64.8299	35.1562	63.9827	35.1562	64.8675	35.1562	63.892	35.1562	64.883	35.1562	63.8119	35.1562	64.8752	35.1562	63.7439	35.1562	64.8437	35.1562	63.6891	35.1562	64.7894	35.1562	63.6484	35.1562	64.7144	35.1562	63.6222	35.1562	64.622	35.1562	63.6107	35.1562	64.5161	35.1562	63.6142	35.1562	64.4015	35.1562	63.6326	35.1562	64.2829	35.1562	63.666	35.1562	64.1652	35.1562	63.7147	35.1562	64.0527	35.1562	63.7785	35.1562	63.949	35.1562	63.8569
36.6211	65.6446	36.6211	65.5365	36.6211	65.7429	36.6211	65.4223	36.6211	65.8279	36.6211	65.3054	36.6211	65.8963	36.6211	65.1894	36.6211	65.9453	36.6211	65.0775	36.6211	65.9724	36.6211	64.9724	36.6211	65.9761	36.6211	64.8767	36.6211	65.9553	36.6211	64.7926	36.6211	65.9103	36.6211	64.7218	36.6211	65.8422	36.6211	64.6657	36.6211	65.7536	36.6211	64.6254	36.6211	65.6477	36.6211	64.6014	36.6211	65.529	36.6211	64.5945	36.6211	65.4024	36.6211	64.6048	36.6211	65.2731	36.6211	64.6326	36.6211	65.146	36.6211	64.678	36.6211	65.0258	36.6211	64.7409	36.6211	64.9164	36.6211	64.8208
38.0859	65.8763	38.0859	65.7679	38.0859	65.9734	38.0859	65.652	38.0859	66.056	38.0859	65.532	38.0859	66.121	38.0859	65.4114	38.0859	66.1658	38.0859	65.2935	38.0859	66.1883	38.0859	65.1811	38.0859	66.1869	38.0859	65.0765	38.0859	66.1609	38.0859	64.982	38.0859	66.1102	38.0859	64.899	38.0859	66.0357	38.0859	64.8291	38.0859	65.9394	38.0859	64.7736	38.0859	65.8242	38.0859	64.7339	38.0859	65.6943	38.0859	64.7112	38.0859	65.5544	38.0859	64.7072	38.0859	65.4101	38.0859	64.7236	38.0859	65.2674	38.0859	64.7618	38.0859	65.1323	38.0859	64.8227	38.0859	65.0104	38.0859	64.9061
39.5508	66.2117	39.5508	66.1067	39.5508	66.3098	39.5508	65.9985	39.5508	66.3973	39.5508	65.8904	39.5508	66.471	39.5508	65.7858	39.5508	66.5276	39.5508	65.6872	39.5508	66.5646	39.5508	65.5971	39.5508	66.58	39.5508	65.5173	39.5508	66.5726	39.5508	65.4492	39.5508	66.5422	39.5508	65.394	39.5508	66.4897	39.5508	65.3525	39.5508	66.417	39.5508	65.3253	39.5508	66.3272	39.5508	65.3131	39.5508	66.224	39.5508	65.316	39.5508	66.1116	39.5508	65.3346	39.5508	65.9947	39.5508	65.369	39.5508	65.8777	39.5508	65.4193	39.5508	65.7649	39.5508	65.4852	39.5508	65.6599	39.5508	65.5659
41.0156	66.9262	41.0156	66.8327	41.0156	67.0159	41.0156	66.7391	41.0156	67.0979	41.0156	66.6485	41.0156	67.1686	41.0156	66.5637	41.0156	67.2248	41.0156	66.4865	41.0156	67.264	41.0156	66.4184	41.0156	67.2841	41.0156	66.3602	41.0156	67.2843	41.0156	66.3125	41.0156	67.2642	41.0156	66.2756	41.0156	67.2246	41.0156	66.2497	41.0156	67.1673	41.0156	66.235	41.0156	67.0948	41.0156	66.2316	41.0156	67.0104	41.0156	66.2398	41.0156	66.9179	41.0156	66.26	41.0156	66.8211	41.0156	66.2925	41.0156	66.724	41.0156	66.3373	41.0156	66.6301	41.0156	66.3944	41.0156	66.5423	41.0156	66.4631
42.4805	67.3893	42.4805	67.2852	42.4805	67.486	42.4805	67.1769	42.4805	67.5719	42.4805	67.0676	42.4805	67.6438	42.4805	66.96	42.4805	67.6984	42.4805	66.8569	42.4805	67.7331	42.4805	66.7605	42.4805	67.7453	42.4805	66.6728	42.4805	67.7337	42.4805	66.5955	42.4805	67.6976	42.4805	66.53	42.4805	67.6375	42.4805	66.4774	42.4805	67.5554	42.4805	66.4385	42.4805	67.4541	42.4805	66.4142	42.4805	67.3379	42.4805	66.4052	42.4805	67.2116	42.4805	66.4123	42.4805	67.0807	42.4805	66.4365	42.4805	66.9509	42.4805	66.4788	42.4805	66.8277	42.4805	66.5396	42.4805	66.7158	42.4805	66.619
43.9453	67.8259	43.9453	67.7252	43.9453	67.9261	43.9453	67.6275	43.9453	68.0222	43.9453	67.5357	43.9453	68.1103	43.9453	67.4527	43.9453	68.1867	43.9453	67.3806	43.9453	68.2483	43.9453	67.3214	43.9453	68.2922	43.9453	67.2763	43.9453	68.3168	43.9453	67.2465	43.9453	68.3213	43.9453	67.2322	43.9453	68.306	43.9453	67.2336	43.9453	68.2725	43.9453	67.25	43.9453	68.223	43.9453	67.2805	43.9453	68.1604	43.9453	67.3236	43.9453	68.0878	43.9453	67.3777	43.9453	68.0082	43.9453	67.4411	43.9453	67.9245	43.9453	67.5119	43.9453	67.8389	43.9453	67.5885	43.9453	67.7533	43.9453	67.6694
45.4102	68.3271	45.4102	68.2116	45.4102	68.4375	45.4102	68.0952	45.4102	68.5388	45.4102	67.9822	45.4102	68.6275	45.4102	67.8769	45.4102	68.7003	45.4102	67.7834	45.4102	68.7547	45.4102	67.7051	45.4102	68.7889	45.4102	67.6449	45.4102	68.802	45.4102	67.6047	45.4102	68.7942	45.4102	67.5854	45.4102	68.7667	45.4102	67.5871	45.4102	68.7217	45.4102	67.6085	45.4102	68.6623	45.4102	67.6478	45.4102	68.592	45.4102	67.7021	45.4102	68.514	45.4102	67.7683	45.4102	68.4315	45.4102	67.8431	45.4102	68.3468	45.4102	67.9232	45.4102	68.2613	45.4102	68.0062	45.4102	68.1759	45.4102	68.0907
46.875	68.9953	46.875	68.8901	46.875	69.0913	46.875	68.7791	46.875	69.1749	46.875	68.6654	46.875	69.2431	46.875	68.5524	46.875	69.2932	46.875	68.4429	46.875	69.3229	46.875	68.34	46.875	69.3306	46.875	68.2462	46.875	69.3155	46.875	68.164	46.875	69.2779	46.875	68.0955	46.875	69.2189	46.875	68.0425	46.875	69.1406	46.875	68.0064	46.875	69.0461	46.875	67.9883	46.875	68.9391	46.875	67.9888	46.875	68.8236	46.875	68.008	46.875	68.7038	46.875	68.0455	46.875	68.5837	46.875	68.1006	46.875	68.4673	46.875	68.1722	46.875	68.3579	46.875	68.2587
48.3398	69.4825	48.3398	69.3775	48.3398	69.5769	48.3398	69.2653	48.3398	69.6576	48.3398	69.1491	48.3398	69.7213	48.3398	69.0321	48.3398	69.7655	48.3398	68.917	48.3398	69.7878	48.3398	68.8067	48.3398	69.7867	48.3398	68.7038	48.3398	69.7613	48.3398	68.6105	48.3398	69.7121	48.3398	68.5293	48.3398	69.6404	48.3398	68.4621	48.3398	69.5485	48.3398	68.4109	48.3398	69.44	48.3398	68.3772	48.3398	69.3191	48.3398	68.3624	48.3398	69.1904	48.3398	68.3675	48.3398	69.0586	48.3398	68.3931	48.3398	68.9285	48.3398	68.4392	48.3398	68.8043	48.3398	68.5051	48.3398	68.6902	48.3398	68.5895
51.2695	70.1723	51.2695	70.0699	51.2695	70.2707	51.2695	69.9672	51.2695	70.3613	51.2695	69.8674	51.2695	70.4401	51.2695	69.7733	51.2695	70.5035	51.2695	69.6873	51.2695	70.548	51.2695	69.6113	51.2695	70.5713	51.2695	69.5467	51.2695	70.5716	51.2695	69.4946	51.2695	70.5485	51.2695	69.4555	51.2695	70.5031	51.2695	69.4299	51.2695	70.4374	51.2695	69.4176	51.2695	70.3547	51.2695	69.4184	51.2695	70.2593	51.2695	69.4318	51.2695	70.156	51.2695	69.4573	51.2695	70.0496	51.2695	69.4944	51.2695	69.9447	51.2695	69.5427	51.2695	69.8452	51.2695	69.6021	51.2695	69.7539	51.2695	69.6726
52.7344	70.4773	52.7344	70.372	52.7344	70.5799	52.7344	70.2679	52.7344	70.6759	52.7344	70.1685	52.7344	70.7616	52.7344	70.0771	52.7344	70.8333	52.7344	69.9966	52.7344	70.8882	52.7344	69.9293	52.7344	70.9241	52.7344	69.8768	52.7344	70.9397	52.7344	69.8403	52.7344	70.9347	52.7344	69.8201	52.7344	70.9098	52.7344	69.8157	52.7344	70.8665	52.7344	69.8263	52.7344	70.8071	52.7344	69.8507	52.7344	70.7345	52.7344	69.8872	52.7344	70.652	52.7344	69.9344	52.7344	70.5629	52.7344	69.9907	52.7344	70.4709	52.7344	70.0552	52.7344	70.3791	52.7344	70.1271	52.7344	70.29	52.7344	70.2056
54.1992	70.7121	54.1992	70.5976	54.1992	70.825	54.1992	70.4858	54.1992	70.932	54.1992	70.3811	54.1992	71.0291	54.1992	70.2872	54.1992	71.113	54.1992	70.2079	54.1992	71.1811	54.1992	70.1459	54.1992	71.2317	54.1992	70.1034	54.1992	71.264	54.1992	70.0816	54.1992	71.2783	54.1992	70.0808	54.1992	71.2755	54.1992	70.1004	54.1992	71.257	54.1992	70.139	54.1992	71.2244	54.1992	70.1945	54.1992	71.1794	54.1992	70.2642	54.1992	71.1233	54.1992	70.3451	54.1992	71.0575	54.1992	70.4341	54.1992	70.983	54.1992	70.5282	54.1992	70.901	54.1992	70.6243	54.1992	70.8129	54.1992	70.72
55.6641	71.2014	55.6641	71.0897	55.6641	71.3065	55.6641	70.9758	55.6641	71.4007	55.6641	70.8643	55.6641	71.4803	55.6641	70.7593	55.6641	71.5424	55.6641	70.6647	55.6641	71.5851	55.6641	70.5838	55.6641	71.6077	55.6641	70.5193	55.6641	71.6104	55.6641	70.4731	55.6641	71.5947	55.6641	70.4465	55.6641	71.563	55.6641	70.4402	55.6641	71.5179	55.6641	70.4538	55.6641	71.4626	55.6641	70.4862	55.6641	71.3997	55.6641	70.5355	55.6641	71.3312	55.6641	70.5991	55.6641	71.2584	55.6641	70.6739	55.6641	71.1817	55.6641	70.7563	55.6641	71.1013	55.6641	70.843	55.6641	71.0175	55.6641	70.9308
58.5938	72.5581	58.5938	72.4655	58.5938	72.6356	58.5938	72.3606	58.5938	72.6956	58.5938	72.2464	58.5938	72.7358	58.5938	72.1261	58.5938	72.7545	58.5938	72.0031	58.5938	72.75	58.5938	71.8811	58.5938	72.7215	58.5938	71.7636	58.5938	72.669	58.5938	71.6542	58.5938	72.5936	58.5938	71.5562	58.5938	72.4977	58.5938	71.4724	58.5938	72.3851	58.5938	71.4053	58.5938	72.2605	58.5938	71.3567	58.5938	72.1293	58.5938	71.3274	58.5938	71.9972	58.5938	71.3179	58.5938	71.8692	58.5938	71.3278	58.5938	71.7494	58.5938	71.3566	58.5938	71.6412	58.5938	71.4032	58.5938	71.5465	58.5938	71.4669
60.0586	72.8479	60.0586	72.749	60.0586	72.9323	60.0586	72.6387	60.0586	72.9994	60.0586	72.5199	60.0586	73.0465	60.0586	72.3956	60.0586	73.0711	60.0586	72.2689	60.0586	73.0712	60.0586	72.143	60.0586	73.0457	60.0586	72.0209	60.0586	72.9942	60.0586	71.9058	60.0586	72.9179	60.0586	71.8008	60.0586	72.8188	60.0586	71.7085	60.0586	72.7005	60.0586	71.6317	60.0586	72.5674	60.0586	71.5725	60.0586	72.4247	60.0586	71.5329	60.0586	72.278	60.0586	71.5145	60.0586	72.133	60.0586	71.5183	60.0586	71.995	60.0586	71.545	60.0586	71.8687	60.0586	71.5943	60.0586	71.7579	60.0586	71.6658
62.9883	73.7524	62.9883	73.6504	62.9883	73.8349	62.9883	73.5323	62.9883	73.8949	62.9883	73.4023	62.9883	73.9302	62.9883	73.2643	62.9883	73.9394	62.9883	73.1227	62.9883	73.9218	62.9883	72.9813	62.9883	73.8775	62.9883	72.8441	62.9883	73.8075	62.9883	72.7146	62.9883	73.7134	62.9883	72.5958	62.9883	73.5978	62.9883	72.4905	62.9883	73.4641	62.9883	72.4012	62.9883	73.3168	62.9883	72.33	62.9883	73.1608	62.9883	72.2786	62.9883	73.0021	62.9883	72.2486	62.9883	72.8466	62.9883	72.2414	62.9883	72.7003	62.9883	72.2581	62.9883	72.5687	62.9883	72.2995	62.9883	72.4561	62.9883	72.3658
64.4531	73.8399	64.4531	73.7446	64.4531	73.9195	64.4531	73.6362	64.4531	73.9812	64.4531	73.5181	64.4531	74.0236	64.4531	73.3942	64.4531	74.0458	64.4531	73.2684	64.4531	74.0472	64.4531	73.1445	64.4531	74.0275	64.4531	73.0261	64.4531	73.9869	64.4531	72.9164	64.4531	73.9256	64.4531	72.8181	64.4531	73.8446	64.4531	72.7334	64.4531	73.7454	64.4531	72.6643	64.4531	73.6303	64.4531	72.6126	64.4531	73.5026	64.4531	72.5797	64.4531	73.3662	64.4531	72.5673	64.4531	73.2263	64.4531	72.5766	64.4531	73.0884	64.4531	72.6087	64.4531	72.9583	64.4531	72.6641	64.4531	72.8414	64.4531	72.7422
67.3828	74.2355	67.3828	74.1411	67.3828	74.3193	67.3828	74.0391	67.3828	74.3902	67.3828	73.9328	67.3828	74.4462	67.3828	73.8258	67.3828	74.4859	67.3828	73.7219	67.3828	74.5079	67.3828	73.6245	67.3828	74.5116	67.3828	73.5369	67.3828	74.4966	67.3828	73.4616	67.3828	74.4632	67.3828	73.4004	67.3828	74.4123	67.3828	73.3549	67.3828	74.3457	67.3828	73.3256	67.3828	74.2653	67.3828	73.313	67.3828	74.1739	67.3828	73.3171	67.3828	74.0744	67.3828	73.3377	67.3828	73.97	67.3828	73.3743	67.3828	73.8642	67.3828	73.4262	67.3828	73.7603	67.3828	73.4924	67.3828	73.6617	67.3828	73.5716
