"SPL Vertical"
"On-Axis"		"10°"		"-10°"		"20°"		"-20°"		"30°"		"-30°"		"40°"		"-40°"		"50°"		"-50°"		"60°"		"-60°"		"70°"		"-70°"		"80°"		"-80°"		"90°"		"-90°"		"100°"		"-100°"		"110°"		"-110°"		"120°"		"-120°"		"130°"		"-130°"		"140°"		"-140°"		"150°"		"-150°"		"160°"		"-160°"		"170°"		"-170°"		"180°"
"Frequency / Hz"	"Sound Pressure Level / dB (re 20 µPa/V)  [2.83V at 1m]"	"Frequency / Hz"	"Sound Pressure Level / dB (re 20 µPa/V)  [2.83V at 1m]"	"Frequency / Hz"	"Sound Pressure Level / dB (re 20 µPa/V)  [2.83V at 1m]"	"Frequency / Hz"	"Sound Pressure Level / dB (re 20 µPa/V)  [2.83V at 1m]"	"Frequency / Hz"	"Sound Pressure Level / dB (re 20 µPa/V)  [2.83V at 1m]"	"Frequency / Hz"	"Sound Pressure Level / dB (re 20 µPa/V)  [2.83V at 1m]"	"Frequency / Hz"	"Sound Pressure Level / dB (re 20 µPa/V)  [2.83V at 1m]"	"Frequency / Hz"	"Sound Pressure Level / dB (re 20 µPa/V)  [2.83V at 1m]"	"Frequency / Hz"	"Sound Pressure Level / dB (re 20 µPa/V)  [2.83V at 1m]"	"Frequency / Hz"	"Sound Pressure Level / dB (re 20 µPa/V)  [2.83V at 1m]"	"Frequency / Hz"	"Sound Pressure Level / dB (re 20 µPa/V)  [2.83V at 1m]"	"Frequency / Hz"	"Sound Pressure Level / dB (re 20 µPa/V)  [2.83V at 1m]"	"Frequency / Hz"	"Sound Pressure Level / dB (re 20 µPa/V)  [2.83V at 1m]"	"Frequency / Hz"	"Sound Pressure Level / dB (re 20 µPa/V)  [2.83V at 1m]"	"Frequency / Hz"	"Sound Pressure Level / dB (re 20 µPa/V)  [2.83V at 1m]"	"Frequency / Hz"	"Sound Pressure Level / dB (re 20 µPa/V)  [2.83V at 1m]"	"Frequency / Hz"	"Sound Pressure Level / dB (re 20 µPa/V)  [2.83V at 1m]"	"Frequency / Hz"	"Sound Pressure Level / dB (re 20 µPa/V)  [2.83V at 1m]"	"Frequency / Hz"	"Sound Pressure Level / dB (re 20 µPa/V)  [2.83V at 1m]"	"Frequency / Hz"	"Sound Pressure Level / dB (re 20 µPa/V)  [2.83V at 1m]"	"Frequency / Hz"	"Sound Pressure Level / dB (re 20 µPa/V)  [2.83V at 1m]"	"Frequency / Hz"	"Sound Pressure Level / dB (re 20 µPa/V)  [2.83V at 1m]"	"Frequency / Hz"	"Sound Pressure Level / dB (re 20 µPa/V)  [2.83V at 1m]"	"Frequency / Hz"	"Sound Pressure Level / dB (re 20 µPa/V)  [2.83V at 1m]"	"Frequency / Hz"	"Sound Pressure Level / dB (re 20 µPa/V)  [2.83V at 1m]"	"Frequency / Hz"	"Sound Pressure Level / dB (re 20 µPa/V)  [2.83V at 1m]"	"Frequency / Hz"	"Sound Pressure Level / dB (re 20 µPa/V)  [2.83V at 1m]"	"Frequency / Hz"	"Sound Pressure Level / dB (re 20 µPa/V)  [2.83V at 1m]"	"Frequency / Hz"	"Sound Pressure Level / dB (re 20 µPa/V)  [2.83V at 1m]"	"Frequency / Hz"	"Sound Pressure Level / dB (re 20 µPa/V)  [2.83V at 1m]"	"Frequency / Hz"	"Sound Pressure Level / dB (re 20 µPa/V)  [2.83V at 1m]"	"Frequency / Hz"	"Sound Pressure Level / dB (re 20 µPa/V)  [2.83V at 1m]"	"Frequency / Hz"	"Sound Pressure Level / dB (re 20 µPa/V)  [2.83V at 1m]"	"Frequency / Hz"	"Sound Pressure Level / dB (re 20 µPa/V)  [2.83V at 1m]"	"Frequency / Hz"	"Sound Pressure Level / dB (re 20 µPa/V)  [2.83V at 1m]"	"Frequency / Hz"	"Sound Pressure Level / dB (re 20 µPa/V)  [2.83V at 1m]"
20.5078	44.387	20.5078	44.8448	20.5078	44.0879	20.5078	45.438	20.5078	43.9686	20.5078	46.139	20.5078	44.0498	20.5078	46.9172	20.5078	44.3496	20.5078	47.7416	20.5078	44.8741	20.5078	48.5835	20.5078	45.6071	20.5078	49.4189	20.5078	46.5058	20.5078	50.2282	20.5078	47.5102	20.5078	50.9958	20.5078	48.5569	20.5078	51.7093	20.5078	49.591	20.5078	52.358	20.5078	50.5701	20.5078	52.9326	20.5078	51.4645	20.5078	53.4241	20.5078	52.2545	20.5078	53.8243	20.5078	52.9278	20.5078	54.1249	20.5078	53.477	20.5078	54.3182	20.5078	53.8985	20.5078	54.3974	20.5078	54.1914	20.5078	54.3567
21.9727	45.8466	21.9727	45.8063	21.9727	45.9112	21.9727	45.8451	21.9727	45.9602	21.9727	46.0205	21.9727	45.9754	21.9727	46.3728	21.9727	45.9646	21.9727	46.9096	21.9727	45.9656	21.9727	47.6023	21.9727	46.0477	21.9727	48.3996	21.9727	46.2976	21.9727	49.2457	21.9727	46.7838	21.9727	50.0924	21.9727	47.5148	21.9727	50.9029	21.9727	48.4299	21.9727	51.6507	21.9727	49.4322	21.9727	52.3166	21.9727	50.4292	21.9727	52.8862	21.9727	51.3529	21.9727	53.3477	21.9727	52.161	21.9727	53.6911	21.9727	52.8299	21.9727	53.9071	21.9727	53.3485	21.9727	53.9874	21.9727	53.7131	21.9727	53.9247
23.4375	46.4963	23.4375	46.3444	23.4375	46.6346	23.4375	46.2486	23.4375	46.713	23.4375	46.2922	23.4375	46.7101	23.4375	46.5486	23.4375	46.631	23.4375	47.0489	23.4375	46.5137	23.4375	47.7658	23.4375	46.4382	23.4375	48.6308	23.4375	46.523	23.4375	49.5653	23.4375	46.887	23.4375	50.503	23.4375	47.5783	23.4375	51.3967	23.4375	48.5352	23.4375	52.215	23.4375	49.6288	23.4375	52.9373	23.4375	50.7327	23.4375	53.5493	23.4375	51.7583	23.4375	54.0402	23.4375	52.6541	23.4375	54.4006	23.4375	53.3947	23.4375	54.6219	23.4375	53.9693	23.4375	54.6964	23.4375	54.3757	23.4375	54.6165
24.9023	46.6879	24.9023	46.2496	24.9023	47.0237	24.9023	45.7968	24.9023	47.2085	24.9023	45.4709	24.9023	47.218	24.9023	45.4478	24.9023	47.0457	24.9023	45.8523	24.9023	46.7089	24.9023	46.6656	24.9023	46.2701	24.9023	47.7446	24.9023	45.8748	24.9023	48.9255	24.9023	45.7698	24.9023	50.0902	24.9023	46.1994	24.9023	51.1718	24.9023	47.1871	24.9023	52.1363	24.9023	48.5079	24.9023	52.9673	24.9023	49.8986	24.9023	53.6558	24.9023	51.1913	24.9023	54.1958	24.9023	52.3085	24.9023	54.5811	24.9023	53.2225	24.9023	54.8053	24.9023	53.9286	24.9023	54.8608	24.9023	54.4314	24.9023	54.7391
26.3672	48.1244	26.3672	47.7031	26.3672	48.4465	26.3672	47.2684	26.3672	48.6212	26.3672	46.956	26.3672	48.6235	26.3672	46.9331	26.3672	48.4459	26.3672	47.32	26.3672	48.1038	26.3672	48.1035	26.3672	47.6562	26.3672	49.151	26.3672	47.2439	26.3672	50.3055	26.3672	47.1099	26.3672	51.4505	26.3672	47.5041	26.3672	52.5178	26.3672	48.4637	26.3672	53.472	26.3672	49.7707	26.3672	54.2952	26.3672	51.1588	26.3672	54.9776	26.3672	52.4549	26.3672	55.5122	26.3672	53.5779	26.3672	55.8926	26.3672	54.4986	26.3672	56.1117	26.3672	55.2114	26.3672	56.1619	26.3672	55.7208	26.3672	56.0346
27.832	49.4942	27.832	48.961	27.832	49.8811	27.832	48.3505	27.832	50.0862	27.832	47.7928	27.832	50.0901	27.832	47.4902	27.832	49.8827	27.832	47.6509	27.832	49.4675	27.832	48.3366	27.832	48.8805	27.832	49.4071	27.832	48.2363	27.832	50.6477	27.832	47.7905	27.832	51.8939	27.832	47.904	27.832	53.0545	27.832	48.7502	27.832	54.0865	27.832	50.104	27.832	54.9717	27.832	51.6032	27.832	55.7017	27.832	53.0102	27.832	56.2717	27.832	54.2224	27.832	56.6767	27.832	55.2086	27.832	56.9106	27.832	55.9666	27.832	56.9661	27.832	56.5048	27.832	56.8343
29.2969	49.6221	29.2969	49.0472	29.2969	50.056	29.2969	48.4291	29.2969	50.3013	29.2969	47.9484	29.2969	50.3349	29.2969	47.855	29.2969	50.1479	29.2969	48.3304	29.2969	49.7493	29.2969	49.3226	29.2969	49.1906	29.2969	50.6039	29.2969	48.6189	29.2969	51.9558	29.2969	48.3333	29.2969	53.2473	29.2969	48.6904	29.2969	54.4174	29.2969	49.7646	29.2969	55.4418	29.2969	51.2543	29.2969	56.312	29.2969	52.8118	29.2969	57.0247	29.2969	54.2385	29.2969	57.5774	29.2969	55.4564	29.2969	57.9663	29.2969	56.445	29.2969	58.186	29.2969	57.2063	29.2969	58.2292	29.2969	57.7499	29.2969	58.0872
30.7617	50.7484	30.7617	50.3856	30.7617	51.0459	30.7617	50.0641	30.7617	51.2148	30.7617	49.9335	30.7617	51.223	30.7617	50.1421	30.7617	51.0626	30.7617	50.7494	30.7617	50.7558	30.7617	51.6834	30.7617	50.3773	30.7617	52.7991	30.7617	50.0877	30.7617	53.9622	30.7617	50.1316	30.7617	55.0837	30.7617	50.7096	30.7617	56.1138	30.7617	51.7911	30.7617	57.027	30.7617	53.1451	30.7617	57.8103	30.7617	54.5356	30.7617	58.4558	30.7617	55.8188	30.7617	58.9572	30.7617	56.9284	30.7617	59.3086	30.7617	57.8407	30.7617	59.503	30.7617	58.5518	30.7617	59.5328	30.7617	59.0657	30.7617	59.3899
32.2266	55.4001	32.2266	55.1962	32.2266	55.5638	32.2266	55.002	32.2266	55.6537	32.2266	54.8813	32.2266	55.6504	32.2266	54.9025	32.2266	55.5496	32.2266	55.1184	32.2266	55.3659	32.2266	55.5443	32.2266	55.1407	32.2266	56.151	32.2266	54.9522	32.2266	56.8795	32.2266	54.9136	32.2266	57.6635	32.2266	55.1388	32.2266	58.4457	32.2266	55.6765	32.2266	59.1829	32.2266	56.4726	32.2266	59.8443	32.2266	57.4063	32.2266	60.4083	32.2266	58.3551	32.2266	60.8586	32.2266	59.2311	32.2266	61.1824	32.2266	59.9821	32.2266	61.369	32.2266	60.5821	32.2266	61.4092	32.2266	61.0203	32.2266	61.295
33.6914	56.843	33.6914	56.4303	33.6914	57.1415	33.6914	55.9406	33.6914	57.3044	33.6914	55.4379	33.6914	57.3195	33.6914	55.0222	33.6914	57.1817	33.6914	54.823	33.6914	56.896	33.6914	54.9535	33.6914	56.4866	33.6914	55.4427	33.6914	56.0149	33.6914	56.2144	33.6914	55.6021	33.6914	57.1395	33.6914	55.4303	33.6914	58.1	33.6914	55.6672	33.6914	59.0139	33.6914	56.3368	33.6914	59.8318	33.6914	57.2943	33.6914	60.5252	33.6914	58.343	33.6914	61.077	33.6914	59.3356	33.6914	61.4752	33.6914	60.1901	33.6914	61.7106	33.6914	60.869	33.6914	61.7748	33.6914	61.3594	33.6914	61.6599
35.1562	56.0689	35.1562	55.4732	35.1562	56.5022	35.1562	54.7508	35.1562	56.7574	35.1562	53.9825	35.1562	56.8272	35.1562	53.3277	35.1562	56.7088	35.1562	53.027	35.1562	56.4062	35.1562	53.2872	35.1562	55.9413	35.1562	54.0988	35.1562	55.3758	35.1562	55.2466	35.1562	54.8471	35.1562	56.4964	35.1562	54.5866	35.1562	57.6983	35.1562	54.8283	35.1562	58.7789	35.1562	55.61	35.1562	59.707	35.1562	56.7304	35.1562	60.4704	35.1562	57.9357	35.1562	61.0634	35.1562	59.0557	35.1562	61.482	35.1562	60.0072	35.1562	61.7214	35.1562	60.7582	35.1562	61.7757	35.1562	61.3009	35.1562	61.638
36.6211	56.9243	36.6211	56.7227	36.6211	57.1299	36.6211	56.5992	36.6211	57.2876	36.6211	56.6376	36.6211	57.3691	36.6211	56.904	36.6211	57.3693	36.6211	57.4154	36.6211	57.3087	36.6211	58.1317	36.6211	57.239	36.6211	58.9785	36.6211	57.2461	36.6211	59.8785	36.6211	57.4347	36.6211	60.77	36.6211	57.8849	36.6211	61.6103	36.6211	58.6015	36.6211	62.3717	36.6211	59.5085	36.6211	63.036	36.6211	60.4943	36.6211	63.5905	36.6211	61.4596	36.6211	64.0253	36.6211	62.336	36.6211	64.3316	36.6211	63.0833	36.6211	64.5015	36.6211	63.6812	36.6211	64.5273	36.6211	64.1213	36.6211	64.4023
38.0859	60.2403	38.0859	60.0226	38.0859	60.4217	38.0859	59.8115	38.0859	60.5377	38.0859	59.6618	38.0859	60.5713	38.0859	59.634	38.0859	60.5175	38.0859	59.7779	38.0859	60.3854	38.0859	60.1141	38.0859	60.2032	38.0859	60.6249	38.0859	60.025	38.0859	61.2622	38.0859	59.9317	38.0859	61.9663	38.0859	60.0163	38.0859	62.6813	38.0859	60.344	38.0859	63.3628	38.0859	60.9125	38.0859	63.9775	38.0859	61.6508	38.0859	64.5014	38.0859	62.4584	38.0859	64.9165	38.0859	63.2452	38.0859	65.2089	38.0859	63.9476	38.0859	65.3675	38.0859	64.5273	38.0859	65.3834	38.0859	64.9643	38.0859	65.2501
39.5508	61.7837	39.5508	61.5536	39.5508	61.9747	39.5508	61.3229	39.5508	62.1006	39.5508	61.1416	39.5508	62.146	39.5508	61.0661	39.5508	62.1064	39.5508	61.1466	39.5508	61.9895	39.5508	61.4096	39.5508	61.82	39.5508	61.847	39.5508	61.6442	39.5508	62.419	39.5508	61.5326	39.5508	63.0703	39.5508	61.5683	39.5508	63.7459	39.5508	61.8166	39.5508	64.3993	39.5508	62.2887	39.5508	64.9953	39.5508	62.9325	39.5508	65.5077	39.5508	63.6605	39.5508	65.9172	39.5508	64.386	39.5508	66.2087	39.5508	65.0434	39.5508	66.3706	39.5508	65.5905	39.5508	66.394	39.5508	66.0038	39.5508	66.2726
41.0156	63.2182	41.0156	62.9884	41.0156	63.4053	41.0156	62.7507	41.0156	63.5264	41.0156	62.5508	41.0156	63.5678	41.0156	62.4425	41.0156	63.5256	41.0156	62.4764	41.0156	63.4073	41.0156	62.6843	41.0156	63.2355	41.0156	63.0662	41.0156	63.0534	41.0156	63.5901	41.0156	62.9261	41.0156	64.2044	41.0156	62.9325	41.0156	64.8542	41.0156	63.1376	41.0156	65.4912	41.0156	63.5588	41.0156	66.0778	41.0156	64.1532	41.0156	66.5856	41.0156	64.8397	41.0156	66.9936	41.0156	65.5336	41.0156	67.286	41.0156	66.1682	41.0156	67.4505	41.0156	66.6993	41.0156	67.4779	41.0156	67.1014	41.0156	67.3622
42.4805	64.4545	42.4805	64.2429	42.4805	64.629	42.4805	64.0269	42.4805	64.7436	42.4805	63.8495	42.4805	64.7854	42.4805	63.7597	42.4805	64.7505	42.4805	63.8033	42.4805	64.6466	42.4805	64.0085	42.4805	64.4953	42.4805	64.3752	42.4805	64.3374	42.4805	64.875	42.4805	64.233	42.4805	65.4612	42.4805	64.2533	42.4805	66.083	42.4805	64.4566	42.4805	66.6947	42.4805	64.8591	42.4805	67.26	42.4805	65.4234	42.4805	67.7509	42.4805	66.0762	42.4805	68.1462	42.4805	66.7393	42.4805	68.4298	42.4805	67.3488	42.4805	68.5894	42.4805	67.8611	42.4805	68.6159	42.4805	68.2503	42.4805	68.5034
43.9453	65.9936	43.9453	65.8103	43.9453	66.147	43.9453	65.6263	43.9453	66.2501	43.9453	65.4788	43.9453	66.2909	43.9453	65.4092	43.9453	66.2664	43.9453	65.4556	43.9453	66.184	43.9453	65.6422	43.9453	66.0641	43.9453	65.9704	43.9453	65.9432	43.9453	66.4184	43.9453	65.8734	43.9453	66.9484	43.9453	65.9142	43.9453	67.5165	43.9453	66.1132	43.9453	68.0817	43.9453	66.4835	43.9453	68.6091	43.9453	66.9948	43.9453	69.0714	43.9453	67.5861	43.9453	69.447	43.9453	68.1896	43.9453	69.7194	43.9453	68.7475	43.9453	69.8759	43.9453	69.2183	43.9453	69.9071	43.9453	69.5763	43.9453	69.8076
45.4102	67.3162	45.4102	67.1529	45.4102	67.4555	45.4102	66.9917	45.4102	67.5526	45.4102	66.8651	45.4102	67.5968	45.4102	66.8092	45.4102	67.5861	45.4102	66.8567	45.4102	67.5281	45.4102	67.029	45.4102	67.4419	45.4102	67.3287	45.4102	67.3601	45.4102	67.7384	45.4102	67.3274	45.4102	68.2263	45.4102	67.3924	45.4102	68.7537	45.4102	67.5929	45.4102	69.2831	45.4102	67.9382	45.4102	69.7815	45.4102	68.4034	45.4102	70.2218	45.4102	68.9381	45.4102	70.5828	45.4102	69.4847	45.4102	70.8476	45.4102	69.9919	45.4102	71.0034	45.4102	70.4211	45.4102	71.0412	45.4102	70.7472	45.4102	70.9559
46.875	68.7518	46.875	68.5936	46.875	68.8878	46.875	68.4356	46.875	68.9859	46.875	68.3054	46.875	69.0369	46.875	68.2338	46.875	69.0386	46.875	68.2498	46.875	68.9969	46.875	68.374	46.875	68.927	46.875	68.6125	46.875	68.855	46.875	68.9543	46.875	68.8168	46.875	69.3745	46.875	68.8527	46.875	69.8401	46.875	68.9966	46.875	70.3165	46.875	69.2626	46.875	70.7719	46.875	69.6376	46.875	71.1789	46.875	70.0847	46.875	71.5156	46.875	70.5554	46.875	71.7645	46.875	71.0023	46.875	71.9122	46.875	71.3872	46.875	71.95	46.875	71.6831	46.875	71.8733
48.3398	70.1464	48.3398	69.9827	48.3398	70.2847	48.3398	69.8134	48.3398	70.3835	48.3398	69.6632	48.3398	70.4341	48.3398	69.5598	48.3398	70.4336	48.3398	69.5307	48.3398	70.3859	48.3398	69.5977	48.3398	70.3034	48.3398	69.7705	48.3398	70.2077	48.3398	70.0443	48.3398	70.1306	48.3398	70.3999	48.3398	70.1099	48.3398	70.8086	48.3398	70.1816	48.3398	71.2376	48.3398	70.3669	48.3398	71.6553	48.3398	70.6625	48.3398	72.0337	48.3398	71.0403	48.3398	72.3495	48.3398	71.4563	48.3398	72.5839	48.3398	71.8635	48.3398	72.7231	48.3398	72.2217	48.3398	72.7574	48.3398	72.5011	48.3398	72.6828
51.2695	71.6121	51.2695	71.47	51.2695	71.7337	51.2695	71.3264	51.2695	71.8209	51.2695	71.2052	51.2695	71.8656	51.2695	71.1326	51.2695	71.8655	51.2695	71.134	51.2695	71.8257	51.2695	71.2284	51.2695	71.7592	51.2695	71.4236	51.2695	71.6886	51.2695	71.7132	51.2695	71.6449	51.2695	72.0783	51.2695	71.6639	51.2695	72.4911	51.2695	71.777	51.2695	72.9207	51.2695	71.9999	51.2695	73.3371	51.2695	72.3246	51.2695	73.7136	51.2695	72.7211	51.2695	74.0279	51.2695	73.1463	51.2695	74.2618	51.2695	73.556	51.2695	74.4016	51.2695	73.9126	51.2695	74.438	51.2695	74.1885	51.2695	74.3665
52.7344	72.8708	52.7344	72.7575	52.7344	72.9724	52.7344	72.6491	52.7344	73.05	52.7344	72.5652	52.7344	73.0963	52.7344	72.5272	52.7344	73.1095	52.7344	72.5545	52.7344	73.094	52.7344	72.6612	52.7344	73.0614	52.7344	72.8524	52.7344	73.0313	52.7344	73.1226	52.7344	73.0296	52.7344	73.4564	52.7344	73.0846	52.7344	73.8312	52.7344	73.2197	52.7344	74.2215	52.7344	73.4453	52.7344	74.6015	52.7344	73.7527	52.7344	74.9476	52.7344	74.1161	52.7344	75.2391	52.7344	74.4995	52.7344	75.459	52.7344	74.8658	52.7344	75.5942	52.7344	75.1824	52.7344	75.6357	52.7344	75.4254	52.7344	75.579
54.1992	73.9783	54.1992	73.8699	54.1992	74.0775	54.1992	73.7663	54.1992	74.1571	54.1992	73.6841	54.1992	74.2109	54.1992	73.6411	54.1992	74.2372	54.1992	73.6541	54.1992	74.24	54.1992	73.7355	54.1992	74.2289	54.1992	73.8911	54.1992	74.2196	54.1992	74.1179	54.1992	74.2328	54.1992	74.4045	54.1992	74.2906	54.1992	74.7326	54.1992	74.4114	54.1992	75.0802	54.1992	74.6034	54.1992	75.4242	54.1992	74.8608	54.1992	75.7424	54.1992	75.164	54.1992	76.0152	54.1992	75.4844	54.1992	76.226	54.1992	75.791	54.1992	76.3619	54.1992	76.0557	54.1992	76.4141	54.1992	76.2564	54.1992	76.3784
55.6641	74.7721	55.6641	74.6653	55.6641	74.8699	55.6641	74.5619	55.6641	74.9494	55.6641	74.4767	55.6641	75.0049	55.6641	74.4259	55.6641	75.0346	55.6641	74.4246	55.6641	75.0416	55.6641	74.4848	55.6641	75.0338	55.6641	74.6129	55.6641	75.0242	55.6641	74.8075	55.6641	75.0304	55.6641	75.0597	55.6641	75.0717	55.6641	75.3537	55.6641	75.165	55.6641	75.6695	55.6641	75.3198	55.6641	75.9854	55.6641	75.5337	55.6641	76.2801	55.6641	75.7922	55.6641	76.5343	55.6641	76.0715	55.6641	76.7316	55.6641	76.3436	55.6641	76.8591	55.6641	76.5819	55.6641	76.9086	55.6641	76.7646	55.6641	76.8764
58.5938	76.1628	58.5938	76.0678	58.5938	76.2516	58.5938	75.9769	58.5938	76.3262	58.5938	75.9022	58.5938	76.3817	58.5938	75.8567	58.5938	76.4164	58.5938	75.853	58.5938	76.4322	58.5938	75.9009	58.5938	76.4352	58.5938	76.0062	58.5938	76.4357	58.5938	76.1687	58.5938	76.4472	58.5938	76.3819	58.5938	76.4853	58.5938	76.6336	58.5938	76.5639	58.5938	76.9075	58.5938	76.6914	58.5938	77.1847	58.5938	76.8676	58.5938	77.4464	58.5938	77.082	58.5938	77.6747	58.5938	77.3158	58.5938	77.854	58.5938	77.5457	58.5938	77.9722	58.5938	77.7485	58.5938	78.0212	58.5938	77.904	58.5938	77.9977
60.0586	76.7951	60.0586	76.7038	60.0586	76.8809	60.0586	76.6161	60.0586	76.954	60.0586	76.543	60.0586	77.0097	60.0586	76.4961	60.0586	77.0464	60.0586	76.4868	60.0586	77.0656	60.0586	76.5242	60.0586	77.0726	60.0586	76.614	60.0586	77.0762	60.0586	76.7567	60.0586	77.0884	60.0586	76.9473	60.0586	77.1228	60.0586	77.1753	60.0586	77.1919	60.0586	77.4262	60.0586	77.3038	60.0586	77.6828	60.0586	77.4589	60.0586	77.9274	60.0586	77.6487	60.0586	78.1427	60.0586	77.8567	60.0586	78.3139	60.0586	78.0622	60.0586	78.429	60.0586	78.2436	60.0586	78.4799	60.0586	78.382	60.0586	78.4635
62.9883	77.7266	62.9883	77.6456	62.9883	77.805	62.9883	77.5696	62.9883	77.875	62.9883	77.5075	62.9883	77.9326	62.9883	77.4684	62.9883	77.9761	62.9883	77.4616	62.9883	78.0065	62.9883	77.4945	62.9883	78.0275	62.9883	77.5719	62.9883	78.0458	62.9883	77.6946	62.9883	78.0702	62.9883	77.8592	62.9883	78.1111	62.9883	78.0575	62.9883	78.1781	62.9883	78.2777	62.9883	78.2774	62.9883	78.5053	62.9883	78.4097	62.9883	78.7246	62.9883	78.5687	62.9883	78.9203	62.9883	78.7418	62.9883	79.0786	62.9883	78.9121	62.9883	79.1883	62.9883	79.0616	62.9883	79.2419	62.9883	79.1738	62.9883	79.2364
64.4531	78.2032	64.4531	78.1301	64.4531	78.2752	64.4531	78.0626	64.4531	78.3407	64.4531	78.0081	64.4531	78.3965	64.4531	77.9749	64.4531	78.4407	64.4531	77.9708	64.4531	78.4743	64.4531	78.0025	64.4531	78.5002	64.4531	78.0741	64.4531	78.524	64.4531	78.1867	64.4531	78.5533	64.4531	78.3373	64.4531	78.5968	64.4531	78.5191	64.4531	78.6626	64.4531	78.7216	64.4531	78.7562	64.4531	78.9319	64.4531	78.8782	64.4531	79.1356	64.4531	79.0231	64.4531	79.3185	64.4531	79.18	64.4531	79.4675	64.4531	79.3338	64.4531	79.5721	64.4531	79.4684	64.4531	79.6249	64.4531	79.5687	64.4531	79.6232
67.3828	79.0226	67.3828	78.9555	67.3828	79.0906	67.3828	78.8944	67.3828	79.1552	67.3828	78.8453	67.3828	79.2134	67.3828	78.8148	67.3828	79.2637	67.3828	78.8089	67.3828	79.3063	67.3828	78.8331	67.3828	79.3429	67.3828	78.8911	67.3828	79.3774	67.3828	78.984	67.3828	79.4149	67.3828	79.11	67.3828	79.4615	67.3828	79.2641	67.3828	79.5231	67.3828	79.4381	67.3828	79.6037	67.3828	79.6213	67.3828	79.704	67.3828	79.8016	67.3828	79.82	67.3828	79.9665	67.3828	79.9437	67.3828	80.1042	67.3828	80.0635	67.3828	80.2052	67.3828	80.1661	67.3828	80.2625	67.3828	80.2393	67.3828	80.2734
