"SPL Horizontal"
"On-Axis"		"10°"		"-10°"		"20°"		"-20°"		"30°"		"-30°"		"40°"		"-40°"		"50°"		"-50°"		"60°"		"-60°"		"70°"		"-70°"		"80°"		"-80°"		"90°"		"-90°"		"100°"		"-100°"		"110°"		"-110°"		"120°"		"-120°"		"130°"		"-130°"		"140°"		"-140°"		"150°"		"-150°"		"160°"		"-160°"		"170°"		"-170°"		"180°"
"Frequency / Hz"	"Sound Pressure Level / dB (re 20 µPa/V)  [2.83  V @ 1. m]"	"Frequency / Hz"	"Sound Pressure Level / dB (re 20 µPa/V)  [2.83  V @ 1. m]"	"Frequency / Hz"	"Sound Pressure Level / dB (re 20 µPa/V)  [2.83  V @ 1. m]"	"Frequency / Hz"	"Sound Pressure Level / dB (re 20 µPa/V)  [2.83  V @ 1. m]"	"Frequency / Hz"	"Sound Pressure Level / dB (re 20 µPa/V)  [2.83  V @ 1. m]"	"Frequency / Hz"	"Sound Pressure Level / dB (re 20 µPa/V)  [2.83  V @ 1. m]"	"Frequency / Hz"	"Sound Pressure Level / dB (re 20 µPa/V)  [2.83  V @ 1. m]"	"Frequency / Hz"	"Sound Pressure Level / dB (re 20 µPa/V)  [2.83  V @ 1. m]"	"Frequency / Hz"	"Sound Pressure Level / dB (re 20 µPa/V)  [2.83  V @ 1. m]"	"Frequency / Hz"	"Sound Pressure Level / dB (re 20 µPa/V)  [2.83  V @ 1. m]"	"Frequency / Hz"	"Sound Pressure Level / dB (re 20 µPa/V)  [2.83  V @ 1. m]"	"Frequency / Hz"	"Sound Pressure Level / dB (re 20 µPa/V)  [2.83  V @ 1. m]"	"Frequency / Hz"	"Sound Pressure Level / dB (re 20 µPa/V)  [2.83  V @ 1. m]"	"Frequency / Hz"	"Sound Pressure Level / dB (re 20 µPa/V)  [2.83  V @ 1. m]"	"Frequency / Hz"	"Sound Pressure Level / dB (re 20 µPa/V)  [2.83  V @ 1. m]"	"Frequency / Hz"	"Sound Pressure Level / dB (re 20 µPa/V)  [2.83  V @ 1. m]"	"Frequency / Hz"	"Sound Pressure Level / dB (re 20 µPa/V)  [2.83  V @ 1. m]"	"Frequency / Hz"	"Sound Pressure Level / dB (re 20 µPa/V)  [2.83  V @ 1. m]"	"Frequency / Hz"	"Sound Pressure Level / dB (re 20 µPa/V)  [2.83  V @ 1. m]"	"Frequency / Hz"	"Sound Pressure Level / dB (re 20 µPa/V)  [2.83  V @ 1. m]"	"Frequency / Hz"	"Sound Pressure Level / dB (re 20 µPa/V)  [2.83  V @ 1. m]"	"Frequency / Hz"	"Sound Pressure Level / dB (re 20 µPa/V)  [2.83  V @ 1. m]"	"Frequency / Hz"	"Sound Pressure Level / dB (re 20 µPa/V)  [2.83  V @ 1. m]"	"Frequency / Hz"	"Sound Pressure Level / dB (re 20 µPa/V)  [2.83  V @ 1. m]"	"Frequency / Hz"	"Sound Pressure Level / dB (re 20 µPa/V)  [2.83  V @ 1. m]"	"Frequency / Hz"	"Sound Pressure Level / dB (re 20 µPa/V)  [2.83  V @ 1. m]"	"Frequency / Hz"	"Sound Pressure Level / dB (re 20 µPa/V)  [2.83  V @ 1. m]"	"Frequency / Hz"	"Sound Pressure Level / dB (re 20 µPa/V)  [2.83  V @ 1. m]"	"Frequency / Hz"	"Sound Pressure Level / dB (re 20 µPa/V)  [2.83  V @ 1. m]"	"Frequency / Hz"	"Sound Pressure Level / dB (re 20 µPa/V)  [2.83  V @ 1. m]"	"Frequency / Hz"	"Sound Pressure Level / dB (re 20 µPa/V)  [2.83  V @ 1. m]"	"Frequency / Hz"	"Sound Pressure Level / dB (re 20 µPa/V)  [2.83  V @ 1. m]"	"Frequency / Hz"	"Sound Pressure Level / dB (re 20 µPa/V)  [2.83  V @ 1. m]"	"Frequency / Hz"	"Sound Pressure Level / dB (re 20 µPa/V)  [2.83  V @ 1. m]"	"Frequency / Hz"	"Sound Pressure Level / dB (re 20 µPa/V)  [2.83  V @ 1. m]"	"Frequency / Hz"	"Sound Pressure Level / dB (re 20 µPa/V)  [2.83  V @ 1. m]"
20.5078	48.9107	20.5078	48.9468	20.5078	48.8649	20.5078	48.9697	20.5078	48.8136	20.5078	48.9773	20.5078	48.7612	20.5078	48.9696	20.5078	48.7114	20.5078	48.9482	20.5078	48.6665	20.5078	48.9161	20.5078	48.6281	20.5078	48.8767	20.5078	48.5964	20.5078	48.8333	20.5078	48.571	20.5078	48.789	20.5078	48.5511	20.5078	48.7458	20.5078	48.536	20.5078	48.7053	20.5078	48.525	20.5078	48.6687	20.5078	48.5176	20.5078	48.6364	20.5078	48.5136	20.5078	48.6088	20.5078	48.5127	20.5078	48.5856	20.5078	48.515	20.5078	48.5664	20.5078	48.5201	20.5078	48.5508	20.5078	48.5278	20.5078	48.538
21.9727	39.7793	21.9727	39.9521	21.9727	39.583	21.9727	40.0888	21.9727	39.375	21.9727	40.1772	21.9727	39.1643	21.9727	40.2066	21.9727	38.9554	21.9727	40.168	21.9727	38.7479	21.9727	40.0548	21.9727	38.5373	21.9727	39.863	21.9727	38.3167	21.9727	39.5928	21.9727	38.0796	21.9727	39.2496	21.9727	37.8229	21.9727	38.8447	21.9727	37.5481	21.9727	38.3959	21.9727	37.2624	21.9727	37.9266	21.9727	36.9772	21.9727	37.4641	21.9727	36.7073	21.9727	37.0366	21.9727	36.4679	21.9727	36.6697	21.9727	36.2734	21.9727	36.3828	21.9727	36.137	21.9727	36.1869	21.9727	36.0704	21.9727	36.0842
23.4375	46.1075	23.4375	46.119	23.4375	46.0797	23.4375	46.107	23.4375	46.0414	23.4375	46.0646	23.4375	45.9965	23.4375	45.9861	23.4375	45.9466	23.4375	45.8684	23.4375	45.8906	23.4375	45.7121	23.4375	45.8257	23.4375	45.5216	23.4375	45.7481	23.4375	45.3056	23.4375	45.6546	23.4375	45.0761	23.4375	45.5427	23.4375	44.847	23.4375	45.4123	23.4375	44.6327	23.4375	45.2648	23.4375	44.4457	23.4375	45.1042	23.4375	44.2961	23.4375	44.9359	23.4375	44.1904	23.4375	44.7665	23.4375	44.1315	23.4375	44.6032	23.4375	44.1191	23.4375	44.4531	23.4375	44.1503	23.4375	44.3233	23.4375	44.2202
24.9023	45.0823	24.9023	45.1662	24.9023	44.9855	24.9023	45.2285	24.9023	44.884	24.9023	45.2616	24.9023	44.7843	24.9023	45.2594	24.9023	44.6902	24.9023	45.2189	24.9023	44.6027	24.9023	45.1399	24.9023	44.5204	24.9023	45.0259	24.9023	44.4406	24.9023	44.8831	24.9023	44.3606	24.9023	44.7204	24.9023	44.2786	24.9023	44.5483	24.9023	44.1945	24.9023	44.3775	24.9023	44.1097	24.9023	44.2177	24.9023	44.027	24.9023	44.0766	24.9023	43.9497	24.9023	43.9596	24.9023	43.8813	24.9023	43.869	24.9023	43.8249	24.9023	43.8053	24.9023	43.7831	24.9023	43.767	24.9023	43.7582	24.9023	43.7521
26.3672	46.2931	26.3672	46.3157	26.3672	46.264	26.3672	46.3278	26.3672	46.2314	26.3672	46.3256	26.3672	46.1973	26.3672	46.3054	26.3672	46.162	26.3672	46.265	26.3672	46.1247	26.3672	46.2034	26.3672	46.0838	26.3672	46.1219	26.3672	46.037	26.3672	46.0239	26.3672	45.9827	26.3672	45.9144	26.3672	45.92	26.3672	45.7996	26.3672	45.8491	26.3672	45.6864	26.3672	45.7717	26.3672	45.5812	26.3672	45.6904	26.3672	45.4893	26.3672	45.6086	26.3672	45.415	26.3672	45.5303	26.3672	45.3608	26.3672	45.4594	26.3672	45.3279	26.3672	45.3997	26.3672	45.3166	26.3672	45.3542	26.3672	45.3258
27.832	47.5341	27.832	47.5575	27.832	47.5024	27.832	47.568	27.832	47.4661	27.832	47.5619	27.832	47.4284	27.832	47.536	27.832	47.3909	27.832	47.4893	27.832	47.3537	27.832	47.4221	27.832	47.3158	27.832	47.3374	27.832	47.2756	27.832	47.2396	27.832	47.2311	27.832	47.1345	27.832	47.1811	27.832	47.0283	27.832	47.1248	27.832	46.9272	27.832	47.0629	27.832	46.8367	27.832	46.9965	27.832	46.761	27.832	46.9281	27.832	46.7031	27.832	46.8605	27.832	46.6645	27.832	46.7969	27.832	46.6454	27.832	46.7407	27.832	46.6451	27.832	46.6949	27.832	46.6622
29.2969	48.0754	29.2969	48.09	29.2969	48.0501	29.2969	48.0915	29.2969	48.0166	29.2969	48.078	29.2969	47.9771	29.2969	48.0484	29.2969	47.9334	29.2969	48.0025	29.2969	47.8865	29.2969	47.9412	29.2969	47.8367	29.2969	47.8666	29.2969	47.784	29.2969	47.7818	29.2969	47.7283	29.2969	47.6908	29.2969	47.6697	29.2969	47.598	29.2969	47.6085	29.2969	47.5081	29.2969	47.5457	29.2969	47.4254	29.2969	47.4829	29.2969	47.3537	29.2969	47.4218	29.2969	47.2956	29.2969	47.3647	29.2969	47.253	29.2969	47.3139	29.2969	47.2265	29.2969	47.2716	29.2969	47.2161	29.2969	47.24	29.2969	47.221
30.7617	48.4438	30.7617	48.4877	30.7617	48.3935	30.7617	48.5207	30.7617	48.3411	30.7617	48.5395	30.7617	48.2913	30.7617	48.5419	30.7617	48.2476	30.7617	48.5274	30.7617	48.2125	30.7617	48.497	30.7617	48.1871	30.7617	48.4536	30.7617	48.171	30.7617	48.4011	30.7617	48.1628	30.7617	48.3441	30.7617	48.1602	30.7617	48.2874	30.7617	48.161	30.7617	48.2354	30.7617	48.163	30.7617	48.1913	30.7617	48.1643	30.7617	48.1573	30.7617	48.1639	30.7617	48.1341	30.7617	48.1608	30.7617	48.1213	30.7617	48.1551	30.7617	48.1175	30.7617	48.147	30.7617	48.1205	30.7617	48.1374	30.7617	48.1279
32.2266	50.3667	32.2266	50.3811	32.2266	50.342	32.2266	50.3837	32.2266	50.3085	32.2266	50.3736	32.2266	50.2676	32.2266	50.3501	32.2266	50.2206	32.2266	50.3136	32.2266	50.1684	32.2266	50.265	32.2266	50.1121	32.2266	50.2065	32.2266	50.0526	32.2266	50.1407	32.2266	49.9913	32.2266	50.0706	32.2266	49.9295	32.2266	49.9993	32.2266	49.8691	32.2266	49.9297	32.2266	49.8118	32.2266	49.8643	32.2266	49.7596	32.2266	49.8049	32.2266	49.7143	32.2266	49.7528	32.2266	49.6776	32.2266	49.7089	32.2266	49.6506	32.2266	49.674	32.2266	49.634	32.2266	49.6486	32.2266	49.6282	32.2266	49.6332
33.6914	50.5365	33.6914	50.5627	33.6914	50.5009	33.6914	50.578	33.6914	50.4574	33.6914	50.5813	33.6914	50.4077	33.6914	50.572	33.6914	50.3533	33.6914	50.5499	33.6914	50.2958	33.6914	50.5157	33.6914	50.2366	33.6914	50.4706	33.6914	50.1773	33.6914	50.4165	33.6914	50.1193	33.6914	50.3556	33.6914	50.0642	33.6914	50.2906	33.6914	50.0136	33.6914	50.2242	33.6914	49.9688	33.6914	50.159	33.6914	49.9311	33.6914	50.0971	33.6914	49.9014	33.6914	50.0405	33.6914	49.8804	33.6914	49.9905	33.6914	49.8685	33.6914	49.9482	33.6914	49.8659	33.6914	49.9142	33.6914	49.8728	33.6914	49.8889
35.1562	51.3241	35.1562	51.3365	35.1562	51.3005	35.1562	51.337	35.1562	51.2665	35.1562	51.3256	35.1562	51.2235	35.1562	51.3026	35.1562	51.1729	35.1562	51.2689	35.1562	51.1165	35.1562	51.2258	35.1562	51.0563	35.1562	51.1749	35.1562	50.994	35.1562	51.1181	35.1562	50.9317	35.1562	51.0574	35.1562	50.8712	35.1562	50.9949	35.1562	50.8142	35.1562	50.9325	35.1562	50.7623	35.1562	50.8721	35.1562	50.7168	35.1562	50.8154	35.1562	50.6791	35.1562	50.7638	35.1562	50.65	35.1562	50.7186	35.1562	50.6304	35.1562	50.681	35.1562	50.6207	35.1562	50.6517	35.1562	50.6212	35.1562	50.6316
36.6211	51.844	36.6211	51.8355	36.6211	51.8478	36.6211	51.8225	36.6211	51.8469	36.6211	51.8052	36.6211	51.8411	36.6211	51.7841	36.6211	51.8303	36.6211	51.7595	36.6211	51.8147	36.6211	51.7324	36.6211	51.7944	36.6211	51.7034	36.6211	51.7698	36.6211	51.6736	36.6211	51.7415	36.6211	51.644	36.6211	51.7105	36.6211	51.6153	36.6211	51.6778	36.6211	51.5884	36.6211	51.6449	36.6211	51.564	36.6211	51.6129	36.6211	51.5428	36.6211	51.5833	36.6211	51.5252	36.6211	51.5572	36.6211	51.5119	36.6211	51.5353	36.6211	51.503	36.6211	51.5184	36.6211	51.4991	36.6211	51.5066	36.6211	51.5002
38.0859	52.4161	38.0859	52.4107	38.0859	52.4152	38.0859	52.3991	38.0859	52.4076	38.0859	52.3818	38.0859	52.3936	38.0859	52.3596	38.0859	52.3735	38.0859	52.3331	38.0859	52.3476	38.0859	52.3034	38.0859	52.317	38.0859	52.2715	38.0859	52.2826	38.0859	52.2383	38.0859	52.2456	38.0859	52.205	38.0859	52.2076	38.0859	52.1723	38.0859	52.17	38.0859	52.1411	38.0859	52.1343	38.0859	52.1121	38.0859	52.1018	38.0859	52.086	38.0859	52.0737	38.0859	52.0633	38.0859	52.0506	38.0859	52.0444	38.0859	52.0331	38.0859	52.0299	38.0859	52.0214	38.0859	52.02	38.0859	52.0155	38.0859	52.0151
39.5508	53.096	39.5508	53.1039	39.5508	53.0822	39.5508	53.1055	39.5508	53.063	39.5508	53.1009	39.5508	53.0391	39.5508	53.0901	39.5508	53.0113	39.5508	53.074	39.5508	52.9806	39.5508	53.0534	39.5508	52.9481	39.5508	53.0294	39.5508	52.9152	39.5508	53.0033	39.5508	52.8832	39.5508	52.9764	39.5508	52.8536	39.5508	52.9495	39.5508	52.8274	39.5508	52.9234	39.5508	52.8056	39.5508	52.8986	39.5508	52.789	39.5508	52.8753	39.5508	52.7776	39.5508	52.8539	39.5508	52.7713	39.5508	52.8344	39.5508	52.7699	39.5508	52.817	39.5508	52.7728	39.5508	52.8019	39.5508	52.7794	39.5508	52.7892
41.0156	53.7363	41.0156	53.7188	41.0156	53.7474	41.0156	53.6957	41.0156	53.7512	41.0156	53.6681	41.0156	53.7474	41.0156	53.6371	41.0156	53.736	41.0156	53.6039	41.0156	53.7172	41.0156	53.5697	41.0156	53.6921	41.0156	53.5358	41.0156	53.662	41.0156	53.5031	41.0156	53.6286	41.0156	53.4726	41.0156	53.5935	41.0156	53.4447	41.0156	53.5585	41.0156	53.4201	41.0156	53.5246	41.0156	53.3991	41.0156	53.4928	41.0156	53.382	41.0156	53.4636	41.0156	53.3693	41.0156	53.4374	41.0156	53.3614	41.0156	53.4143	41.0156	53.3584	41.0156	53.3948	41.0156	53.3605	41.0156	53.379	41.0156	53.3675
42.4805	54.4755	42.4805	54.4601	42.4805	54.4827	42.4805	54.4377	42.4805	54.4809	42.4805	54.4097	42.4805	54.4699	42.4805	54.3777	42.4805	54.45	42.4805	54.343	42.4805	54.4225	42.4805	54.3072	42.4805	54.3892	42.4805	54.2717	42.4805	54.3524	42.4805	54.2378	42.4805	54.3143	42.4805	54.2065	42.4805	54.2769	42.4805	54.1786	42.4805	54.242	42.4805	54.1546	42.4805	54.2104	42.4805	54.1346	42.4805	54.1829	42.4805	54.1187	42.4805	54.1594	42.4805	54.1067	42.4805	54.1398	42.4805	54.0986	42.4805	54.1239	42.4805	54.0942	42.4805	54.1114	42.4805	54.0935	42.4805	54.1022	42.4805	54.0961
43.9453	55.0775	43.9453	55.076	43.9453	55.0727	43.9453	55.0689	43.9453	55.0613	43.9453	55.0567	43.9453	55.0433	43.9453	55.0404	43.9453	55.0193	43.9453	55.0206	43.9453	54.9904	43.9453	54.998	43.9453	54.958	43.9453	54.9733	43.9453	54.924	43.9453	54.9471	43.9453	54.8901	43.9453	54.9202	43.9453	54.8578	43.9453	54.8931	43.9453	54.8285	43.9453	54.8666	43.9453	54.803	43.9453	54.8413	43.9453	54.7818	43.9453	54.8178	43.9453	54.765	43.9453	54.7968	43.9453	54.7526	43.9453	54.7786	43.9453	54.7444	43.9453	54.7637	43.9453	54.7405	43.9453	54.7522	43.9453	54.7405	43.9453	54.7445
45.4102	55.6467	45.4102	55.6418	45.4102	55.6467	45.4102	55.6328	45.4102	55.6414	45.4102	55.6204	45.4102	55.6309	45.4102	55.6055	45.4102	55.6155	45.4102	55.5889	45.4102	55.596	45.4102	55.5714	45.4102	55.5736	45.4102	55.5534	45.4102	55.5495	45.4102	55.5355	45.4102	55.525	45.4102	55.5179	45.4102	55.5016	45.4102	55.501	45.4102	55.4802	45.4102	55.485	45.4102	55.4616	45.4102	55.4701	45.4102	55.4462	45.4102	55.4566	45.4102	55.434	45.4102	55.4446	45.4102	55.4251	45.4102	55.4344	45.4102	55.4191	45.4102	55.4263	45.4102	55.4158	45.4102	55.4203	45.4102	55.415	45.4102	55.4165
46.875	56.1276	46.875	56.1259	46.875	56.1241	46.875	56.1198	46.875	56.1149	46.875	56.1101	46.875	56.1002	46.875	56.0974	46.875	56.0802	46.875	56.0826	46.875	56.0557	46.875	56.0662	46.875	56.0281	46.875	56.0486	46.875	55.9988	46.875	56.0303	46.875	55.9692	46.875	56.0113	46.875	55.9409	46.875	55.9919	46.875	55.9151	46.875	55.9722	46.875	55.8928	46.875	55.9523	46.875	55.8745	46.875	55.9327	46.875	55.8606	46.875	55.9136	46.875	55.8512	46.875	55.8958	46.875	55.8461	46.875	55.8799	46.875	55.8454	46.875	55.8663	46.875	55.8487	46.875	55.8558
48.3398	56.5157	48.3398	56.5101	48.3398	56.515	48.3398	56.4994	48.3398	56.5073	48.3398	56.485	48.3398	56.4922	48.3398	56.4683	48.3398	56.4701	48.3398	56.4503	48.3398	56.442	48.3398	56.4322	48.3398	56.4095	48.3398	56.4144	48.3398	56.3744	48.3398	56.3972	48.3398	56.3387	48.3398	56.3804	48.3398	56.3044	48.3398	56.3635	48.3398	56.2732	48.3398	56.346	48.3398	56.2463	48.3398	56.3276	48.3398	56.2246	48.3398	56.3081	48.3398	56.2087	48.3398	56.2877	48.3398	56.1987	48.3398	56.2672	48.3398	56.1947	48.3398	56.2474	48.3398	56.1962	48.3398	56.2294	48.3398	56.203	48.3398	56.2143
51.2695	57.5578	51.2695	57.5571	51.2695	57.5517	51.2695	57.5501	51.2695	57.5384	51.2695	57.5378	51.2695	57.5182	51.2695	57.5211	51.2695	57.4917	51.2695	57.501	51.2695	57.4602	51.2695	57.4785	51.2695	57.4251	51.2695	57.4542	51.2695	57.3882	51.2695	57.4288	51.2695	57.3512	51.2695	57.4027	51.2695	57.3157	51.2695	57.3763	51.2695	57.2831	51.2695	57.3496	51.2695	57.2543	51.2695	57.3231	51.2695	57.2302	51.2695	57.2971	51.2695	57.2112	51.2695	57.2723	51.2695	57.1977	51.2695	57.2493	51.2695	57.1898	51.2695	57.2289	51.2695	57.1874	51.2695	57.2118	51.2695	57.1906	51.2695	57.1988
52.7344	57.8017	52.7344	57.8025	52.7344	57.7945	52.7344	57.7974	52.7344	57.7803	52.7344	57.7876	52.7344	57.7593	52.7344	57.7742	52.7344	57.7325	52.7344	57.7584	52.7344	57.7011	52.7344	57.7412	52.7344	57.6669	52.7344	57.7234	52.7344	57.6321	52.7344	57.7054	52.7344	57.5986	52.7344	57.6876	52.7344	57.5683	52.7344	57.6697	52.7344	57.5426	52.7344	57.6518	52.7344	57.5223	52.7344	57.6336	52.7344	57.5078	52.7344	57.615	52.7344	57.4992	52.7344	57.5963	52.7344	57.4961	52.7344	57.5776	52.7344	57.4979	52.7344	57.5594	52.7344	57.5041	52.7344	57.5424	52.7344	57.5141	52.7344	57.5271
54.1992	58.3686	54.1992	58.3671	54.1992	58.3641	54.1992	58.3605	54.1992	58.3535	54.1992	58.3495	54.1992	58.3369	54.1992	58.3352	54.1992	58.3152	54.1992	58.3188	54.1992	58.2896	54.1992	58.3013	54.1992	58.2619	54.1992	58.2837	54.1992	58.2338	54.1992	58.2665	54.1992	58.2072	54.1992	58.2502	54.1992	58.1835	54.1992	58.2349	54.1992	58.1636	54.1992	58.2205	54.1992	58.1481	54.1992	58.207	54.1992	58.137	54.1992	58.1942	54.1992	58.1302	54.1992	58.1821	54.1992	58.1272	54.1992	58.1706	54.1992	58.1273	54.1992	58.16	54.1992	58.1302	54.1992	58.1504	54.1992	58.1352	54.1992	58.1421
55.6641	58.8641	55.6641	58.8545	55.6641	58.8681	55.6641	58.8403	55.6641	58.8656	55.6641	58.8229	55.6641	58.8563	55.6641	58.8038	55.6641	58.8408	55.6641	58.7839	55.6641	58.82	55.6641	58.7643	55.6641	58.7952	55.6641	58.7456	55.6641	58.7683	55.6641	58.7281	55.6641	58.7409	55.6641	58.7118	55.6641	58.7144	55.6641	58.6968	55.6641	58.6901	55.6641	58.6826	55.6641	58.6689	55.6641	58.6692	55.6641	58.651	55.6641	58.6565	55.6641	58.6367	55.6641	58.6448	55.6641	58.6259	55.6641	58.6343	55.6641	58.6185	55.6641	58.6255	55.6641	58.6142	55.6641	58.6188	55.6641	58.6129	55.6641	58.6145
58.5938	59.7542	58.5938	59.7377	58.5938	59.7665	58.5938	59.7183	58.5938	59.7737	58.5938	59.6973	58.5938	59.775	58.5938	59.6761	58.5938	59.7703	58.5938	59.6558	58.5938	59.7601	58.5938	59.6371	58.5938	59.7452	58.5938	59.6206	58.5938	59.7267	58.5938	59.6065	58.5938	59.7058	58.5938	59.5948	58.5938	59.6839	58.5938	59.5855	58.5938	59.6622	58.5938	59.5782	58.5938	59.6416	58.5938	59.5727	58.5938	59.623	58.5938	59.5685	58.5938	59.6068	58.5938	59.5656	58.5938	59.5934	58.5938	59.5638	58.5938	59.5828	58.5938	59.5631	58.5938	59.5748	58.5938	59.5636	58.5938	59.5691	58.5938	59.5655
60.0586	60.1485	60.0586	60.1423	60.0586	60.1486	60.0586	60.1309	60.0586	60.1423	60.0586	60.1155	60.0586	60.1292	60.0586	60.097	60.0586	60.1098	60.0586	60.0766	60.0586	60.0849	60.0586	60.055	60.0586	60.0558	60.0586	60.0329	60.0586	60.024	60.0586	60.0107	60.0586	59.9911	60.0586	59.9887	60.0586	59.9587	60.0586	59.9671	60.0586	59.9282	60.0586	59.9461	60.0586	59.9009	60.0586	59.9259	60.0586	59.8777	60.0586	59.9066	60.0586	59.8592	60.0586	59.8887	60.0586	59.8456	60.0586	59.8725	60.0586	59.8371	60.0586	59.8584	60.0586	59.8333	60.0586	59.847	60.0586	59.834	60.0586	59.8387
62.9883	60.9578	62.9883	60.944	62.9883	60.9645	62.9883	60.9241	62.9883	60.9632	62.9883	60.8998	62.9883	60.9537	62.9883	60.8724	62.9883	60.9363	62.9883	60.8434	62.9883	60.9118	62.9883	60.8142	62.9883	60.8815	62.9883	60.7857	62.9883	60.847	62.9883	60.7586	62.9883	60.8103	62.9883	60.7333	62.9883	60.773	62.9883	60.71	62.9883	60.7368	62.9883	60.6888	62.9883	60.7034	62.9883	60.6695	62.9883	60.6737	62.9883	60.6522	62.9883	60.6487	62.9883	60.6369	62.9883	60.6289	62.9883	60.6238	62.9883	60.6144	62.9883	60.6132	62.9883	60.6052	62.9883	60.6055	62.9883	60.6009	62.9883	60.6012
64.4531	61.3969	64.4531	61.3903	64.4531	61.3967	64.4531	61.3777	64.4531	61.389	64.4531	61.3603	64.4531	61.3738	64.4531	61.3392	64.4531	61.3517	64.4531	61.3157	64.4531	61.3237	64.4531	61.2909	64.4531	61.2911	64.4531	61.2655	64.4531	61.2557	64.4531	61.2401	64.4531	61.2192	64.4531	61.2153	64.4531	61.1834	64.4531	61.1912	64.4531	61.1499	64.4531	61.1682	64.4531	61.1201	64.4531	61.1464	64.4531	61.0949	64.4531	61.1261	64.4531	61.075	64.4531	61.1075	64.4531	61.0607	64.4531	61.0908	64.4531	61.052	64.4531	61.0763	64.4531	61.0486	64.4531	61.0643	64.4531	61.0498	64.4531	61.0553
67.3828	62.1684	67.3828	62.1644	67.3828	62.1667	67.3828	62.1555	67.3828	62.1593	67.3828	62.1424	67.3828	62.1461	67.3828	62.1261	67.3828	62.1277	67.3828	62.1074	67.3828	62.1049	67.3828	62.0871	67.3828	62.0788	67.3828	62.0659	67.3828	62.0507	67.3828	62.0443	67.3828	62.0219	67.3828	62.0228	67.3828	61.9937	67.3828	62.0018	67.3828	61.9672	67.3828	61.9816	67.3828	61.9435	67.3828	61.9627	67.3828	61.9233	67.3828	61.9453	67.3828	61.907	67.3828	61.9296	67.3828	61.8951	67.3828	61.9159	67.3828	61.8875	67.3828	61.9043	67.3828	61.884	67.3828	61.895	67.3828	61.8844	67.3828	61.8882
