"SPL Vertical"
"On-Axis"		"10°"		"-10°"		"20°"		"-20°"		"30°"		"-30°"		"40°"		"-40°"		"50°"		"-50°"		"60°"		"-60°"		"70°"		"-70°"		"80°"		"-80°"		"90°"		"-90°"		"100°"		"-100°"		"110°"		"-110°"		"120°"		"-120°"		"130°"		"-130°"		"140°"		"-140°"		"150°"		"-150°"		"160°"		"-160°"		"170°"		"-170°"		"180°"
"Frequency / Hz"	"Sound Pressure Level / dB (re 20 µPa/V)  [2.83  V @ 1. m]"	"Frequency / Hz"	"Sound Pressure Level / dB (re 20 µPa/V)  [2.83  V @ 1. m]"	"Frequency / Hz"	"Sound Pressure Level / dB (re 20 µPa/V)  [2.83  V @ 1. m]"	"Frequency / Hz"	"Sound Pressure Level / dB (re 20 µPa/V)  [2.83  V @ 1. m]"	"Frequency / Hz"	"Sound Pressure Level / dB (re 20 µPa/V)  [2.83  V @ 1. m]"	"Frequency / Hz"	"Sound Pressure Level / dB (re 20 µPa/V)  [2.83  V @ 1. m]"	"Frequency / Hz"	"Sound Pressure Level / dB (re 20 µPa/V)  [2.83  V @ 1. m]"	"Frequency / Hz"	"Sound Pressure Level / dB (re 20 µPa/V)  [2.83  V @ 1. m]"	"Frequency / Hz"	"Sound Pressure Level / dB (re 20 µPa/V)  [2.83  V @ 1. m]"	"Frequency / Hz"	"Sound Pressure Level / dB (re 20 µPa/V)  [2.83  V @ 1. m]"	"Frequency / Hz"	"Sound Pressure Level / dB (re 20 µPa/V)  [2.83  V @ 1. m]"	"Frequency / Hz"	"Sound Pressure Level / dB (re 20 µPa/V)  [2.83  V @ 1. m]"	"Frequency / Hz"	"Sound Pressure Level / dB (re 20 µPa/V)  [2.83  V @ 1. m]"	"Frequency / Hz"	"Sound Pressure Level / dB (re 20 µPa/V)  [2.83  V @ 1. m]"	"Frequency / Hz"	"Sound Pressure Level / dB (re 20 µPa/V)  [2.83  V @ 1. m]"	"Frequency / Hz"	"Sound Pressure Level / dB (re 20 µPa/V)  [2.83  V @ 1. m]"	"Frequency / Hz"	"Sound Pressure Level / dB (re 20 µPa/V)  [2.83  V @ 1. m]"	"Frequency / Hz"	"Sound Pressure Level / dB (re 20 µPa/V)  [2.83  V @ 1. m]"	"Frequency / Hz"	"Sound Pressure Level / dB (re 20 µPa/V)  [2.83  V @ 1. m]"	"Frequency / Hz"	"Sound Pressure Level / dB (re 20 µPa/V)  [2.83  V @ 1. m]"	"Frequency / Hz"	"Sound Pressure Level / dB (re 20 µPa/V)  [2.83  V @ 1. m]"	"Frequency / Hz"	"Sound Pressure Level / dB (re 20 µPa/V)  [2.83  V @ 1. m]"	"Frequency / Hz"	"Sound Pressure Level / dB (re 20 µPa/V)  [2.83  V @ 1. m]"	"Frequency / Hz"	"Sound Pressure Level / dB (re 20 µPa/V)  [2.83  V @ 1. m]"	"Frequency / Hz"	"Sound Pressure Level / dB (re 20 µPa/V)  [2.83  V @ 1. m]"	"Frequency / Hz"	"Sound Pressure Level / dB (re 20 µPa/V)  [2.83  V @ 1. m]"	"Frequency / Hz"	"Sound Pressure Level / dB (re 20 µPa/V)  [2.83  V @ 1. m]"	"Frequency / Hz"	"Sound Pressure Level / dB (re 20 µPa/V)  [2.83  V @ 1. m]"	"Frequency / Hz"	"Sound Pressure Level / dB (re 20 µPa/V)  [2.83  V @ 1. m]"	"Frequency / Hz"	"Sound Pressure Level / dB (re 20 µPa/V)  [2.83  V @ 1. m]"	"Frequency / Hz"	"Sound Pressure Level / dB (re 20 µPa/V)  [2.83  V @ 1. m]"	"Frequency / Hz"	"Sound Pressure Level / dB (re 20 µPa/V)  [2.83  V @ 1. m]"	"Frequency / Hz"	"Sound Pressure Level / dB (re 20 µPa/V)  [2.83  V @ 1. m]"	"Frequency / Hz"	"Sound Pressure Level / dB (re 20 µPa/V)  [2.83  V @ 1. m]"	"Frequency / Hz"	"Sound Pressure Level / dB (re 20 µPa/V)  [2.83  V @ 1. m]"	"Frequency / Hz"	"Sound Pressure Level / dB (re 20 µPa/V)  [2.83  V @ 1. m]"
20.5078	48.9107	20.5078	48.8705	20.5078	48.9367	20.5078	48.817	20.5078	48.9485	20.5078	48.7527	20.5078	48.9477	20.5078	48.6812	20.5078	48.9365	20.5078	48.6072	20.5078	48.9173	20.5078	48.5353	20.5078	48.8929	20.5078	48.4701	20.5078	48.8656	20.5078	48.4157	20.5078	48.8371	20.5078	48.3747	20.5078	48.8085	20.5078	48.3489	20.5078	48.7807	20.5078	48.3383	20.5078	48.7536	20.5078	48.3423	20.5078	48.727	20.5078	48.3588	20.5078	48.7003	20.5078	48.3855	20.5078	48.6726	20.5078	48.4195	20.5078	48.6431	20.5078	48.4579	20.5078	48.611	20.5078	48.4981	20.5078	48.5759	20.5078	48.538
21.9727	39.7793	21.9727	39.7762	21.9727	39.7464	21.9727	39.7375	21.9727	39.6765	21.9727	39.663	21.9727	39.5685	21.9727	39.5519	21.9727	39.4214	21.9727	39.4033	21.9727	39.2348	21.9727	39.2166	21.9727	39.0091	21.9727	38.9919	21.9727	38.7465	21.9727	38.7311	21.9727	38.4509	21.9727	38.4381	21.9727	38.1286	21.9727	38.119	21.9727	37.7887	21.9727	37.783	21.9727	37.4431	21.9727	37.4417	21.9727	37.1062	21.9727	37.1089	21.9727	36.7943	21.9727	36.7999	21.9727	36.5232	21.9727	36.5302	21.9727	36.3074	21.9727	36.314	21.9727	36.1581	21.9727	36.1627	21.9727	36.0826	21.9727	36.0842
23.4375	46.1075	23.4375	46.1223	23.4375	46.0655	23.4375	46.1091	23.4375	45.9976	23.4375	46.0682	23.4375	45.9058	23.4375	46.0003	23.4375	45.7927	23.4375	45.9076	23.4375	45.6614	23.4375	45.7926	23.4375	45.5152	23.4375	45.6588	23.4375	45.3582	23.4375	45.5103	23.4375	45.1944	23.4375	45.3516	23.4375	45.0285	23.4375	45.1871	23.4375	44.8651	23.4375	45.0216	23.4375	44.7095	23.4375	44.8599	23.4375	44.5668	23.4375	44.7067	23.4375	44.4419	23.4375	44.5666	23.4375	44.3398	23.4375	44.444	23.4375	44.2642	23.4375	44.3431	23.4375	44.2183	23.4375	44.2675	23.4375	44.2035	23.4375	44.2202
24.9023	45.0823	24.9023	45.0742	24.9023	45.0727	24.9023	45.0483	24.9023	45.0457	24.9023	45.0051	24.9023	45.0019	24.9023	44.945	24.9023	44.9421	24.9023	44.8694	24.9023	44.8675	24.9023	44.7799	24.9023	44.7797	24.9023	44.6788	24.9023	44.6806	24.9023	44.5689	24.9023	44.5728	24.9023	44.4535	24.9023	44.4589	24.9023	44.3361	24.9023	44.3424	24.9023	44.2205	24.9023	44.2269	24.9023	44.1105	24.9023	44.1161	24.9023	44.0097	24.9023	44.014	24.9023	43.9218	24.9023	43.9246	24.9023	43.8497	24.9023	43.8513	24.9023	43.7962	24.9023	43.7969	24.9023	43.7632	24.9023	43.7634	24.9023	43.7521
26.3672	46.2931	26.3672	46.2855	26.3672	46.288	26.3672	46.2657	26.3672	46.2698	26.3672	46.2345	26.3672	46.2384	26.3672	46.1928	26.3672	46.1939	26.3672	46.1415	26.3672	46.1373	26.3672	46.0819	26.3672	46.0696	26.3672	46.0152	26.3672	45.9926	26.3672	45.943	26.3672	45.9084	26.3672	45.8668	26.3672	45.8196	26.3672	45.7883	26.3672	45.7292	26.3672	45.7094	26.3672	45.6405	26.3672	45.6319	26.3672	45.5569	26.3672	45.558	26.3672	45.4818	26.3672	45.49	26.3672	45.4184	26.3672	45.4304	26.3672	45.3696	26.3672	45.3815	26.3672	45.3373	26.3672	45.346	26.3672	45.3227	26.3672	45.3258
27.832	47.5341	27.832	47.5233	27.832	47.5328	27.832	47.5008	27.832	47.5192	27.832	47.4673	27.832	47.4935	27.832	47.4236	27.832	47.4559	27.832	47.3709	27.832	47.4073	27.832	47.3106	27.832	47.349	27.832	47.2443	27.832	47.2824	27.832	47.1738	27.832	47.2095	27.832	47.101	27.832	47.1324	27.832	47.0279	27.832	47.0534	27.832	46.9565	27.832	46.9753	27.832	46.8889	27.832	46.9007	27.832	46.8268	27.832	46.8324	27.832	46.7722	27.832	46.773	27.832	46.7268	27.832	46.7247	27.832	46.6924	27.832	46.6895	27.832	46.6704	27.832	46.6685	27.832	46.6622
29.2969	48.0754	29.2969	48.0753	29.2969	48.0634	29.2969	48.0632	29.2969	48.0396	29.2969	48.0394	29.2969	48.0048	29.2969	48.0044	29.2969	47.9597	29.2969	47.9593	29.2969	47.9056	29.2969	47.9051	29.2969	47.8437	29.2969	47.8435	29.2969	47.7759	29.2969	47.776	29.2969	47.7037	29.2969	47.7045	29.2969	47.6293	29.2969	47.631	29.2969	47.5547	29.2969	47.5575	29.2969	47.4822	29.2969	47.4862	29.2969	47.4142	29.2969	47.4192	29.2969	47.3532	29.2969	47.3587	29.2969	47.3015	29.2969	47.3068	29.2969	47.261	29.2969	47.2654	29.2969	47.2335	29.2969	47.2364	29.2969	47.22	29.2969	47.221
30.7617	48.4438	30.7617	48.4462	30.7617	48.4362	30.7617	48.4432	30.7617	48.4233	30.7617	48.4352	30.7617	48.4056	30.7617	48.4226	30.7617	48.3834	30.7617	48.4059	30.7617	48.3574	30.7617	48.3858	30.7617	48.3285	30.7617	48.3632	30.7617	48.2975	30.7617	48.3388	30.7617	48.2658	30.7617	48.3135	30.7617	48.2343	30.7617	48.288	30.7617	48.2045	30.7617	48.2629	30.7617	48.1775	30.7617	48.2386	30.7617	48.1544	30.7617	48.2155	30.7617	48.1362	30.7617	48.1939	30.7617	48.1235	30.7617	48.1738	30.7617	48.1166	30.7617	48.1558	30.7617	48.1153	30.7617	48.1403	30.7617	48.1193	30.7617	48.1279
32.2266	50.3667	32.2266	50.3606	32.2266	50.3613	32.2266	50.3433	32.2266	50.3449	32.2266	50.315	32.2266	50.318	32.2266	50.2767	32.2266	50.2814	32.2266	50.2296	32.2266	50.2364	32.2266	50.1753	32.2266	50.1841	32.2266	50.1157	32.2266	50.1262	32.2266	50.0529	32.2266	50.0643	32.2266	49.9888	32.2266	50.0002	32.2266	49.9256	32.2266	49.936	32.2266	49.865	32.2266	49.8737	32.2266	49.8089	32.2266	49.8152	32.2266	49.7586	32.2266	49.7625	32.2266	49.7154	32.2266	49.7173	32.2266	49.6805	32.2266	49.6808	32.2266	49.6547	32.2266	49.6543	32.2266	49.6387	32.2266	49.6384	32.2266	49.6332
33.6914	50.5365	33.6914	50.5276	33.6914	50.5353	33.6914	50.5089	33.6914	50.524	33.6914	50.481	33.6914	50.5031	33.6914	50.4448	33.6914	50.4732	33.6914	50.4016	33.6914	50.4352	33.6914	50.3528	33.6914	50.3902	33.6914	50.3001	33.6914	50.3395	33.6914	50.2451	33.6914	50.2848	33.6914	50.1895	33.6914	50.2276	33.6914	50.1351	33.6914	50.1699	33.6914	50.0832	33.6914	50.1134	33.6914	50.0353	33.6914	50.0601	33.6914	49.9925	33.6914	50.0117	33.6914	49.9559	33.6914	49.9699	33.6914	49.9265	33.6914	49.9359	33.6914	49.9051	33.6914	49.9108	33.6914	49.8924	33.6914	49.895	33.6914	49.8889
35.1562	51.3241	35.1562	51.3175	35.1562	51.3199	35.1562	51.3002	35.1562	51.3052	35.1562	51.2727	35.1562	51.2806	35.1562	51.236	35.1562	51.247	35.1562	51.1912	35.1562	51.2055	35.1562	51.1399	35.1562	51.1574	35.1562	51.0839	35.1562	51.1041	35.1562	51.0249	35.1562	51.047	35.1562	50.9648	35.1562	50.9878	35.1562	50.9053	35.1562	50.9281	35.1562	50.8481	35.1562	50.8697	35.1562	50.7949	35.1562	50.8144	35.1562	50.7472	35.1562	50.7638	35.1562	50.7062	35.1562	50.7196	35.1562	50.6732	35.1562	50.6832	35.1562	50.6493	35.1562	50.6559	35.1562	50.6353	35.1562	50.6385	35.1562	50.6316
36.6211	51.844	36.6211	51.8328	36.6211	51.8503	36.6211	51.817	36.6211	51.8512	36.6211	51.7973	36.6211	51.8466	36.6211	51.7742	36.6211	51.8365	36.6211	51.7483	36.6211	51.8211	36.6211	51.7205	36.6211	51.8006	36.6211	51.6914	36.6211	51.7758	36.6211	51.662	36.6211	51.7474	36.6211	51.6329	36.6211	51.7164	36.6211	51.605	36.6211	51.684	36.6211	51.5791	36.6211	51.6513	36.6211	51.5557	36.6211	51.6194	36.6211	51.5357	36.6211	51.5896	36.6211	51.5194	36.6211	51.5628	36.6211	51.5073	36.6211	51.5399	36.6211	51.4999	36.6211	51.5216	36.6211	51.4975	36.6211	51.5083	36.6211	51.5002
38.0859	52.4161	38.0859	52.4057	38.0859	52.4208	38.0859	52.3899	38.0859	52.4193	38.0859	52.3692	38.0859	52.4117	38.0859	52.3442	38.0859	52.3979	38.0859	52.3158	38.0859	52.3784	38.0859	52.2846	38.0859	52.3535	38.0859	52.2517	38.0859	52.3241	38.0859	52.2178	38.0859	52.2909	38.0859	52.1839	38.0859	52.2551	38.0859	52.1509	38.0859	52.218	38.0859	52.1198	38.0859	52.1807	38.0859	52.0913	38.0859	52.1447	38.0859	52.0663	38.0859	52.1112	38.0859	52.0454	38.0859	52.0814	38.0859	52.0294	38.0859	52.0562	38.0859	52.0187	38.0859	52.0365	38.0859	52.0139	38.0859	52.0227	38.0859	52.0151
39.5508	53.096	39.5508	53.083	39.5508	53.1027	39.5508	53.0643	39.5508	53.103	39.5508	53.0405	39.5508	53.0971	39.5508	53.0126	39.5508	53.0855	39.5508	52.982	39.5508	53.0689	39.5508	52.9499	39.5508	53.0482	39.5508	52.9178	39.5508	53.0242	39.5508	52.887	39.5508	52.9981	39.5508	52.8588	39.5508	52.9709	39.5508	52.834	39.5508	52.9435	39.5508	52.8133	39.5508	52.9168	39.5508	52.7972	39.5508	52.8916	39.5508	52.7857	39.5508	52.8683	39.5508	52.7787	39.5508	52.8473	39.5508	52.776	39.5508	52.8288	39.5508	52.7771	39.5508	52.8129	39.5508	52.7816	39.5508	52.7997	39.5508	52.7892
41.0156	53.7363	41.0156	53.7197	41.0156	53.747	41.0156	53.6976	41.0156	53.7515	41.0156	53.6709	41.0156	53.7495	41.0156	53.6404	41.0156	53.7412	41.0156	53.6073	41.0156	53.7268	41.0156	53.5726	41.0156	53.7068	41.0156	53.5375	41.0156	53.6818	41.0156	53.5033	41.0156	53.6528	41.0156	53.4708	41.0156	53.6206	41.0156	53.4412	41.0156	53.5865	41.0156	53.4152	41.0156	53.5514	41.0156	53.3933	41.0156	53.5167	41.0156	53.3761	41.0156	53.4833	41.0156	53.3638	41.0156	53.4523	41.0156	53.3567	41.0156	53.4245	41.0156	53.3549	41.0156	53.4008	41.0156	53.3585	41.0156	53.3816	41.0156	53.3675
42.4805	54.4755	42.4805	54.4621	42.4805	54.4823	42.4805	54.4425	42.4805	54.4821	42.4805	54.4174	42.4805	54.4753	42.4805	54.3878	42.4805	54.4623	42.4805	54.3548	42.4805	54.4435	42.4805	54.3198	42.4805	54.42	42.4805	54.284	42.4805	54.3924	42.4805	54.2487	42.4805	54.3619	42.4805	54.215	42.4805	54.3294	42.4805	54.1838	42.4805	54.2959	42.4805	54.1561	42.4805	54.2623	42.4805	54.1325	42.4805	54.2298	42.4805	54.1135	42.4805	54.199	42.4805	54.0995	42.4805	54.1709	42.4805	54.0907	42.4805	54.146	42.4805	54.0873	42.4805	54.1249	42.4805	54.0891	42.4805	54.1082	42.4805	54.0961
43.9453	55.0775	43.9453	55.0626	43.9453	55.0868	43.9453	55.0426	43.9453	55.0902	43.9453	55.0181	43.9453	55.0878	43.9453	54.99	43.9453	55.0797	43.9453	54.9593	43.9453	55.0662	43.9453	54.927	43.9453	55.048	43.9453	54.8944	43.9453	55.0256	43.9453	54.8624	43.9453	54.9999	43.9453	54.8322	43.9453	54.9717	43.9453	54.8046	43.9453	54.9419	43.9453	54.7805	43.9453	54.9114	43.9453	54.7606	43.9453	54.8811	43.9453	54.7452	43.9453	54.8518	43.9453	54.7349	43.9453	54.8243	43.9453	54.7297	43.9453	54.7992	43.9453	54.7296	43.9453	54.7772	43.9453	54.7346	43.9453	54.7588	43.9453	54.7445
45.4102	55.6467	45.4102	55.6376	45.4102	55.6517	45.4102	55.6247	45.4102	55.6525	45.4102	55.6082	45.4102	55.6493	45.4102	55.5888	45.4102	55.6423	45.4102	55.5671	45.4102	55.6319	45.4102	55.5441	45.4102	55.6184	45.4102	55.5205	45.4102	55.6025	45.4102	55.4973	45.4102	55.5846	45.4102	55.4753	45.4102	55.5654	45.4102	55.4554	45.4102	55.5455	45.4102	55.4382	45.4102	55.5254	45.4102	55.4243	45.4102	55.5057	45.4102	55.414	45.4102	55.4868	45.4102	55.4074	45.4102	55.4691	45.4102	55.4045	45.4102	55.453	45.4102	55.4053	45.4102	55.4386	45.4102	55.4093	45.4102	55.4263	45.4102	55.4165
46.875	56.1276	46.875	56.1185	46.875	56.1315	46.875	56.1047	46.875	56.1302	46.875	56.0866	46.875	56.124	46.875	56.0651	46.875	56.1131	46.875	56.0411	46.875	56.0983	46.875	56.0155	46.875	56.0803	46.875	55.9892	46.875	56.0598	46.875	55.9633	46.875	56.0377	46.875	55.9385	46.875	56.0147	46.875	55.9157	46.875	55.9915	46.875	55.8955	46.875	55.9688	46.875	55.8784	46.875	55.947	46.875	55.8648	46.875	55.9266	46.875	55.8552	46.875	55.9079	46.875	55.8495	46.875	55.8912	46.875	55.8479	46.875	55.8767	46.875	55.85	46.875	55.8648	46.875	55.8558
48.3398	56.5157	48.3398	56.5125	48.3398	56.5137	48.3398	56.5042	48.3398	56.5067	48.3398	56.4912	48.3398	56.4948	48.3398	56.474	48.3398	56.4787	48.3398	56.4532	48.3398	56.4587	48.3398	56.4298	48.3398	56.4357	48.3398	56.4047	48.3398	56.4105	48.3398	56.3786	48.3398	56.3839	48.3398	56.3525	48.3398	56.3568	48.3398	56.3272	48.3398	56.3302	48.3398	56.3033	48.3398	56.3049	48.3398	56.2814	48.3398	56.2817	48.3398	56.2621	48.3398	56.2613	48.3398	56.2457	48.3398	56.2443	48.3398	56.2325	48.3398	56.2309	48.3398	56.2227	48.3398	56.2214	48.3398	56.2166	48.3398	56.2159	48.3398	56.2143
51.2695	57.5578	51.2695	57.5455	51.2695	57.5642	51.2695	57.5276	51.2695	57.5644	51.2695	57.5046	51.2695	57.5587	51.2695	57.4775	51.2695	57.5474	51.2695	57.4473	51.2695	57.5309	51.2695	57.415	51.2695	57.5099	51.2695	57.3816	51.2695	57.4851	51.2695	57.3485	51.2695	57.4574	51.2695	57.3164	51.2695	57.4276	51.2695	57.2864	51.2695	57.3964	51.2695	57.2593	51.2695	57.3648	51.2695	57.2358	51.2695	57.3337	51.2695	57.2166	51.2695	57.3037	51.2695	57.2023	51.2695	57.2758	51.2695	57.1931	51.2695	57.2506	51.2695	57.1894	51.2695	57.229	51.2695	57.1914	51.2695	57.2115	51.2695	57.1988
52.7344	57.8017	52.7344	57.7907	52.7344	57.8071	52.7344	57.7744	52.7344	57.8067	52.7344	57.7537	52.7344	57.8006	52.7344	57.7297	52.7344	57.7894	52.7344	57.7034	52.7344	57.7738	52.7344	57.6762	52.7344	57.7545	52.7344	57.649	52.7344	57.7327	52.7344	57.6229	52.7344	57.7092	52.7344	57.5988	52.7344	57.6849	52.7344	57.5773	52.7344	57.6608	52.7344	57.5589	52.7344	57.6374	52.7344	57.5438	52.7344	57.6154	52.7344	57.5322	52.7344	57.595	52.7344	57.5243	52.7344	57.5767	52.7344	57.5199	52.7344	57.5606	52.7344	57.519	52.7344	57.5468	52.7344	57.5215	52.7344	57.5356	52.7344	57.5271
54.1992	58.3686	54.1992	58.3604	54.1992	58.3719	54.1992	58.3475	54.1992	58.3703	54.1992	58.3307	54.1992	58.3641	54.1992	58.3106	54.1992	58.3537	54.1992	58.2883	54.1992	58.34	54.1992	58.2648	54.1992	58.3236	54.1992	58.2412	54.1992	58.3054	54.1992	58.2183	54.1992	58.2863	54.1992	58.1972	54.1992	58.267	54.1992	58.1783	54.1992	58.2481	54.1992	58.1624	54.1992	58.23	54.1992	58.1498	54.1992	58.2131	54.1992	58.1405	54.1992	58.1976	54.1992	58.1347	54.1992	58.1835	54.1992	58.1323	54.1992	58.1708	54.1992	58.1329	54.1992	58.1595	54.1992	58.1363	54.1992	58.1499	54.1992	58.1421
55.6641	58.8641	55.6641	58.8564	55.6641	58.8675	55.6641	58.8446	55.6641	58.8664	55.6641	58.8292	55.6641	58.8609	55.6641	58.8108	55.6641	58.8513	55.6641	58.7901	55.6641	58.838	55.6641	58.768	55.6641	58.8216	55.6641	58.7451	55.6641	58.8026	55.6641	58.7224	55.6641	58.7818	55.6641	58.7005	55.6641	58.7599	55.6641	58.6801	55.6641	58.7376	55.6641	58.6616	55.6641	58.7156	55.6641	58.6456	55.6641	58.6947	55.6641	58.6324	55.6641	58.6752	55.6641	58.6222	55.6641	58.6578	55.6641	58.6153	55.6641	58.6427	55.6641	58.6117	55.6641	58.6303	55.6641	58.6114	55.6641	58.6208	55.6641	58.6145
58.5938	59.7542	58.5938	59.7466	58.5938	59.758	58.5938	59.7353	58.5938	59.758	58.5938	59.7208	58.5938	59.7543	58.5938	59.7035	58.5938	59.7472	58.5938	59.6842	58.5938	59.7372	58.5938	59.6637	58.5938	59.7248	58.5938	59.643	58.5938	59.7106	58.5938	59.6228	58.5938	59.6951	58.5938	59.6042	58.5938	59.6791	58.5938	59.5877	58.5938	59.6631	58.5938	59.5741	58.5938	59.6474	58.5938	59.5637	58.5938	59.6325	58.5938	59.5566	58.5938	59.6186	58.5938	59.5529	58.5938	59.6057	58.5938	59.5523	58.5938	59.5939	58.5938	59.5545	58.5938	59.5832	58.5938	59.559	58.5938	59.5737	58.5938	59.5655
60.0586	60.1485	60.0586	60.1378	60.0586	60.1534	60.0586	60.1217	60.0586	60.1525	60.0586	60.1008	60.0586	60.1461	60.0586	60.0758	60.0586	60.1344	60.0586	60.0476	60.0586	60.1182	60.0586	60.0174	60.0586	60.0981	60.0586	59.9864	60.0586	60.075	60.0586	59.9558	60.0586	60.0498	60.0586	59.9266	60.0586	60.0235	60.0586	59.9	60.0586	59.997	60.0586	59.8768	60.0586	59.9708	60.0586	59.8577	60.0586	59.9458	60.0586	59.843	60.0586	59.9222	60.0586	59.8331	60.0586	59.9006	60.0586	59.8279	60.0586	59.8811	60.0586	59.8273	60.0586	59.8641	60.0586	59.8311	60.0586	59.8498	60.0586	59.8387
62.9883	60.9578	62.9883	60.9473	62.9883	60.9617	62.9883	60.9306	62.9883	60.9589	62.9883	60.9084	62.9883	60.9496	62.9883	60.8817	62.9883	60.9344	62.9883	60.8514	62.9883	60.9139	62.9883	60.8188	62.9883	60.8891	62.9883	60.7851	62.9883	60.8611	62.9883	60.7516	62.9883	60.831	62.9883	60.7193	62.9883	60.7999	62.9883	60.6893	62.9883	60.7689	62.9883	60.6625	62.9883	60.7389	62.9883	60.6396	62.9883	60.7106	62.9883	60.6211	62.9883	60.6846	62.9883	60.6075	62.9883	60.6613	62.9883	60.5988	62.9883	60.6411	62.9883	60.5949	62.9883	60.6241	62.9883	60.5959	62.9883	60.6108	62.9883	60.6012
64.4531	61.3969	64.4531	61.3859	64.4531	61.4017	64.4531	61.3691	64.4531	61.4001	64.4531	61.3472	64.4531	61.3922	64.4531	61.3211	64.4531	61.3784	64.4531	61.2919	64.4531	61.3595	64.4531	61.2606	64.4531	61.3362	64.4531	61.2285	64.4531	61.3097	64.4531	61.1965	64.4531	61.2809	64.4531	61.1657	64.4531	61.251	64.4531	61.1372	64.4531	61.2209	64.4531	61.1117	64.4531	61.1916	64.4531	61.09	64.4531	61.1639	64.4531	61.0725	64.4531	61.1383	64.4531	61.0597	64.4531	61.1153	64.4531	61.0517	64.4531	61.0952	64.4531	61.0484	64.4531	61.0783	64.4531	61.0497	64.4531	61.0649	64.4531	61.0553
67.3828	62.1684	67.3828	62.16	67.3828	62.1716	67.3828	62.1468	67.3828	62.1697	67.3828	62.1292	67.3828	62.1629	67.3828	62.1079	67.3828	62.1515	67.3828	62.0836	67.3828	62.1362	67.3828	62.0572	67.3828	62.1176	67.3828	62.0298	67.3828	62.0964	67.3828	62.0023	67.3828	62.0737	67.3828	61.9758	67.3828	62.05	67.3828	61.9512	67.3828	62.0263	67.3828	61.9293	67.3828	62.0031	67.3828	61.911	67.3828	61.981	67.3828	61.8966	67.3828	61.9604	67.3828	61.8865	67.3828	61.9415	67.3828	61.8808	67.3828	61.9246	67.3828	61.8794	67.3828	61.9099	67.3828	61.882	67.3828	61.8976	67.3828	61.8882
