"SPL Horizontal"
"On-Axis"		"10°"		"-10°"		"20°"		"-20°"		"30°"		"-30°"		"40°"		"-40°"		"50°"		"-50°"		"60°"		"-60°"		"70°"		"-70°"		"80°"		"-80°"		"90°"		"-90°"		"100°"		"-100°"		"110°"		"-110°"		"120°"		"-120°"		"130°"		"-130°"		"140°"		"-140°"		"150°"		"-150°"		"160°"		"-160°"		"170°"		"-170°"		"180°"
"Frequency [Hz]"	"Sound Pessure Level [dB]  / [2.83V 1m] "	"Frequency [Hz]"	"Sound Pessure Level [dB]  / [2.83V 1m] "	"Frequency [Hz]"	"Sound Pessure Level [dB]  / [2.83V 1m] "	"Frequency [Hz]"	"Sound Pessure Level [dB]  / [2.83V 1m] "	"Frequency [Hz]"	"Sound Pessure Level [dB]  / [2.83V 1m] "	"Frequency [Hz]"	"Sound Pessure Level [dB]  / [2.83V 1m] "	"Frequency [Hz]"	"Sound Pessure Level [dB]  / [2.83V 1m] "	"Frequency [Hz]"	"Sound Pessure Level [dB]  / [2.83V 1m] "	"Frequency [Hz]"	"Sound Pessure Level [dB]  / [2.83V 1m] "	"Frequency [Hz]"	"Sound Pessure Level [dB]  / [2.83V 1m] "	"Frequency [Hz]"	"Sound Pessure Level [dB]  / [2.83V 1m] "	"Frequency [Hz]"	"Sound Pessure Level [dB]  / [2.83V 1m] "	"Frequency [Hz]"	"Sound Pessure Level [dB]  / [2.83V 1m] "	"Frequency [Hz]"	"Sound Pessure Level [dB]  / [2.83V 1m] "	"Frequency [Hz]"	"Sound Pessure Level [dB]  / [2.83V 1m] "	"Frequency [Hz]"	"Sound Pessure Level [dB]  / [2.83V 1m] "	"Frequency [Hz]"	"Sound Pessure Level [dB]  / [2.83V 1m] "	"Frequency [Hz]"	"Sound Pessure Level [dB]  / [2.83V 1m] "	"Frequency [Hz]"	"Sound Pessure Level [dB]  / [2.83V 1m] "	"Frequency [Hz]"	"Sound Pessure Level [dB]  / [2.83V 1m] "	"Frequency [Hz]"	"Sound Pessure Level [dB]  / [2.83V 1m] "	"Frequency [Hz]"	"Sound Pessure Level [dB]  / [2.83V 1m] "	"Frequency [Hz]"	"Sound Pessure Level [dB]  / [2.83V 1m] "	"Frequency [Hz]"	"Sound Pessure Level [dB]  / [2.83V 1m] "	"Frequency [Hz]"	"Sound Pessure Level [dB]  / [2.83V 1m] "	"Frequency [Hz]"	"Sound Pessure Level [dB]  / [2.83V 1m] "	"Frequency [Hz]"	"Sound Pessure Level [dB]  / [2.83V 1m] "	"Frequency [Hz]"	"Sound Pessure Level [dB]  / [2.83V 1m] "	"Frequency [Hz]"	"Sound Pessure Level [dB]  / [2.83V 1m] "	"Frequency [Hz]"	"Sound Pessure Level [dB]  / [2.83V 1m] "	"Frequency [Hz]"	"Sound Pessure Level [dB]  / [2.83V 1m] "	"Frequency [Hz]"	"Sound Pessure Level [dB]  / [2.83V 1m] "	"Frequency [Hz]"	"Sound Pessure Level [dB]  / [2.83V 1m] "	"Frequency [Hz]"	"Sound Pessure Level [dB]  / [2.83V 1m] "	"Frequency [Hz]"	"Sound Pessure Level [dB]  / [2.83V 1m] "	"Frequency [Hz]"	"Sound Pessure Level [dB]  / [2.83V 1m] "
20.5078	71.9936	20.5078	71.9775	20.5078	71.9948	20.5078	71.9457	20.5078	71.9827	20.5078	71.8981	20.5078	71.9595	20.5078	71.8359	20.5078	71.9272	20.5078	71.7608	20.5078	71.8878	20.5078	71.6752	20.5078	71.8429	20.5078	71.582	20.5078	71.7939	20.5078	71.4843	20.5078	71.7416	20.5078	71.3855	20.5078	71.6865	20.5078	71.2896	20.5078	71.6284	20.5078	71.2006	20.5078	71.5669	20.5078	71.123	20.5078	71.5012	20.5078	71.0612	20.5078	71.4309	20.5078	71.0188	20.5078	71.3564	20.5078	70.9984	20.5078	71.2793	20.5078	71.0011	20.5078	71.203	20.5078	71.0263	20.5078	71.1318	20.5078	71.0712
21.9727	75.0556	21.9727	75.0564	21.9727	75.0376	21.9727	75.0395	21.9727	75.0035	21.9727	75.0049	21.9727	74.9546	21.9727	74.9532	21.9727	74.8925	21.9727	74.8855	21.9727	74.8187	21.9727	74.8037	21.9727	74.7349	21.9727	74.7098	21.9727	74.6431	21.9727	74.6064	21.9727	74.5454	21.9727	74.4964	21.9727	74.4445	21.9727	74.3834	21.9727	74.343	21.9727	74.2712	21.9727	74.2437	21.9727	74.1643	21.9727	74.1494	21.9727	74.067	21.9727	74.0627	21.9727	73.9832	21.9727	73.9865	21.9727	73.9161	21.9727	73.9233	21.9727	73.8679	21.9727	73.8752	21.9727	73.8398	21.9727	73.8443	21.9727	73.8321
23.4375	77.4247	23.4375	77.4076	23.4375	77.4244	23.4375	77.3732	23.4375	77.4074	23.4375	77.3223	23.4375	77.3745	23.4375	77.2561	23.4375	77.327	23.4375	77.1764	23.4375	77.2661	23.4375	77.0854	23.4375	77.1933	23.4375	76.9853	23.4375	77.1104	23.4375	76.8788	23.4375	77.0191	23.4375	76.7689	23.4375	76.9219	23.4375	76.6591	23.4375	76.8213	23.4375	76.5533	23.4375	76.7202	23.4375	76.4558	23.4375	76.6215	23.4375	76.3707	23.4375	76.5279	23.4375	76.3016	23.4375	76.4421	23.4375	76.2515	23.4375	76.3666	23.4375	76.2218	23.4375	76.3038	23.4375	76.2132	23.4375	76.2559	23.4375	76.225
24.9023	79.1649	24.9023	79.1491	24.9023	79.1609	24.9023	79.1137	24.9023	79.1375	24.9023	79.0596	24.9023	79.0955	24.9023	78.9882	24.9023	79.0363	24.9023	78.9015	24.9023	78.9619	24.9023	78.8017	24.9023	78.8743	24.9023	78.6917	24.9023	78.7761	24.9023	78.5746	24.9023	78.6703	24.9023	78.4542	24.9023	78.5599	24.9023	78.3344	24.9023	78.4481	24.9023	78.2194	24.9023	78.3378	24.9023	78.1134	24.9023	78.2321	24.9023	78.0205	24.9023	78.1338	24.9023	77.944	24.9023	78.0456	24.9023	77.8865	24.9023	77.9699	24.9023	77.8495	24.9023	77.9089	24.9023	77.8339	24.9023	77.8648	24.9023	77.8393
26.3672	80.6535	26.3672	80.6398	26.3672	80.6463	26.3672	80.6054	26.3672	80.6184	26.3672	80.5511	26.3672	80.5704	26.3672	80.4782	26.3672	80.5034	26.3672	80.3886	26.3672	80.4191	26.3672	80.2843	26.3672	80.3193	26.3672	80.1683	26.3672	80.2066	26.3672	80.0437	26.3672	80.0839	26.3672	79.9141	26.3672	79.9546	26.3672	79.7835	26.3672	79.8223	26.3672	79.6559	26.3672	79.6912	26.3672	79.5357	26.3672	79.5657	26.3672	79.4268	26.3672	79.4502	26.3672	79.3326	26.3672	79.3494	26.3672	79.2562	26.3672	79.2669	26.3672	79.2	26.3672	79.2059	26.3672	79.1658	26.3672	79.1683	26.3672	79.155
27.832	81.5105	27.832	81.4944	27.832	81.5054	27.832	81.4572	27.832	81.4791	27.832	81.3998	27.832	81.4324	27.832	81.3235	27.832	81.3663	27.832	81.2302	27.832	81.2822	27.832	81.1222	27.832	81.1822	27.832	81.0025	27.832	81.0685	27.832	80.8743	27.832	80.9441	27.832	80.7415	27.832	80.8124	27.832	80.6083	27.832	80.6775	27.832	80.479	27.832	80.5436	27.832	80.3579	27.832	80.4155	27.832	80.2493	27.832	80.2979	27.832	80.1565	27.832	80.1952	27.832	80.0825	27.832	80.1109	27.832	80.0294	27.832	80.0478	27.832	79.9987	27.832	80.0077	27.832	79.9913
29.2969	82.0313	29.2969	82.0076	29.2969	82.0332	29.2969	81.9626	29.2969	82.0131	29.2969	81.8976	29.2969	81.9715	29.2969	81.8141	29.2969	81.9093	29.2969	81.7144	29.2969	81.8282	29.2969	81.6009	29.2969	81.73	29.2969	81.4767	29.2969	81.6176	29.2969	81.345	29.2969	81.4939	29.2969	81.2098	29.2969	81.3627	29.2969	81.0752	29.2969	81.2279	29.2969	80.9456	29.2969	81.094	29.2969	80.8257	29.2969	80.9651	29.2969	80.7196	29.2969	80.8457	29.2969	80.6312	29.2969	80.7394	29.2969	80.5635	29.2969	80.6495	29.2969	80.5187	29.2969	80.5785	29.2969	80.498	29.2969	80.5287	29.2969	80.5015
30.7617	82.3618	30.7617	82.3446	30.7617	82.3574	30.7617	82.306	30.7617	82.3314	30.7617	82.2471	30.7617	82.2846	30.7617	82.1692	30.7617	82.218	30.7617	82.0744	30.7617	82.1333	30.7617	81.9651	30.7617	82.0327	30.7617	81.8441	30.7617	81.9189	30.7617	81.7147	30.7617	81.795	30.7617	81.5808	30.7617	81.6645	30.7617	81.4464	30.7617	81.5314	30.7617	81.3157	30.7617	81.3999	30.7617	81.1934	30.7617	81.2741	30.7617	81.0835	30.7617	81.158	30.7617	80.9901	30.7617	81.0554	30.7617	80.9165	30.7617	80.9694	30.7617	80.8652	30.7617	80.9026	30.7617	80.838	30.7617	80.8574	30.7617	80.8354
32.2266	82.5953	32.2266	82.5867	32.2266	82.5827	32.2266	82.5574	32.2266	82.5491	32.2266	82.5083	32.2266	82.4955	32.2266	82.4406	32.2266	82.423	32.2266	82.3567	32.2266	82.3336	32.2266	82.259	32.2266	82.2297	32.2266	82.1506	32.2266	82.1146	32.2266	82.0352	32.2266	81.9918	32.2266	81.9163	32.2266	81.8654	32.2266	81.7979	32.2266	81.7396	32.2266	81.6835	32.2266	81.6191	32.2266	81.5765	32.2266	81.508	32.2266	81.4795	32.2266	81.4105	32.2266	81.3947	32.2266	81.3298	32.2266	81.324	32.2266	81.2685	32.2266	81.2686	32.2266	81.2279	32.2266	81.23	32.2266	81.2084	32.2266	81.2095
33.6914	82.8015	33.6914	82.7843	33.6914	82.7974	33.6914	82.7465	33.6914	82.7723	33.6914	82.689	33.6914	82.7267	33.6914	82.6137	33.6914	82.6621	33.6914	82.5227	33.6914	82.5803	33.6914	82.4188	33.6914	82.4837	33.6914	82.3055	33.6914	82.3755	33.6914	82.1865	33.6914	82.2591	33.6914	82.0657	33.6914	82.1383	33.6914	81.9473	33.6914	82.0174	33.6914	81.8351	33.6914	81.9002	33.6914	81.7325	33.6914	81.7908	33.6914	81.6427	33.6914	81.6925	33.6914	81.5677	33.6914	81.6081	33.6914	81.5093	33.6914	81.5398	33.6914	81.4685	33.6914	81.4889	33.6914	81.4459	33.6914	81.456	33.6914	81.4417
35.1562	82.8537	35.1562	82.8365	35.1562	82.8484	35.1562	82.7972	35.1562	82.8206	35.1562	82.737	35.1562	82.7711	35.1562	82.6574	35.1562	82.7011	35.1562	82.5606	35.1562	82.6125	35.1562	82.4492	35.1562	82.5079	35.1562	82.3267	35.1562	82.3903	35.1562	82.1966	35.1562	82.2634	35.1562	82.0634	35.1562	82.1311	35.1562	81.9311	35.1562	81.9977	35.1562	81.8044	35.1562	81.8676	35.1562	81.6871	35.1562	81.7451	35.1562	81.583	35.1562	81.6339	35.1562	81.4951	35.1562	81.5375	35.1562	81.4258	35.1562	81.4586	35.1562	81.3769	35.1562	81.3992	35.1562	81.3494	35.1562	81.3607	35.1562	81.344
36.6211	83.0342	36.6211	83.0153	36.6211	83.0301	36.6211	82.974	36.6211	83.0032	36.6211	82.9114	36.6211	82.9542	36.6211	82.8294	36.6211	82.8847	36.6211	82.7304	36.6211	82.7968	36.6211	82.6176	36.6211	82.6934	36.6211	82.4946	36.6211	82.5779	36.6211	82.3656	36.6211	82.4542	36.6211	82.2349	36.6211	82.3264	36.6211	82.1072	36.6211	82.1988	36.6211	81.9865	36.6211	82.0756	36.6211	81.8769	36.6211	81.9605	36.6211	81.7815	36.6211	81.8568	36.6211	81.7029	36.6211	81.7671	36.6211	81.6426	36.6211	81.6932	36.6211	81.6018	36.6211	81.6368	36.6211	81.581	36.6211	81.5988	36.6211	81.5801
38.0859	83.2414	38.0859	83.2195	38.0859	83.2394	38.0859	83.1744	38.0859	83.2136	38.0859	83.1073	38.0859	83.1648	38.0859	83.0205	38.0859	83.0945	38.0859	82.9166	38.0859	83.0052	38.0859	82.7993	38.0859	82.8999	38.0859	82.6725	38.0859	82.7821	38.0859	82.5406	38.0859	82.6561	38.0859	82.4083	38.0859	82.5261	38.0859	82.2801	38.0859	82.3966	38.0859	82.1603	38.0859	82.2716	38.0859	82.0525	38.0859	82.1551	38.0859	81.9598	38.0859	82.0504	38.0859	81.8842	38.0859	81.9599	38.0859	81.8271	38.0859	81.8858	38.0859	81.7891	38.0859	81.8292	38.0859	81.7705	38.0859	81.7908	38.0859	81.7712
39.5508	83.5002	39.5508	83.4845	39.5508	83.4921	39.5508	83.4451	39.5508	83.4605	39.5508	83.3829	39.5508	83.4068	39.5508	83.2998	39.5508	83.3326	39.5508	83.1981	39.5508	83.2406	39.5508	83.0812	39.5508	83.1336	39.5508	82.9531	39.5508	83.0156	39.5508	82.8183	39.5508	82.8905	39.5508	82.682	39.5508	82.7626	39.5508	82.5492	39.5508	82.6363	39.5508	82.4247	39.5508	82.5155	39.5508	82.3127	39.5508	82.4034	39.5508	82.2166	39.5508	82.3028	39.5508	82.1388	39.5508	82.2157	39.5508	82.0809	39.5508	82.1437	39.5508	82.0433	39.5508	82.0878	39.5508	82.0259	39.5508	82.0489	39.5508	82.028
41.0156	83.6638	41.0156	83.6536	41.0156	83.6489	41.0156	83.6185	41.0156	83.6095	41.0156	83.5596	41.0156	83.5468	41.0156	83.4786	41.0156	83.4629	41.0156	83.3781	41.0156	83.3607	41.0156	83.2614	41.0156	83.2437	41.0156	83.1325	41.0156	83.1161	41.0156	82.996	41.0156	82.9825	41.0156	82.8569	41.0156	82.8479	41.0156	82.72	41.0156	82.7169	41.0156	82.5902	41.0156	82.5935	41.0156	82.4716	41.0156	82.4812	41.0156	82.3679	41.0156	82.3823	41.0156	82.2816	41.0156	82.2986	41.0156	82.2147	41.0156	82.2311	41.0156	82.1679	41.0156	82.1809	41.0156	82.1415	41.0156	82.1487	41.0156	82.1353
42.4805	84.0006	42.4805	83.9934	42.4805	83.9826	42.4805	83.9616	42.4805	83.9397	42.4805	83.9063	42.4805	83.8729	42.4805	83.8295	42.4805	83.7842	42.4805	83.7338	42.4805	83.6764	42.4805	83.6225	42.4805	83.5532	42.4805	83.4993	42.4805	83.4191	42.4805	83.3685	42.4805	83.2791	42.4805	83.2347	42.4805	83.1385	42.4805	83.1023	42.4805	83.0026	42.4805	82.9757	42.4805	82.8763	42.4805	82.8585	42.4805	82.7635	42.4805	82.7538	42.4805	82.6674	42.4805	82.6639	42.4805	82.5899	42.4805	82.5905	42.4805	82.532	42.4805	82.5344	42.4805	82.494	42.4805	82.4963	42.4805	82.4757	42.4805	82.4766
43.9453	84.182	43.9453	84.1789	43.9453	84.1591	43.9453	84.1502	43.9453	84.1105	43.9453	84.0969	43.9453	84.0374	43.9453	84.0207	43.9453	83.9416	43.9453	83.9242	43.9453	83.826	43.9453	83.8106	43.9453	83.6942	43.9453	83.6837	43.9453	83.5507	43.9453	83.548	43.9453	83.4009	43.9453	83.408	43.9453	83.2505	43.9453	83.2684	43.9453	83.1052	43.9453	83.1337	43.9453	82.9705	43.9453	83.0078	43.9453	82.8512	43.9453	82.8939	43.9453	82.7506	43.9453	82.7946	43.9453	82.6712	43.9453	82.7118	43.9453	82.6139	43.9453	82.6466	43.9453	82.5787	43.9453	82.6	43.9453	82.5652	43.9453	82.5726
45.4102	84.4935	45.4102	84.4903	45.4102	84.4707	45.4102	84.4617	45.4102	84.4219	45.4102	84.4089	45.4102	84.3482	45.4102	84.3341	45.4102	84.2513	45.4102	84.24	45.4102	84.1341	45.4102	84.1298	45.4102	84.0003	45.4102	84.0073	45.4102	83.8546	45.4102	83.8767	45.4102	83.7025	45.4102	83.7422	45.4102	83.5501	45.4102	83.608	45.4102	83.4034	45.4102	83.4778	45.4102	83.2683	45.4102	83.3552	45.4102	83.1497	45.4102	83.2428	45.4102	83.0514	45.4102	83.1431	45.4102	82.9755	45.4102	83.0577	45.4102	82.9231	45.4102	82.9881	45.4102	82.894	45.4102	82.9356	45.4102	82.8872	45.4102	82.9016
46.875	84.7947	46.875	84.7851	46.875	84.7784	46.875	84.7504	46.875	84.7364	46.875	84.6922	46.875	84.6694	46.875	84.6127	46.875	84.5793	46.875	84.515	46.875	84.4689	46.875	84.4025	46.875	84.3419	46.875	84.2793	46.875	84.2028	46.875	84.1497	46.875	84.0569	46.875	84.018	46.875	83.91	46.875	83.8885	46.875	83.768	46.875	83.7648	46.875	83.6364	46.875	83.65	46.875	83.5201	46.875	83.5467	46.875	83.4225	46.875	83.4568	46.875	83.3458	46.875	83.3814	46.875	83.2909	46.875	83.3217	46.875	83.2577	46.875	83.2785	46.875	83.2454	46.875	83.2527
48.3398	85.0616	48.3398	85.051	48.3398	85.0459	48.3398	85.0147	48.3398	85.0038	48.3398	84.9545	48.3398	84.9366	48.3398	84.8728	48.3398	84.8461	48.3398	84.7727	48.3398	84.7353	48.3398	84.6581	48.3398	84.6082	48.3398	84.5333	48.3398	84.4696	48.3398	84.4029	48.3398	84.3249	48.3398	84.2716	48.3398	84.18	48.3398	84.1437	48.3398	84.0408	48.3398	84.023	48.3398	83.9127	48.3398	83.9126	48.3398	83.8003	48.3398	83.8148	48.3398	83.7068	48.3398	83.7309	48.3398	83.6339	48.3398	83.6618	48.3398	83.5823	48.3398	83.6077	48.3398	83.5512	48.3398	83.5689	48.3398	83.5396	48.3398	83.5459
51.2695	85.582	51.2695	85.5711	51.2695	85.5651	51.2695	85.533	51.2695	85.5206	51.2695	85.4694	51.2695	85.4494	51.2695	85.3826	51.2695	85.3538	51.2695	85.2759	51.2695	85.2369	51.2695	85.1533	51.2695	85.1028	51.2695	85.0192	51.2695	84.9566	51.2695	84.8788	51.2695	84.8041	51.2695	84.737	51.2695	84.6515	51.2695	84.5989	51.2695	84.505	51.2695	84.4689	51.2695	84.3702	51.2695	84.3506	51.2695	84.2518	51.2695	84.2465	51.2695	84.153	51.2695	84.1585	51.2695	84.0756	51.2695	84.0871	51.2695	84.0198	51.2695	84.0325	51.2695	83.9851	51.2695	83.9946	51.2695	83.9701	51.2695	83.9736
52.7344	85.8082	52.7344	85.8009	52.7344	85.7875	52.7344	85.7662	52.7344	85.7391	52.7344	85.7059	52.7344	85.664	52.7344	85.6222	52.7344	85.5645	52.7344	85.5183	52.7344	85.4438	52.7344	85.398	52.7344	85.3062	52.7344	85.2657	52.7344	85.1569	52.7344	85.1262	52.7344	85.0017	52.7344	84.9843	52.7344	84.8469	52.7344	84.845	52.7344	84.6989	52.7344	84.7125	52.7344	84.5633	52.7344	84.5906	52.7344	84.4448	52.7344	84.4821	52.7344	84.3466	52.7344	84.3889	52.7344	84.2706	52.7344	84.312	52.7344	84.2171	52.7344	84.2518	52.7344	84.1854	52.7344	84.2085	52.7344	84.1744	52.7344	84.1824
54.1992	86.0918	54.1992	86.0897	54.1992	86.0652	54.1992	86.0595	54.1992	86.0101	54.1992	86.0029	54.1992	85.9277	54.1992	85.9223	54.1992	85.8204	54.1992	85.8209	54.1992	85.6915	54.1992	85.7025	54.1992	85.5456	54.1992	85.5716	54.1992	85.3881	54.1992	85.4328	54.1992	85.2252	54.1992	85.2909	54.1992	85.0638	54.1992	85.1505	54.1992	84.9106	54.1992	85.0157	54.1992	84.7717	54.1992	84.89	54.1992	84.6522	54.1992	84.7761	54.1992	84.5556	54.1992	84.6758	54.1992	84.4837	54.1992	84.5904	54.1992	84.4365	54.1992	84.5206	54.1992	84.4131	54.1992	84.4668	54.1992	84.4116	54.1992	84.4301
55.6641	86.3691	55.6641	86.3608	55.6641	86.3486	55.6641	86.3249	55.6641	86.2993	55.6641	86.2634	55.6641	86.2223	55.6641	86.1792	55.6641	86.1196	55.6641	86.076	55.6641	85.9948	55.6641	85.9583	55.6641	85.8522	55.6641	85.8307	55.6641	85.6976	55.6641	85.698	55.6641	85.5373	55.6641	85.5649	55.6641	85.3784	55.6641	85.4354	55.6641	85.2278	55.6641	85.3128	55.6641	85.092	55.6641	85.1997	55.6641	84.9761	55.6641	85.0975	55.6641	84.8837	55.6641	85.0073	55.6641	84.8163	55.6641	84.9296	55.6641	84.7738	55.6641	84.8647	55.6641	84.7545	55.6641	84.8133	55.6641	84.7563	55.6641	84.7766
58.5938	86.7836	58.5938	86.7599	58.5938	86.7784	58.5938	86.7086	58.5938	86.7438	58.5938	86.6323	58.5938	86.6809	58.5938	86.5343	58.5938	86.5917	58.5938	86.419	58.5938	86.4792	58.5938	86.2916	58.5938	86.3481	58.5938	86.1576	58.5938	86.2036	58.5938	86.0226	58.5938	86.0521	58.5938	85.8918	58.5938	85.9004	58.5938	85.7698	58.5938	85.7554	58.5938	85.66	58.5938	85.6233	58.5938	85.5643	58.5938	85.5093	58.5938	85.4835	58.5938	85.4167	58.5938	85.4169	58.5938	85.3472	58.5938	85.3635	58.5938	85.3002	58.5938	85.3219	58.5938	85.2739	58.5938	85.2913	58.5938	85.2655	58.5938	85.2721
60.0586	86.9852	60.0586	86.9564	60.0586	86.9852	60.0586	86.9004	60.0586	86.9564	60.0586	86.8196	60.0586	86.8993	60.0586	86.7173	60.0586	86.816	60.0586	86.598	60.0586	86.7095	60.0586	86.4669	60.0586	86.584	60.0586	86.3295	60.0586	86.4447	60.0586	86.1917	60.0586	86.2977	60.0586	86.0591	60.0586	86.1496	60.0586	85.9365	60.0586	86.0069	60.0586	85.8275	60.0586	85.8757	60.0586	85.7343	60.0586	85.7609	60.0586	85.6576	60.0586	85.6657	60.0586	85.5969	60.0586	85.5917	60.0586	85.5507	60.0586	85.5386	60.0586	85.5173	60.0586	85.5049	60.0586	85.4957	60.0586	85.4881	60.0586	85.4856
62.9883	87.3798	62.9883	87.3502	62.9883	87.3793	62.9883	87.2917	62.9883	87.3487	62.9883	87.2069	62.9883	87.2891	62.9883	87.0992	62.9883	87.2027	62.9883	86.9734	62.9883	87.093	62.9883	86.8349	62.9883	86.9646	62.9883	86.6899	62.9883	86.8229	62.9883	86.545	62.9883	86.6742	62.9883	86.4063	62.9883	86.5253	62.9883	86.2792	62.9883	86.3826	62.9883	86.1679	62.9883	86.2521	62.9883	86.0747	62.9883	86.1384	62.9883	86.0004	62.9883	86.0444	62.9883	85.9441	62.9883	85.9713	62.9883	85.9036	62.9883	85.9183	62.9883	85.8768	62.9883	85.8834	62.9883	85.8615	62.9883	85.8638	62.9883	85.8571
64.4531	87.5392	64.4531	87.5062	64.4531	87.5413	64.4531	87.4436	64.4531	87.5123	64.4531	87.3541	64.4531	87.4531	64.4531	87.2416	64.4531	87.3662	64.4531	87.1109	64.4531	87.2551	64.4531	86.968	64.4531	87.1244	64.4531	86.8193	64.4531	86.9801	64.4531	86.6716	64.4531	86.8287	64.4531	86.5312	64.4531	86.6772	64.4531	86.4038	64.4531	86.5324	64.4531	86.2934	64.4531	86.4006	64.4531	86.2024	64.4531	86.2862	64.4531	86.1311	64.4531	86.1923	64.4531	86.0783	64.4531	86.1195	64.4531	86.0415	64.4531	86.0669	64.4531	86.0182	64.4531	86.032	64.4531	86.0059	64.4531	86.0119	64.4531	86.0037
67.3828	87.946	67.3828	87.9045	67.3828	87.9544	67.3828	87.8312	67.3828	87.9294	67.3828	87.7291	67.3828	87.8724	67.3828	87.6025	67.3828	87.7858	67.3828	87.4567	67.3828	87.6734	67.3828	87.2985	67.3828	87.5401	67.3828	87.1354	67.3828	87.3921	67.3828	86.9752	67.3828	87.2361	67.3828	86.8254	67.3828	87.0794	67.3828	86.6923	67.3828	86.9292	67.3828	86.5804	67.3828	86.7917	67.3828	86.4921	67.3828	86.6718	67.3828	86.4272	67.3828	86.5724	67.3828	86.3834	67.3828	86.4942	67.3828	86.3572	67.3828	86.4359	67.3828	86.3449	67.3828	86.3947	67.3828	86.3433	67.3828	86.3672	67.3828	86.3507
68.8477	88.1451	68.8477	88.0985	68.8477	88.1575	68.8477	88.0189	68.8477	88.1358	68.8477	87.9092	68.8477	88.0812	68.8477	87.7739	68.8477	87.9965	68.8477	87.6186	68.8477	87.8856	68.8477	87.4507	68.8477	87.7537	68.8477	87.2783	68.8477	87.6068	68.8477	87.1099	68.8477	87.4518	68.8477	86.9541	68.8477	87.2959	68.8477	86.818	68.8477	87.146	68.8477	86.7066	68.8477	87.0085	68.8477	86.6223	68.8477	86.888	68.8477	86.5647	68.8477	86.7873	68.8477	86.5306	68.8477	86.7069	68.8477	86.5156	68.8477	86.6453	68.8477	86.5148	68.8477	86.5994	68.8477	86.5242	68.8477	86.5657	68.8477	86.5412
