"SPL Horizontal"
"On-Axis"		"10°"		"-10°"		"20°"		"-20°"		"30°"		"-30°"		"40°"		"-40°"		"50°"		"-50°"		"60°"		"-60°"		"70°"		"-70°"		"80°"		"-80°"		"90°"		"-90°"		"100°"		"-100°"		"110°"		"-110°"		"120°"		"-120°"		"130°"		"-130°"		"140°"		"-140°"		"150°"		"-150°"		"160°"		"-160°"		"170°"		"-170°"		"180°"
"Frequency [Hz]"	"Sound Pessure Level [dB]  / [2.83V 1m] "	"Frequency [Hz]"	"Sound Pessure Level [dB]  / [2.83V 1m] "	"Frequency [Hz]"	"Sound Pessure Level [dB]  / [2.83V 1m] "	"Frequency [Hz]"	"Sound Pessure Level [dB]  / [2.83V 1m] "	"Frequency [Hz]"	"Sound Pessure Level [dB]  / [2.83V 1m] "	"Frequency [Hz]"	"Sound Pessure Level [dB]  / [2.83V 1m] "	"Frequency [Hz]"	"Sound Pessure Level [dB]  / [2.83V 1m] "	"Frequency [Hz]"	"Sound Pessure Level [dB]  / [2.83V 1m] "	"Frequency [Hz]"	"Sound Pessure Level [dB]  / [2.83V 1m] "	"Frequency [Hz]"	"Sound Pessure Level [dB]  / [2.83V 1m] "	"Frequency [Hz]"	"Sound Pessure Level [dB]  / [2.83V 1m] "	"Frequency [Hz]"	"Sound Pessure Level [dB]  / [2.83V 1m] "	"Frequency [Hz]"	"Sound Pessure Level [dB]  / [2.83V 1m] "	"Frequency [Hz]"	"Sound Pessure Level [dB]  / [2.83V 1m] "	"Frequency [Hz]"	"Sound Pessure Level [dB]  / [2.83V 1m] "	"Frequency [Hz]"	"Sound Pessure Level [dB]  / [2.83V 1m] "	"Frequency [Hz]"	"Sound Pessure Level [dB]  / [2.83V 1m] "	"Frequency [Hz]"	"Sound Pessure Level [dB]  / [2.83V 1m] "	"Frequency [Hz]"	"Sound Pessure Level [dB]  / [2.83V 1m] "	"Frequency [Hz]"	"Sound Pessure Level [dB]  / [2.83V 1m] "	"Frequency [Hz]"	"Sound Pessure Level [dB]  / [2.83V 1m] "	"Frequency [Hz]"	"Sound Pessure Level [dB]  / [2.83V 1m] "	"Frequency [Hz]"	"Sound Pessure Level [dB]  / [2.83V 1m] "	"Frequency [Hz]"	"Sound Pessure Level [dB]  / [2.83V 1m] "	"Frequency [Hz]"	"Sound Pessure Level [dB]  / [2.83V 1m] "	"Frequency [Hz]"	"Sound Pessure Level [dB]  / [2.83V 1m] "	"Frequency [Hz]"	"Sound Pessure Level [dB]  / [2.83V 1m] "	"Frequency [Hz]"	"Sound Pessure Level [dB]  / [2.83V 1m] "	"Frequency [Hz]"	"Sound Pessure Level [dB]  / [2.83V 1m] "	"Frequency [Hz]"	"Sound Pessure Level [dB]  / [2.83V 1m] "	"Frequency [Hz]"	"Sound Pessure Level [dB]  / [2.83V 1m] "	"Frequency [Hz]"	"Sound Pessure Level [dB]  / [2.83V 1m] "	"Frequency [Hz]"	"Sound Pessure Level [dB]  / [2.83V 1m] "	"Frequency [Hz]"	"Sound Pessure Level [dB]  / [2.83V 1m] "	"Frequency [Hz]"	"Sound Pessure Level [dB]  / [2.83V 1m] "	"Frequency [Hz]"	"Sound Pessure Level [dB]  / [2.83V 1m] "
20.5078	41.156	20.5078	41.153	20.5078	41.4483	20.5078	41.4461	20.5078	42.0086	20.5078	42.02	20.5078	42.8011	20.5078	42.8299	20.5078	43.7731	20.5078	43.8088	20.5078	44.8598	20.5078	44.8836	20.5078	45.9961	20.5078	45.9908	20.5078	47.1264	20.5078	47.083	20.5078	48.2098	20.5078	48.1282	20.5078	49.2185	20.5078	49.1054	20.5078	50.1352	20.5078	50.0014	20.5078	50.9493	20.5078	50.8068	20.5078	51.654	20.5078	51.5145	20.5078	52.245	20.5078	52.1185	20.5078	52.7187	20.5078	52.6132	20.5078	53.0725	20.5078	52.9936	20.5078	53.3041	20.5078	53.2554	20.5078	53.412	20.5078	53.3955
21.9727	49.5484	21.9727	49.5418	21.9727	49.5816	21.9727	49.5614	21.9727	49.65	21.9727	49.6163	21.9727	49.7695	21.9727	49.7234	21.9727	49.9592	21.9727	49.9054	21.9727	50.2372	21.9727	50.1846	21.9727	50.6149	21.9727	50.5756	21.9727	51.0921	21.9727	51.0786	21.9727	51.6555	21.9727	51.6767	21.9727	52.2804	21.9727	52.3392	21.9727	52.9358	21.9727	53.0279	21.9727	53.5885	21.9727	53.7047	21.9727	54.2076	21.9727	54.3356	21.9727	54.7665	21.9727	54.893	21.9727	55.2434	21.9727	55.356	21.9727	55.621	21.9727	55.7093	21.9727	55.8867	21.9727	55.9429	21.9727	56.0317	21.9727	56.051
23.4375	49.1036	23.4375	49.0508	23.4375	49.0137	23.4375	48.857	23.4375	48.7831	23.4375	48.5279	23.4375	48.4177	23.4375	48.0763	23.4375	47.9306	23.4375	47.527	23.4375	47.347	23.4375	46.9253	23.4375	46.7125	23.4375	46.3467	23.4375	46.1031	23.4375	45.898	23.4375	45.627	23.4375	45.6935	23.4375	45.4015	23.4375	45.7997	23.4375	45.4969	23.4375	46.1904	23.4375	45.8901	23.4375	46.7634	23.4375	46.479	23.4375	47.3985	23.4375	47.142	23.4375	47.9991	23.4375	47.7807	23.4375	48.5021	23.4375	48.3303	23.4375	48.8707	23.4375	48.7523	23.4375	49.0855	23.4375	49.0251	23.4375	49.1376
24.9023	46.748	24.9023	46.7456	24.9023	46.6759	24.9023	46.679	24.9023	46.5446	24.9023	46.5835	24.9023	46.3968	24.9023	46.5205	24.9023	46.3047	24.9023	46.5703	24.9023	46.3612	24.9023	46.811	24.9023	46.6505	24.9023	47.2841	24.9023	47.2061	24.9023	47.9724	24.9023	47.9897	24.9023	48.8099	24.9023	48.9142	24.9023	49.7146	24.9023	49.8854	24.9023	50.6151	24.9023	50.8282	24.9023	51.4596	24.9023	51.6918	24.9023	52.2148	24.9023	52.4449	24.9023	52.8594	24.9023	53.0688	24.9023	53.3802	24.9023	53.5529	24.9023	53.7683	24.9023	53.8912	24.9023	54.0173	24.9023	54.0812	24.9023	54.1227
26.3672	53.1391	26.3672	53.128	26.3672	53.1	26.3672	53.0698	26.3672	53.0134	26.3672	52.9733	26.3672	52.8882	26.3672	52.8533	26.3672	52.7399	26.3672	52.7312	26.3672	52.5915	26.3672	52.6338	26.3672	52.4732	26.3672	52.5913	26.3672	52.4197	26.3672	52.6319	26.3672	52.464	26.3672	52.7748	26.3672	52.6281	26.3672	53.0234	26.3672	52.9138	26.3672	53.3627	26.3672	53.2998	26.3672	53.7625	26.3672	53.7468	26.3672	54.1849	26.3672	54.2082	26.3672	54.5916	26.3672	54.6394	26.3672	54.9486	26.3672	55.004	26.3672	55.2285	26.3672	55.2758	26.3672	55.4113	26.3672	55.4382	26.3672	55.4834
27.832	53.0326	27.832	53.0089	27.832	52.9831	27.832	52.9131	27.832	52.8629	27.832	52.7505	27.832	52.6786	27.832	52.5318	27.832	52.4432	27.832	52.2766	27.832	52.1791	27.832	52.0156	27.832	51.9203	27.832	51.7915	27.832	51.713	27.832	51.6544	27.832	51.6079	27.832	51.6481	27.832	51.6458	27.832	51.7941	27.832	51.8397	27.832	52.0802	27.832	52.1671	27.832	52.4649	27.832	52.5789	27.832	52.8936	27.832	53.0175	27.832	53.3134	27.832	53.4312	27.832	53.6822	27.832	53.7809	27.832	53.9699	27.832	54.0405	27.832	54.1573	27.832	54.194	27.832	54.2335
29.2969	55.8555	29.2969	55.8421	29.2969	55.8301	29.2969	55.7934	29.2969	55.7684	29.2969	55.7188	29.2969	55.6787	29.2969	55.6334	29.2969	55.5754	29.2969	55.5578	29.2969	55.4782	29.2969	55.5164	29.2969	55.411	29.2969	55.5337	29.2969	55.3987	29.2969	55.6293	29.2969	55.4627	29.2969	55.8119	29.2969	55.6149	29.2969	56.0759	29.2969	55.8543	29.2969	56.4021	29.2969	56.1659	29.2969	56.7619	29.2969	56.5244	29.2969	57.123	29.2969	56.8986	29.2969	57.455	29.2969	57.2574	29.2969	57.732	29.2969	57.5732	29.2969	57.9345	29.2969	57.8235	29.2969	58.0492	29.2969	57.9921	29.2969	58.0688
30.7617	59.1598	30.7617	59.1591	30.7617	59.1264	30.7617	59.1258	30.7617	59.0604	30.7617	59.0645	30.7617	58.9658	30.7617	58.9827	30.7617	58.8501	30.7617	58.8912	30.7617	58.7238	30.7617	58.8043	30.7617	58.6015	30.7617	58.7385	30.7617	58.5005	30.7617	58.7107	30.7617	58.4399	30.7617	58.7346	30.7617	58.4372	30.7617	58.8177	30.7617	58.5041	30.7617	58.9578	30.7617	58.6421	30.7617	59.1427	30.7617	58.8411	30.7617	59.3523	30.7617	59.0802	30.7617	59.5624	30.7617	59.3324	30.7617	59.7484	30.7617	59.5697	30.7617	59.8888	30.7617	59.7672	30.7617	59.9674	30.7617	59.9059	30.7617	59.9741
32.2266	59.6441	32.2266	59.6408	32.2266	59.6093	32.2266	59.6002	32.2266	59.5377	32.2266	59.5259	32.2266	59.4333	32.2266	59.4243	32.2266	59.303	32.2266	59.3051	32.2266	59.1571	32.2266	59.1812	32.2266	59.0093	32.2266	59.068	32.2266	58.8765	32.2266	58.9819	32.2266	58.777	32.2266	58.9375	32.2266	58.7272	32.2266	58.9443	32.2266	58.7382	32.2266	59.0043	32.2266	58.8118	32.2266	59.1104	32.2266	58.9396	32.2266	59.2478	32.2266	59.1041	32.2266	59.3968	32.2266	59.2829	32.2266	59.5366	32.2266	59.4528	32.2266	59.648	32.2266	59.5933	32.2266	59.7161	32.2266	59.6892	32.2266	59.731
33.6914	60.4342	33.6914	60.4088	33.6914	60.4195	33.6914	60.3447	33.6914	60.3656	33.6914	60.247	33.6914	60.2771	33.6914	60.1233	33.6914	60.1614	33.6914	59.9846	33.6914	60.0291	33.6914	59.8443	33.6914	59.8934	33.6914	59.718	33.6914	59.7696	33.6914	59.6218	33.6914	59.6732	33.6914	59.5696	33.6914	59.6179	33.6914	59.5704	33.6914	59.6127	33.6914	59.6259	33.6914	59.66	33.6914	59.729	33.6914	59.7539	33.6914	59.865	33.6914	59.8812	33.6914	60.0145	33.6914	60.0235	33.6914	60.1567	33.6914	60.1607	33.6914	60.2729	33.6914	60.2742	33.6914	60.3486	33.6914	60.3487	33.6914	60.3747
35.1562	62.4289	35.1562	62.4206	35.1562	62.409	35.1562	62.3851	35.1562	62.3619	35.1562	62.3254	35.1562	62.2902	35.1562	62.2463	35.1562	62.1989	35.1562	62.1554	35.1562	62.0952	35.1562	62.0624	35.1562	61.9888	35.1562	61.979	35.1562	61.8914	35.1562	61.918	35.1562	61.816	35.1562	61.8908	35.1562	61.7751	35.1562	61.9054	35.1562	61.7779	35.1562	61.9633	35.1562	61.8278	35.1562	62.0589	35.1562	61.9213	35.1562	62.1798	35.1562	62.0475	35.1562	62.3092	35.1562	62.1903	35.1562	62.4287	35.1562	62.3312	35.1562	62.5216	35.1562	62.4524	35.1562	62.5751	35.1562	62.5391	35.1562	62.5815
36.6211	64.1241	36.6211	64.114	36.6211	64.1095	36.6211	64.0802	36.6211	64.0709	36.6211	64.026	36.6211	64.0111	36.6211	63.9565	36.6211	63.935	36.6211	63.8791	36.6211	63.8496	36.6211	63.8027	36.6211	63.7634	36.6211	63.7376	36.6211	63.6865	36.6211	63.6939	36.6211	63.6293	36.6211	63.6799	36.6211	63.601	36.6211	63.7006	36.6211	63.6078	36.6211	63.7558	36.6211	63.6516	36.6211	63.8399	36.6211	63.729	36.6211	63.9425	36.6211	63.8317	36.6211	64.0499	36.6211	63.9472	36.6211	64.1477	36.6211	64.0615	36.6211	64.2227	36.6211	64.1604	36.6211	64.2648	36.6211	64.2322	36.6211	64.2683
38.0859	65.3419	38.0859	65.3374	38.0859	65.3234	38.0859	65.3107	38.0859	65.2826	38.0859	65.265	38.0859	65.2226	38.0859	65.2053	38.0859	65.1483	38.0859	65.1381	38.0859	65.0662	38.0859	65.0713	38.0859	64.9842	38.0859	65.0134	38.0859	64.9109	38.0859	64.9726	38.0859	64.8551	38.0859	64.9559	38.0859	64.8244	38.0859	64.9675	38.0859	64.8245	38.0859	65.008	38.0859	64.8577	38.0859	65.0735	38.0859	64.9222	38.0859	65.1561	38.0859	65.0114	38.0859	65.2445	38.0859	65.1151	38.0859	65.326	38.0859	65.2203	38.0859	65.3885	38.0859	65.3137	38.0859	65.422	38.0859	65.3832	38.0859	65.4206
39.5508	66.0951	39.5508	66.088	39.5508	66.0807	39.5508	66.06	39.5508	66.0453	39.5508	66.0133	39.5508	65.9908	39.5508	65.9511	39.5508	65.9205	39.5508	65.8784	39.5508	65.839	39.5508	65.8014	39.5508	65.7524	39.5508	65.7274	39.5508	65.6683	39.5508	65.6645	39.5508	65.5949	39.5508	65.6201	39.5508	65.5407	39.5508	65.6001	39.5508	65.5129	39.5508	65.6074	39.5508	65.5154	39.5508	65.6407	39.5508	65.5485	39.5508	65.6944	39.5508	65.6073	39.5508	65.7594	39.5508	65.6826	39.5508	65.8241	39.5508	65.7623	39.5508	65.8771	39.5508	65.834	39.5508	65.9087	39.5508	65.8865	39.5508	65.9124
41.0156	66.4799	41.0156	66.4639	41.0156	66.4715	41.0156	66.4241	41.0156	66.4391	41.0156	66.3623	41.0156	66.3846	41.0156	66.2817	41.0156	66.3109	41.0156	66.1868	41.0156	66.2225	41.0156	66.0836	41.0156	66.1254	41.0156	65.9794	41.0156	66.0269	41.0156	65.8821	41.0156	65.935	41.0156	65.7998	41.0156	65.8576	41.0156	65.7388	41.0156	65.8009	41.0156	65.7033	41.0156	65.7684	41.0156	65.6938	41.0156	65.7601	41.0156	65.7074	41.0156	65.7719	41.0156	65.7378	41.0156	65.7968	41.0156	65.7769	41.0156	65.8263	41.0156	65.8159	41.0156	65.8515	41.0156	65.847	41.0156	65.8657	41.0156	65.8644
42.4805	67.565	42.4805	67.5485	42.4805	67.5587	42.4805	67.5098	42.4805	67.5303	42.4805	67.4509	42.4805	67.4816	42.4805	67.3751	42.4805	67.4156	42.4805	67.2865	42.4805	67.3367	42.4805	67.1907	42.4805	67.2499	42.4805	67.0938	42.4805	67.161	42.4805	67.0021	42.4805	67.0759	42.4805	66.9218	42.4805	66.9997	42.4805	66.8577	42.4805	66.9368	42.4805	66.8127	42.4805	66.8897	42.4805	66.7876	42.4805	66.859	42.4805	66.7804	42.4805	66.8431	42.4805	66.787	42.4805	66.8388	42.4805	66.8021	42.4805	66.8415	42.4805	66.8199	42.4805	66.8462	42.4805	66.8354	42.4805	66.8485	42.4805	66.8453
43.9453	69.0836	43.9453	69.0742	43.9453	69.0768	43.9453	69.0494	43.9453	69.0543	43.9453	69.0106	43.9453	69.0172	43.9453	68.9602	43.9453	68.9677	43.9453	68.9013	43.9453	68.9086	43.9453	68.838	43.9453	68.8438	43.9453	68.7747	43.9453	68.7777	43.9453	68.7164	43.9453	68.7152	43.9453	68.6679	43.9453	68.6612	43.9453	68.6331	43.9453	68.62	43.9453	68.6144	43.9453	68.5947	43.9453	68.6119	43.9453	68.5865	43.9453	68.6235	43.9453	68.5942	43.9453	68.6445	43.9453	68.6144	43.9453	68.6689	43.9453	68.6416	43.9453	68.6901	43.9453	68.6693	43.9453	68.7028	43.9453	68.6915	43.9453	68.7034
45.4102	70.2969	45.4102	70.293	45.4102	70.2898	45.4102	70.2783	45.4102	70.2719	45.4102	70.2542	45.4102	70.2443	45.4102	70.2226	45.4102	70.2089	45.4102	70.1862	45.4102	70.1683	45.4102	70.1485	45.4102	70.126	45.4102	70.1135	45.4102	70.0859	45.4102	70.0853	45.4102	70.0523	45.4102	70.068	45.4102	70.0292	45.4102	70.0646	45.4102	70.0199	45.4102	70.0765	45.4102	70.0266	45.4102	70.1028	45.4102	70.0492	45.4102	70.14	45.4102	70.0855	45.4102	70.1826	45.4102	70.1309	45.4102	70.2236	45.4102	70.1792	45.4102	70.2561	45.4102	70.2235	45.4102	70.2743	45.4102	70.257	45.4102	70.2748
46.875	70.7819	46.875	70.7783	46.875	70.7747	46.875	70.7643	46.875	70.7568	46.875	70.7411	46.875	70.7291	46.875	70.7107	46.875	70.6934	46.875	70.6758	46.875	70.652	46.875	70.64	46.875	70.6084	46.875	70.607	46.875	70.5663	46.875	70.5811	46.875	70.5302	46.875	70.5657	46.875	70.5042	46.875	70.5635	46.875	70.492	46.875	70.5752	46.875	70.4956	46.875	70.5994	46.875	70.5153	46.875	70.6327	46.875	70.549	46.875	70.6699	46.875	70.5924	46.875	70.7046	46.875	70.6396	46.875	70.7308	46.875	70.6839	46.875	70.7435	46.875	70.7188	46.875	70.7395
48.3398	71.0352	48.3398	71.0344	48.3398	71.024	48.3398	71.0218	48.3398	71.0011	48.3398	70.9981	48.3398	70.9673	48.3398	70.9647	48.3398	70.9242	48.3398	70.9237	48.3398	70.8737	48.3398	70.8778	48.3398	70.8185	48.3398	70.8303	48.3398	70.7621	48.3398	70.7844	48.3398	70.7081	48.3398	70.7436	48.3398	70.6606	48.3398	70.7108	48.3398	70.623	48.3398	70.6877	48.3398	70.5981	48.3398	70.6748	48.3398	70.5871	48.3398	70.6712	48.3398	70.5895	48.3398	70.6742	48.3398	70.6029	48.3398	70.6804	48.3398	70.6231	48.3398	70.6855	48.3398	70.6455	48.3398	70.686	48.3398	70.6655	48.3398	70.6795
51.2695	72.4948	51.2695	72.488	51.2695	72.4859	51.2695	72.4655	51.2695	72.4614	51.2695	72.4279	51.2695	72.4223	51.2695	72.3764	51.2695	72.3698	51.2695	72.3125	51.2695	72.3058	51.2695	72.2386	51.2695	72.2325	51.2695	72.1574	51.2695	72.1528	51.2695	72.0721	51.2695	72.0699	51.2695	71.9863	51.2695	71.9874	51.2695	71.9036	51.2695	71.9084	51.2695	71.827	51.2695	71.8357	51.2695	71.7593	51.2695	71.7714	51.2695	71.7021	51.2695	71.7166	51.2695	71.6566	51.2695	71.6717	51.2695	71.6227	51.2695	71.6366	51.2695	71.6003	51.2695	71.6108	51.2695	71.5885	51.2695	71.5942	51.2695	71.5867
52.7344	73.4758	52.7344	73.4716	52.7344	73.4693	52.7344	73.457	52.7344	73.4525	52.7344	73.4327	52.7344	73.4258	52.7344	73.3996	52.7344	73.3902	52.7344	73.359	52.7344	73.3471	52.7344	73.3128	52.7344	73.2985	52.7344	73.263	52.7344	73.2467	52.7344	73.2121	52.7344	73.1942	52.7344	73.1625	52.7344	73.1437	52.7344	73.1165	52.7344	73.0975	52.7344	73.076	52.7344	73.0575	52.7344	73.0422	52.7344	73.025	52.7344	73.0159	52.7344	73.0004	52.7344	72.9965	52.7344	72.9834	52.7344	72.9833	52.7344	72.9729	52.7344	72.9748	52.7344	72.9676	52.7344	72.9696	52.7344	72.9659	52.7344	72.9668
54.1992	74.2323	54.1992	74.2334	54.1992	74.226	54.1992	74.2292	54.1992	74.2146	54.1992	74.2201	54.1992	74.1987	54.1992	74.2067	54.1992	74.179	54.1992	74.1897	54.1992	74.1567	54.1992	74.1702	54.1992	74.133	54.1992	74.1497	54.1992	74.1096	54.1992	74.1296	54.1992	74.0881	54.1992	74.1118	54.1992	74.0702	54.1992	74.0978	54.1992	74.0575	54.1992	74.089	54.1992	74.0511	54.1992	74.0861	54.1992	74.0515	54.1992	74.0887	54.1992	74.0583	54.1992	74.0957	54.1992	74.0701	54.1992	74.1046	54.1992	74.0845	54.1992	74.1127	54.1992	74.0989	54.1992	74.1174	54.1992	74.1104	54.1992	74.1168
55.6641	74.6563	55.6641	74.6574	55.6641	74.6524	55.6641	74.6558	55.6641	74.6457	55.6641	74.6518	55.6641	74.6367	55.6641	74.6459	55.6641	74.6258	55.6641	74.6386	55.6641	74.6137	55.6641	74.6309	55.6641	74.6014	55.6641	74.6237	55.6641	74.59	55.6641	74.6185	55.6641	74.5808	55.6641	74.6165	55.6641	74.5754	55.6641	74.6191	55.6641	74.5753	55.6641	74.6269	55.6641	74.5815	55.6641	74.6401	55.6641	74.5946	55.6641	74.6576	55.6641	74.6139	55.6641	74.6773	55.6641	74.6379	55.6641	74.6962	55.6641	74.6637	55.6641	74.711	55.6641	74.6878	55.6641	74.7186	55.6641	74.7065	55.6641	74.7173
58.5938	74.8304	58.5938	74.8314	58.5938	74.8244	58.5938	74.8273	58.5938	74.8136	58.5938	74.8182	58.5938	74.7981	58.5938	74.8043	58.5938	74.7784	58.5938	74.7861	58.5938	74.7548	58.5938	74.7644	58.5938	74.7281	58.5938	74.7404	58.5938	74.6996	58.5938	74.7154	58.5938	74.6706	58.5938	74.691	58.5938	74.643	58.5938	74.6686	58.5938	74.6185	58.5938	74.6494	58.5938	74.5988	58.5938	74.6341	58.5938	74.5849	58.5938	74.6229	58.5938	74.5773	58.5938	74.6152	58.5938	74.5755	58.5938	74.6101	58.5938	74.5783	58.5938	74.6061	58.5938	74.5839	58.5938	74.6019	58.5938	74.5906	58.5938	74.5968
60.0586	75.2671	60.0586	75.2658	60.0586	75.2612	60.0586	75.2569	60.0586	75.2481	60.0586	75.2406	60.0586	75.228	60.0586	75.2167	60.0586	75.2012	60.0586	75.1855	60.0586	75.1679	60.0586	75.1476	60.0586	75.1288	60.0586	75.1036	60.0586	75.0845	60.0586	75.0548	60.0586	75.0362	60.0586	75.0027	60.0586	74.9854	60.0586	74.9491	60.0586	74.9337	60.0586	74.896	60.0586	74.883	60.0586	74.8456	60.0586	74.8354	60.0586	74.7998	60.0586	74.7925	60.0586	74.7604	60.0586	74.7557	60.0586	74.7287	60.0586	74.7262	60.0586	74.7057	60.0586	74.7046	60.0586	74.6918	60.0586	74.6914	60.0586	74.6871
62.9883	76.6191	62.9883	76.6165	62.9883	76.6148	62.9883	76.6071	62.9883	76.6037	62.9883	76.5904	62.9883	76.5859	62.9883	76.5661	62.9883	76.5612	62.9883	76.5341	62.9883	76.5297	62.9883	76.4941	62.9883	76.4914	62.9883	76.4465	62.9883	76.4467	62.9883	76.3916	62.9883	76.3962	62.9883	76.3307	62.9883	76.3408	62.9883	76.2653	62.9883	76.2818	62.9883	76.1979	62.9883	76.2207	62.9883	76.1312	62.9883	76.1594	62.9883	76.0684	62.9883	76.0999	62.9883	76.0129	62.9883	76.0447	62.9883	75.9678	62.9883	75.9963	62.9883	75.9358	62.9883	75.9573	62.9883	75.9185	62.9883	75.9301	62.9883	75.9168
64.4531	76.8857	64.4531	76.8847	64.4531	76.8848	64.4531	76.8815	64.4531	76.882	64.4531	76.8757	64.4531	76.8773	64.4531	76.8669	64.4531	76.8705	64.4531	76.8545	64.4531	76.8615	64.4531	76.8384	64.4531	76.85	64.4531	76.8182	64.4531	76.8359	64.4531	76.7943	64.4531	76.819	64.4531	76.7673	64.4531	76.7994	64.4531	76.7382	64.4531	76.7775	64.4531	76.7085	64.4531	76.7538	64.4531	76.6799	64.4531	76.729	64.4531	76.6542	64.4531	76.7039	64.4531	76.6331	64.4531	76.6796	64.4531	76.6179	64.4531	76.6572	64.4531	76.6092	64.4531	76.6378	64.4531	76.6073	64.4531	76.6224	64.4531	76.6119
67.3828	76.8904	67.3828	76.8871	67.3828	76.8959	67.3828	76.886	67.3828	76.9032	67.3828	76.8869	67.3828	76.9121	67.3828	76.8896	67.3828	76.9217	67.3828	76.8937	67.3828	76.9315	67.3828	76.8985	67.3828	76.9409	67.3828	76.9039	67.3828	76.9493	67.3828	76.9094	67.3828	76.9565	67.3828	76.915	67.3828	76.9622	67.3828	76.9209	67.3828	76.9665	67.3828	76.9272	67.3828	76.9697	67.3828	76.9342	67.3828	76.9722	67.3828	76.942	67.3828	76.9744	67.3828	76.9502	67.3828	76.9764	67.3828	76.9585	67.3828	76.9781	67.3828	76.9661	67.3828	76.9791	67.3828	76.9723	67.3828	76.9788	67.3828	76.9766
68.8477	76.7948	68.8477	76.7867	68.8477	76.8027	68.8477	76.7787	68.8477	76.81	68.8477	76.7707	68.8477	76.8158	68.8477	76.7626	68.8477	76.8195	68.8477	76.7543	68.8477	76.8203	68.8477	76.7455	68.8477	76.8175	68.8477	76.7363	68.8477	76.8109	68.8477	76.7268	68.8477	76.8003	68.8477	76.7173	68.8477	76.7863	68.8477	76.7081	68.8477	76.7696	68.8477	76.6995	68.8477	76.7514	68.8477	76.6919	68.8477	76.733	68.8477	76.6853	68.8477	76.7157	68.8477	76.68	68.8477	76.7006	68.8477	76.6758	68.8477	76.6887	68.8477	76.673	68.8477	76.68	68.8477	76.6717	68.8477	76.6747	68.8477	76.672
