"SPL Vertical"
"On-Axis"		"10°"		"-10°"		"20°"		"-20°"		"30°"		"-30°"		"40°"		"-40°"		"50°"		"-50°"		"60°"		"-60°"		"70°"		"-70°"		"80°"		"-80°"		"90°"		"-90°"		"100°"		"-100°"		"110°"		"-110°"		"120°"		"-120°"		"130°"		"-130°"		"140°"		"-140°"		"150°"		"-150°"		"160°"		"-160°"		"170°"		"-170°"		"180°"
"Frequency [Hz]"	"Sound Pessure Level [dB]  / [2.83V 1m] "	"Frequency [Hz]"	"Sound Pessure Level [dB]  / [2.83V 1m] "	"Frequency [Hz]"	"Sound Pessure Level [dB]  / [2.83V 1m] "	"Frequency [Hz]"	"Sound Pessure Level [dB]  / [2.83V 1m] "	"Frequency [Hz]"	"Sound Pessure Level [dB]  / [2.83V 1m] "	"Frequency [Hz]"	"Sound Pessure Level [dB]  / [2.83V 1m] "	"Frequency [Hz]"	"Sound Pessure Level [dB]  / [2.83V 1m] "	"Frequency [Hz]"	"Sound Pessure Level [dB]  / [2.83V 1m] "	"Frequency [Hz]"	"Sound Pessure Level [dB]  / [2.83V 1m] "	"Frequency [Hz]"	"Sound Pessure Level [dB]  / [2.83V 1m] "	"Frequency [Hz]"	"Sound Pessure Level [dB]  / [2.83V 1m] "	"Frequency [Hz]"	"Sound Pessure Level [dB]  / [2.83V 1m] "	"Frequency [Hz]"	"Sound Pessure Level [dB]  / [2.83V 1m] "	"Frequency [Hz]"	"Sound Pessure Level [dB]  / [2.83V 1m] "	"Frequency [Hz]"	"Sound Pessure Level [dB]  / [2.83V 1m] "	"Frequency [Hz]"	"Sound Pessure Level [dB]  / [2.83V 1m] "	"Frequency [Hz]"	"Sound Pessure Level [dB]  / [2.83V 1m] "	"Frequency [Hz]"	"Sound Pessure Level [dB]  / [2.83V 1m] "	"Frequency [Hz]"	"Sound Pessure Level [dB]  / [2.83V 1m] "	"Frequency [Hz]"	"Sound Pessure Level [dB]  / [2.83V 1m] "	"Frequency [Hz]"	"Sound Pessure Level [dB]  / [2.83V 1m] "	"Frequency [Hz]"	"Sound Pessure Level [dB]  / [2.83V 1m] "	"Frequency [Hz]"	"Sound Pessure Level [dB]  / [2.83V 1m] "	"Frequency [Hz]"	"Sound Pessure Level [dB]  / [2.83V 1m] "	"Frequency [Hz]"	"Sound Pessure Level [dB]  / [2.83V 1m] "	"Frequency [Hz]"	"Sound Pessure Level [dB]  / [2.83V 1m] "	"Frequency [Hz]"	"Sound Pessure Level [dB]  / [2.83V 1m] "	"Frequency [Hz]"	"Sound Pessure Level [dB]  / [2.83V 1m] "	"Frequency [Hz]"	"Sound Pessure Level [dB]  / [2.83V 1m] "	"Frequency [Hz]"	"Sound Pessure Level [dB]  / [2.83V 1m] "	"Frequency [Hz]"	"Sound Pessure Level [dB]  / [2.83V 1m] "	"Frequency [Hz]"	"Sound Pessure Level [dB]  / [2.83V 1m] "	"Frequency [Hz]"	"Sound Pessure Level [dB]  / [2.83V 1m] "	"Frequency [Hz]"	"Sound Pessure Level [dB]  / [2.83V 1m] "	"Frequency [Hz]"	"Sound Pessure Level [dB]  / [2.83V 1m] "	"Frequency [Hz]"	"Sound Pessure Level [dB]  / [2.83V 1m] "
20.5078	41.156	20.5078	41.7258	20.5078	40.8824	20.5078	42.539	20.5078	40.9269	20.5078	43.5201	20.5078	41.2864	20.5078	44.5907	20.5078	41.9391	20.5078	45.6851	20.5078	42.8426	20.5078	46.7566	20.5078	43.9332	20.5078	47.7759	20.5078	45.1346	20.5078	48.7261	20.5078	46.373	20.5078	49.5982	20.5078	47.5876	20.5078	50.3877	20.5078	48.7332	20.5078	51.0921	20.5078	49.7792	20.5078	51.7096	20.5078	50.7056	20.5078	52.2379	20.5078	51.5	20.5078	52.6742	20.5078	52.156	20.5078	53.014	20.5078	52.6712	20.5078	53.252	20.5078	53.0467	20.5078	53.3816	20.5078	53.2862	20.5078	53.3955
21.9727	49.5484	21.9727	49.5561	21.9727	49.5824	21.9727	49.6265	21.9727	49.6419	21.9727	49.7803	21.9727	49.7195	21.9727	50.0331	21.9727	49.8192	21.9727	50.3901	21.9727	49.9581	21.9727	50.8448	21.9727	50.1641	21.9727	51.3799	21.9727	50.4691	21.9727	51.9714	21.9727	50.897	21.9727	52.5924	21.9727	51.4503	21.9727	53.217	21.9727	52.1056	21.9727	53.8216	21.9727	52.819	21.9727	54.3855	21.9727	53.539	21.9727	54.891	21.9727	54.2181	21.9727	55.3224	21.9727	54.8186	21.9727	55.6657	21.9727	55.3142	21.9727	55.9085	21.9727	55.6889	21.9727	56.04	21.9727	55.9351	21.9727	56.051
23.4375	49.1036	23.4375	48.6958	23.4375	49.3788	23.4375	48.1677	23.4375	49.5139	23.4375	47.5399	23.4375	49.504	23.4375	46.8486	23.4375	49.3466	23.4375	46.1549	23.4375	49.0432	23.4375	45.5527	23.4375	48.6028	23.4375	45.1595	23.4375	48.0498	23.4375	45.0753	23.4375	47.4353	23.4375	45.3238	23.4375	46.8504	23.4375	45.8352	23.4375	46.4254	23.4375	46.4909	23.4375	46.2872	23.4375	47.1792	23.4375	46.4818	23.4375	47.8203	23.4375	46.9374	23.4375	48.3644	23.4375	47.517	23.4375	48.7823	23.4375	48.0935	23.4375	49.0567	23.4375	48.5822	23.4375	49.1771	23.4375	48.9371	23.4375	49.1376
24.9023	46.748	24.9023	46.4937	24.9023	46.9707	24.9023	46.2808	24.9023	47.1159	24.9023	46.2031	24.9023	47.1636	24.9023	46.3502	24.9023	47.1189	24.9023	46.767	24.9023	47.0161	24.9023	47.4301	24.9023	46.9256	24.9023	48.2635	24.9023	46.9537	24.9023	49.1777	24.9023	47.2139	24.9023	50.0985	24.9023	47.7681	24.9023	50.9746	24.9023	48.5823	24.9023	51.7738	24.9023	49.5489	24.9023	52.4763	24.9023	50.5485	24.9023	53.0694	24.9023	51.4898	24.9023	53.5442	24.9023	52.3174	24.9023	53.8935	24.9023	53.0025	24.9023	54.1107	24.9023	53.5328	24.9023	54.1891	24.9023	53.9054	24.9023	54.1227
26.3672	53.1391	26.3672	52.9228	26.3672	53.314	26.3672	52.6856	26.3672	53.4334	26.3672	52.4542	26.3672	53.4892	26.3672	52.261	26.3672	53.4791	26.3672	52.141	26.3672	53.4084	26.3672	52.1257	26.3672	53.2914	26.3672	52.2353	26.3672	53.1535	26.3672	52.472	26.3672	53.0319	26.3672	52.8184	26.3672	52.9726	26.3672	53.2425	26.3672	53.0186	26.3672	53.7056	26.3672	53.1951	26.3672	54.1692	26.3672	53.4961	26.3672	54.5995	26.3672	53.8857	26.3672	54.9688	26.3672	54.3116	26.3672	55.2554	26.3672	54.7208	26.3672	55.4431	26.3672	55.0704	26.3672	55.521	26.3672	55.3305	26.3672	55.4834
27.832	53.0326	27.832	52.7484	27.832	53.2492	27.832	52.4147	27.832	53.3854	27.832	52.0575	27.832	53.4331	27.832	51.7123	27.832	53.388	27.832	51.4237	27.832	53.2517	27.832	51.2409	27.832	53.0346	27.832	51.205	27.832	52.7601	27.832	51.3348	27.832	52.4691	27.832	51.6179	27.832	52.2205	27.832	52.015	27.832	52.0818	27.832	52.4739	27.832	52.1051	27.832	52.9428	27.832	52.3017	27.832	53.3788	27.832	52.6351	27.832	53.7498	27.832	53.0392	27.832	54.033	27.832	53.4458	27.832	54.2134	27.832	53.8013	27.832	54.2816	27.832	54.0704	27.832	54.2335
29.2969	55.8555	29.2969	55.6881	29.2969	55.9943	29.2969	55.5098	29.2969	56.0921	29.2969	55.3429	29.2969	56.1419	29.2969	55.2133	29.2969	56.1427	29.2969	55.147	29.2969	56.1003	29.2969	55.166	29.2969	56.0283	29.2969	55.2832	29.2969	55.9491	29.2969	55.4982	29.2969	55.8928	29.2969	55.7972	29.2969	55.893	29.2969	56.1561	29.2969	55.978	29.2969	56.5457	29.2969	56.1607	29.2969	56.9359	29.2969	56.4323	29.2969	57.2995	29.2969	56.7644	29.2969	57.6133	29.2969	57.1179	29.2969	57.8588	29.2969	57.4534	29.2969	58.0221	29.2969	57.738	29.2969	58.0937	29.2969	57.948	29.2969	58.0688
30.7617	59.1598	30.7617	58.9849	30.7617	59.3041	30.7617	58.7909	30.7617	59.4097	30.7617	58.5918	30.7617	59.4711	30.7617	58.4043	30.7617	59.4864	30.7617	58.2473	30.7617	59.4576	30.7617	58.1395	30.7617	59.3916	30.7617	58.0974	30.7617	59.3011	30.7617	58.1315	30.7617	59.2042	30.7617	58.244	30.7617	59.1237	30.7617	58.4271	30.7617	59.0829	30.7617	58.6642	30.7617	59.0995	30.7617	58.9331	30.7617	59.1799	30.7617	59.2088	30.7617	59.316	30.7617	59.4672	30.7617	59.4867	30.7617	59.6871	30.7617	59.6638	30.7617	59.8516	30.7617	59.8188	30.7617	59.9491	30.7617	59.9278	30.7617	59.9741
32.2266	59.6441	32.2266	59.4522	32.2266	59.8014	32.2266	59.2359	32.2266	59.9164	32.2266	59.0078	32.2266	59.9841	32.2266	58.7836	32.2266	60.0022	32.2266	58.5808	32.2266	59.9718	32.2266	58.418	32.2266	59.8981	32.2266	58.3122	32.2266	59.7912	32.2266	58.2764	32.2266	59.6663	32.2266	58.3157	32.2266	59.5429	32.2266	58.4261	32.2266	59.4423	32.2266	58.5949	32.2266	59.3827	32.2266	58.8026	32.2266	59.3741	32.2266	59.0266	32.2266	59.4149	32.2266	59.2445	32.2266	59.4918	32.2266	59.4366	32.2266	59.5837	32.2266	59.5875	32.2266	59.6672	32.2266	59.687	32.2266	59.7214	32.2266	59.731
33.6914	60.4342	33.6914	60.2582	33.6914	60.5764	33.6914	60.0588	33.6914	60.6764	33.6914	59.8495	33.6914	60.7292	33.6914	59.6455	33.6914	60.7322	33.6914	59.4637	33.6914	60.6867	33.6914	59.3211	33.6914	60.5977	33.6914	59.2325	33.6914	60.4748	33.6914	59.208	33.6914	60.3326	33.6914	59.2504	33.6914	60.19	33.6914	59.3543	33.6914	60.068	33.6914	59.5068	33.6914	59.986	33.6914	59.6892	33.6914	59.9566	33.6914	59.8804	33.6914	59.9819	33.6914	60.0598	33.6914	60.0521	33.6914	60.2096	33.6914	60.1485	33.6914	60.3162	33.6914	60.2484	33.6914	60.3718	33.6914	60.3297	33.6914	60.3747
35.1562	62.4289	35.1562	62.2892	35.1562	62.5436	35.1562	62.1329	35.1562	62.6265	35.1562	61.9703	35.1562	62.6729	35.1562	61.8131	35.1562	62.6802	35.1562	61.6742	35.1562	62.6489	35.1562	61.5666	35.1562	62.583	35.1562	61.5019	35.1562	62.4905	35.1562	61.4885	35.1562	62.3842	35.1562	61.5296	35.1562	62.2807	35.1562	61.6224	35.1562	62.198	35.1562	61.7574	35.1562	62.152	35.1562	61.9205	35.1562	62.1522	35.1562	62.0942	35.1562	62.1982	35.1562	62.2608	35.1562	62.2795	35.1562	62.4037	35.1562	62.3783	35.1562	62.5097	35.1562	62.4736	35.1562	62.5701	35.1562	62.5463	35.1562	62.5815
36.6211	64.1241	36.6211	63.9849	36.6211	64.2418	36.6211	63.8315	36.6211	64.332	36.6211	63.673	36.6211	64.3909	36.6211	63.5198	36.6211	64.4167	36.6211	63.3831	36.6211	64.4102	36.6211	63.2744	36.6211	64.3748	36.6211	63.2039	36.6211	64.3175	36.6211	63.1792	36.6211	64.2484	36.6211	63.204	36.6211	64.1797	36.6211	63.2768	36.6211	64.1243	36.6211	63.3911	36.6211	64.0928	36.6211	63.5357	36.6211	64.0907	36.6211	63.6965	36.6211	64.1167	36.6211	63.8584	36.6211	64.1625	36.6211	64.0069	36.6211	64.2148	36.6211	64.1299	36.6211	64.2585	36.6211	64.2185	36.6211	64.2798	36.6211	64.2683
38.0859	65.3419	38.0859	65.2056	38.0859	65.4587	38.0859	65.0565	38.0859	65.5507	38.0859	64.903	38.0859	65.6144	38.0859	64.7544	38.0859	65.6483	38.0859	64.6208	38.0859	65.6531	38.0859	64.5122	38.0859	65.6317	38.0859	64.4378	38.0859	65.5896	38.0859	64.4046	38.0859	65.5346	38.0859	64.4166	38.0859	65.4764	38.0859	64.4734	38.0859	65.4251	38.0859	64.5702	38.0859	65.3894	38.0859	64.698	38.0859	65.3746	38.0859	64.8448	38.0859	65.3807	38.0859	64.9969	38.0859	65.4022	38.0859	65.1407	38.0859	65.4289	38.0859	65.2644	38.0859	65.4483	38.0859	65.3592	38.0859	65.4487	38.0859	65.4206
39.5508	66.0951	39.5508	65.9587	39.5508	66.2122	39.5508	65.8091	39.5508	66.305	39.5508	65.6534	39.5508	66.3701	39.5508	65.4999	39.5508	66.4054	39.5508	65.3573	39.5508	66.4107	39.5508	65.2348	39.5508	66.3879	39.5508	65.1411	39.5508	66.3413	39.5508	65.0833	39.5508	66.2774	39.5508	65.0665	39.5508	66.2051	39.5508	65.0918	39.5508	66.1338	39.5508	65.1567	39.5508	66.0725	39.5508	65.2542	39.5508	66.0275	39.5508	65.3744	39.5508	66.0007	39.5508	65.5051	39.5508	65.9887	39.5508	65.6338	39.5508	65.9839	39.5508	65.7495	39.5508	65.9761	39.5508	65.8439	39.5508	65.955	39.5508	65.9124
41.0156	66.4799	41.0156	66.336	41.0156	66.6017	41.0156	66.1762	41.0156	66.6964	41.0156	66.0075	41.0156	66.7602	41.0156	65.838	41.0156	66.7909	41.0156	65.6762	41.0156	66.7879	41.0156	65.5309	41.0156	66.7527	41.0156	65.4106	41.0156	66.6891	41.0156	65.3225	41.0156	66.6032	41.0156	65.2714	41.0156	66.5031	41.0156	65.2593	41.0156	66.3978	41.0156	65.2843	41.0156	66.2965	41.0156	65.341	41.0156	66.2061	41.0156	65.4215	41.0156	66.1304	41.0156	65.5159	41.0156	66.0692	41.0156	65.6147	41.0156	66.0186	41.0156	65.7092	41.0156	65.9722	41.0156	65.7934	41.0156	65.9228	41.0156	65.8644
42.4805	67.565	42.4805	67.4448	42.4805	67.665	42.4805	67.3099	42.4805	67.7403	42.4805	67.1667	42.4805	67.7873	42.4805	67.0222	42.4805	67.8039	42.4805	66.8839	42.4805	67.7894	42.4805	66.7589	42.4805	67.7451	42.4805	66.6542	42.4805	67.6738	42.4805	66.5752	42.4805	67.5808	42.4805	66.5254	42.4805	67.473	42.4805	66.5058	42.4805	67.3588	42.4805	66.5142	42.4805	67.2471	42.4805	66.5459	42.4805	67.1459	42.4805	66.5942	42.4805	67.0608	42.4805	66.6512	42.4805	66.9941	42.4805	66.7095	42.4805	66.9445	42.4805	66.763	42.4805	66.9075	42.4805	66.8083	42.4805	66.8766	42.4805	66.8453
43.9453	69.0836	43.9453	68.9805	43.9453	69.172	43.9453	68.8674	43.9453	69.2418	43.9453	68.7496	43.9453	69.2898	43.9453	68.6329	43.9453	69.3137	43.9453	68.5235	43.9453	69.3127	43.9453	68.4275	43.9453	69.2871	43.9453	68.3505	43.9453	69.2393	43.9453	68.2972	43.9453	69.1736	43.9453	68.2707	43.9453	69.0963	43.9453	68.2717	43.9453	69.015	43.9453	68.2986	43.9453	68.9377	43.9453	68.3471	43.9453	68.8714	43.9453	68.4107	43.9453	68.8202	43.9453	68.4816	43.9453	68.7848	43.9453	68.5521	43.9453	68.762	43.9453	68.6152	43.9453	68.7456	43.9453	68.6662	43.9453	68.7284	43.9453	68.7034
45.4102	70.2969	45.4102	70.1929	45.4102	70.3915	45.4102	70.0837	45.4102	70.4729	45.4102	69.9742	45.4102	70.5379	45.4102	69.8695	45.4102	70.5846	45.4102	69.7748	45.4102	70.6116	45.4102	69.6957	45.4102	70.6195	45.4102	69.6369	45.4102	70.6099	45.4102	69.6027	45.4102	70.586	45.4102	69.5959	45.4102	70.5527	45.4102	69.6174	45.4102	70.5151	45.4102	69.6661	45.4102	70.4787	45.4102	69.7382	45.4102	70.4472	45.4102	69.8277	45.4102	70.4223	45.4102	69.9273	45.4102	70.4023	45.4102	70.0287	45.4102	70.3833	45.4102	70.1243	45.4102	70.3594	45.4102	70.2076	45.4102	70.3247	45.4102	70.2748
46.875	70.7819	46.875	70.6734	46.875	70.8815	46.875	70.56	46.875	70.9688	46.875	70.4461	46.875	71.0408	46.875	70.3365	46.875	71.0953	46.875	70.2365	46.875	71.1313	46.875	70.1511	46.875	71.1485	46.875	70.0853	46.875	71.1483	46.875	70.0436	46.875	71.1334	46.875	70.0291	46.875	71.1075	46.875	70.0434	46.875	71.0749	46.875	70.0859	46.875	71.04	46.875	70.1537	46.875	71.0058	46.875	70.2419	46.875	70.9732	46.875	70.3438	46.875	70.9411	46.875	70.4515	46.875	70.9059	46.875	70.5574	46.875	70.8633	46.875	70.655	46.875	70.8088	46.875	70.7395
48.3398	71.0352	48.3398	70.9252	48.3398	71.1353	48.3398	70.8089	48.3398	71.2221	48.3398	70.6902	48.3398	71.2925	48.3398	70.5733	48.3398	71.3442	48.3398	70.4627	48.3398	71.3753	48.3398	70.3631	48.3398	71.3851	48.3398	70.2791	48.3398	71.3741	48.3398	70.2148	48.3398	71.3442	48.3398	70.1736	48.3398	71.2986	48.3398	70.1579	48.3398	71.2414	48.3398	70.1681	48.3398	71.1769	48.3398	70.2028	48.3398	71.1092	48.3398	70.259	48.3398	71.0408	48.3398	70.3318	48.3398	70.9728	48.3398	70.4156	48.3398	70.9046	48.3398	70.5047	48.3398	70.8342	48.3398	70.5939	48.3398	70.7596	48.3398	70.6795
51.2695	72.4948	51.2695	72.3988	51.2695	72.5758	51.2695	72.291	51.2695	72.6386	51.2695	72.1754	51.2695	72.6808	51.2695	72.0558	51.2695	72.7003	51.2695	71.9364	51.2695	72.6959	51.2695	71.8216	51.2695	72.6673	51.2695	71.7155	51.2695	72.6152	51.2695	71.6221	51.2695	72.5417	51.2695	71.5445	51.2695	72.4501	51.2695	71.4851	51.2695	72.3449	51.2695	71.445	51.2695	72.2315	51.2695	71.4239	51.2695	72.1157	51.2695	71.4204	51.2695	72.0029	51.2695	71.4321	51.2695	71.8976	51.2695	71.4564	51.2695	71.8028	51.2695	71.4911	51.2695	71.7196	51.2695	71.5346	51.2695	71.6479	51.2695	71.5867
52.7344	73.4758	52.7344	73.3877	52.7344	73.5539	52.7344	73.2928	52.7344	73.6194	52.7344	73.1945	52.7344	73.6697	52.7344	73.0962	52.7344	73.7029	52.7344	73.0016	52.7344	73.7177	52.7344	72.9142	52.7344	73.7135	52.7344	72.8374	52.7344	73.6904	52.7344	72.7745	52.7344	73.65	52.7344	72.7279	52.7344	73.5944	52.7344	72.6993	52.7344	73.5272	52.7344	72.6892	52.7344	73.4523	52.7344	72.6968	52.7344	73.3741	52.7344	72.7203	52.7344	73.2963	52.7344	72.7566	52.7344	73.2219	52.7344	72.8024	52.7344	73.1521	52.7344	72.8542	52.7344	73.087	52.7344	72.9095	52.7344	73.0257	52.7344	72.9668
54.1992	74.2323	54.1992	74.149	54.1992	74.3112	54.1992	74.0639	54.1992	74.3829	54.1992	73.9797	54.1992	74.4453	54.1992	73.8994	54.1992	74.4963	54.1992	73.8259	54.1992	74.5342	54.1992	73.7622	54.1992	74.5579	54.1992	73.711	54.1992	74.5671	54.1992	73.675	54.1992	74.5621	54.1992	73.6562	54.1992	74.5443	54.1992	73.656	54.1992	74.5156	54.1992	73.6746	54.1992	74.4789	54.1992	73.711	54.1992	74.4366	54.1992	73.7629	54.1992	74.391	54.1992	73.8269	54.1992	74.3431	54.1992	73.8985	54.1992	74.2929	54.1992	73.9733	54.1992	74.2393	54.1992	74.0471	54.1992	74.1809	54.1992	74.1168
55.6641	74.6563	55.6641	74.5731	55.6641	74.7377	55.6641	74.4905	55.6641	74.8149	55.6641	74.4109	55.6641	74.8858	55.6641	74.3368	55.6641	74.9481	55.6641	74.2708	55.6641	74.9999	55.6641	74.2154	55.6641	75.0399	55.6641	74.1733	55.6641	75.0671	55.6641	74.1469	55.6641	75.0813	55.6641	74.1382	55.6641	75.0833	55.6641	74.1486	55.6641	75.0742	55.6641	74.1785	55.6641	75.0557	55.6641	74.2271	55.6641	75.0295	55.6641	74.2922	55.6641	74.9966	55.6641	74.3702	55.6641	74.9572	55.6641	74.4567	55.6641	74.9106	55.6641	74.5466	55.6641	74.8557	55.6641	74.6348	55.6641	74.7913	55.6641	74.7173
58.5938	74.8304	58.5938	74.7477	58.5938	74.9089	58.5938	74.6629	58.5938	74.9813	58.5938	74.578	58.5938	75.0456	58.5938	74.4952	58.5938	75.0997	58.5938	74.4167	58.5938	75.1419	58.5938	74.3452	58.5938	75.1706	58.5938	74.2831	58.5938	75.1848	58.5938	74.2331	58.5938	75.184	58.5938	74.1977	58.5938	75.1686	58.5938	74.179	58.5938	75.1395	58.5938	74.1785	58.5938	75.0983	58.5938	74.1965	58.5938	75.0467	58.5938	74.2327	58.5938	74.9863	58.5938	74.2852	58.5938	74.9186	58.5938	74.3515	58.5938	74.8448	58.5938	74.428	58.5938	74.7657	58.5938	74.5109	58.5938	74.6825	58.5938	74.5968
60.0586	75.2671	60.0586	75.1862	60.0586	75.3418	60.0586	75.1009	60.0586	75.4081	60.0586	75.013	60.0586	75.464	60.0586	74.9244	60.0586	75.5073	60.0586	74.8371	60.0586	75.5357	60.0586	74.753	60.0586	75.5476	60.0586	74.6744	60.0586	75.5415	60.0586	74.6037	60.0586	75.517	60.0586	74.5434	60.0586	75.4743	60.0586	74.4958	60.0586	75.4147	60.0586	74.4629	60.0586	75.3404	60.0586	74.4463	60.0586	75.2545	60.0586	74.4468	60.0586	75.1603	60.0586	74.4646	60.0586	75.0615	60.0586	74.4989	60.0586	74.9618	60.0586	74.5486	60.0586	74.8643	60.0586	74.6119	60.0586	74.7719	60.0586	74.6871
62.9883	76.6191	62.9883	76.5434	62.9883	76.688	62.9883	76.4626	62.9883	76.7482	62.9883	76.3785	62.9883	76.7978	62.9883	76.2927	62.9883	76.8345	62.9883	76.2068	62.9883	76.8565	62.9883	76.1225	62.9883	76.8619	62.9883	76.0418	62.9883	76.8491	62.9883	75.9667	62.9883	76.8173	62.9883	75.8993	62.9883	76.7665	62.9883	75.842	62.9883	76.6976	62.9883	75.7968	62.9883	76.6127	62.9883	75.7655	62.9883	76.5152	62.9883	75.7495	62.9883	76.4093	62.9883	75.7498	62.9883	76.2999	62.9883	75.7669	62.9883	76.1918	62.9883	75.8007	62.9883	76.0896	62.9883	75.8509	62.9883	75.997	62.9883	75.9168
64.4531	76.8857	64.4531	76.8137	64.4531	76.9556	64.4531	76.7412	64.4531	77.0217	64.4531	76.6699	64.4531	77.082	64.4531	76.601	64.4531	77.1347	64.4531	76.5362	64.4531	77.1776	64.4531	76.4768	64.4531	77.2087	64.4531	76.4244	64.4531	77.2263	64.4531	76.3804	64.4531	77.2288	64.4531	76.3467	64.4531	77.2154	64.4531	76.3245	64.4531	77.1859	64.4531	76.3152	64.4531	77.1411	64.4531	76.3197	64.4531	77.083	64.4531	76.3383	64.4531	77.0141	64.4531	76.3706	64.4531	76.9374	64.4531	76.4158	64.4531	76.856	64.4531	76.4724	64.4531	76.7729	64.4531	76.5384	64.4531	76.6908	64.4531	76.6119
67.3828	76.8904	67.3828	76.8206	67.3828	76.9628	67.3828	76.7547	67.3828	77.0364	67.3828	76.6937	67.3828	77.1094	67.3828	76.6384	67.3828	77.1796	67.3828	76.5898	67.3828	77.2446	67.3828	76.5487	67.3828	77.3019	67.3828	76.5164	67.3828	77.3492	67.3828	76.4943	67.3828	77.3842	67.3828	76.4837	67.3828	77.4052	67.3828	76.4862	67.3828	77.4113	67.3828	76.5029	67.3828	77.402	67.3828	76.5348	67.3828	77.3774	67.3828	76.5817	67.3828	77.3384	67.3828	76.6428	67.3828	77.286	67.3828	76.716	67.3828	77.2217	67.3828	76.7985	67.3828	77.1471	67.3828	76.8867	67.3828	77.0645	67.3828	76.9766
68.8477	76.7948	68.8477	76.7224	68.8477	76.8674	68.8477	76.6513	68.8477	76.9385	68.8477	76.5826	68.8477	77.0065	68.8477	76.5172	68.8477	77.0693	68.8477	76.4563	68.8477	77.1244	68.8477	76.4009	68.8477	77.1697	68.8477	76.3527	68.8477	77.203	68.8477	76.3133	68.8477	77.2224	68.8477	76.2846	68.8477	77.2267	68.8477	76.2686	68.8477	77.2152	68.8477	76.267	68.8477	77.188	68.8477	76.2814	68.8477	77.1456	68.8477	76.3123	68.8477	77.0894	68.8477	76.3595	68.8477	77.0209	68.8477	76.4218	68.8477	76.9422	68.8477	76.4969	68.8477	76.8559	68.8477	76.5815	68.8477	76.7647	68.8477	76.672
