"SPL Horizontal"
"On-Axis"		"10°"		"-10°"		"20°"		"-20°"		"30°"		"-30°"		"40°"		"-40°"		"50°"		"-50°"		"60°"		"-60°"		"70°"		"-70°"		"80°"		"-80°"		"90°"		"-90°"		"100°"		"-100°"		"110°"		"-110°"		"120°"		"-120°"		"130°"		"-130°"		"140°"		"-140°"		"150°"		"-150°"		"160°"		"-160°"		"170°"		"-170°"		"180°"
"Frequency [Hz]"	"Sound Pessure Level [dB]  / [2.83V 1m] "	"Frequency [Hz]"	"Sound Pessure Level [dB]  / [2.83V 1m] "	"Frequency [Hz]"	"Sound Pessure Level [dB]  / [2.83V 1m] "	"Frequency [Hz]"	"Sound Pessure Level [dB]  / [2.83V 1m] "	"Frequency [Hz]"	"Sound Pessure Level [dB]  / [2.83V 1m] "	"Frequency [Hz]"	"Sound Pessure Level [dB]  / [2.83V 1m] "	"Frequency [Hz]"	"Sound Pessure Level [dB]  / [2.83V 1m] "	"Frequency [Hz]"	"Sound Pessure Level [dB]  / [2.83V 1m] "	"Frequency [Hz]"	"Sound Pessure Level [dB]  / [2.83V 1m] "	"Frequency [Hz]"	"Sound Pessure Level [dB]  / [2.83V 1m] "	"Frequency [Hz]"	"Sound Pessure Level [dB]  / [2.83V 1m] "	"Frequency [Hz]"	"Sound Pessure Level [dB]  / [2.83V 1m] "	"Frequency [Hz]"	"Sound Pessure Level [dB]  / [2.83V 1m] "	"Frequency [Hz]"	"Sound Pessure Level [dB]  / [2.83V 1m] "	"Frequency [Hz]"	"Sound Pessure Level [dB]  / [2.83V 1m] "	"Frequency [Hz]"	"Sound Pessure Level [dB]  / [2.83V 1m] "	"Frequency [Hz]"	"Sound Pessure Level [dB]  / [2.83V 1m] "	"Frequency [Hz]"	"Sound Pessure Level [dB]  / [2.83V 1m] "	"Frequency [Hz]"	"Sound Pessure Level [dB]  / [2.83V 1m] "	"Frequency [Hz]"	"Sound Pessure Level [dB]  / [2.83V 1m] "	"Frequency [Hz]"	"Sound Pessure Level [dB]  / [2.83V 1m] "	"Frequency [Hz]"	"Sound Pessure Level [dB]  / [2.83V 1m] "	"Frequency [Hz]"	"Sound Pessure Level [dB]  / [2.83V 1m] "	"Frequency [Hz]"	"Sound Pessure Level [dB]  / [2.83V 1m] "	"Frequency [Hz]"	"Sound Pessure Level [dB]  / [2.83V 1m] "	"Frequency [Hz]"	"Sound Pessure Level [dB]  / [2.83V 1m] "	"Frequency [Hz]"	"Sound Pessure Level [dB]  / [2.83V 1m] "	"Frequency [Hz]"	"Sound Pessure Level [dB]  / [2.83V 1m] "	"Frequency [Hz]"	"Sound Pessure Level [dB]  / [2.83V 1m] "	"Frequency [Hz]"	"Sound Pessure Level [dB]  / [2.83V 1m] "	"Frequency [Hz]"	"Sound Pessure Level [dB]  / [2.83V 1m] "	"Frequency [Hz]"	"Sound Pessure Level [dB]  / [2.83V 1m] "	"Frequency [Hz]"	"Sound Pessure Level [dB]  / [2.83V 1m] "	"Frequency [Hz]"	"Sound Pessure Level [dB]  / [2.83V 1m] "	"Frequency [Hz]"	"Sound Pessure Level [dB]  / [2.83V 1m] "	"Frequency [Hz]"	"Sound Pessure Level [dB]  / [2.83V 1m] "
20.5078	37.5621	20.5078	37.3952	20.5078	37.7812	20.5078	37.2687	20.5078	38.0569	20.5078	37.1677	20.5078	38.3826	20.5078	37.0784	20.5078	38.7414	20.5078	36.9897	20.5078	39.11	20.5078	36.894	20.5078	39.4636	20.5078	36.7862	20.5078	39.7791	20.5078	36.6644	20.5078	40.0374	20.5078	36.5316	20.5078	40.2232	20.5078	36.3984	20.5078	40.3254	20.5078	36.2853	20.5078	40.3364	20.5078	36.2231	20.5078	40.2524	20.5078	36.2478	20.5078	40.0736	20.5078	36.3897	20.5078	39.8034	20.5078	36.661	20.5078	39.4495	20.5078	37.0485	20.5078	39.0236	20.5078	37.5189	20.5078	38.5425	20.5078	38.0302
21.9727	41.6527	21.9727	41.3224	21.9727	41.9861	21.9727	41.0053	21.9727	42.3128	21.9727	40.71	21.9727	42.6238	21.9727	40.4439	21.9727	42.9122	21.9727	40.2136	21.9727	43.1727	21.9727	40.0256	21.9727	43.4006	21.9727	39.8869	21.9727	43.5906	21.9727	39.8044	21.9727	43.7363	21.9727	39.7834	21.9727	43.8302	21.9727	39.8261	21.9727	43.8649	21.9727	39.9314	21.9727	43.8347	21.9727	40.0957	21.9727	43.7368	21.9727	40.3138	21.9727	43.5717	21.9727	40.5806	21.9727	43.3437	21.9727	40.8901	21.9727	43.06	21.9727	41.2352	21.9727	42.7308	21.9727	41.6057	21.9727	42.3688	21.9727	41.9886
23.4375	46.383	23.4375	46.3264	23.4375	46.4403	23.4375	46.2732	23.4375	46.4966	23.4375	46.2263	23.4375	46.551	23.4375	46.1889	23.4375	46.6034	23.4375	46.1635	23.4375	46.6542	23.4375	46.1515	23.4375	46.7039	23.4375	46.153	23.4375	46.7527	23.4375	46.1668	23.4375	46.8	23.4375	46.1909	23.4375	46.8443	23.4375	46.2234	23.4375	46.8835	23.4375	46.2629	23.4375	46.9142	23.4375	46.3087	23.4375	46.933	23.4375	46.3607	23.4375	46.9365	23.4375	46.4194	23.4375	46.9224	23.4375	46.4848	23.4375	46.8902	23.4375	46.5561	23.4375	46.8411	23.4375	46.6313	23.4375	46.7785	23.4375	46.7069
24.9023	48.0032	24.9023	47.9521	24.9023	48.0554	24.9023	47.9037	24.9023	48.1072	24.9023	47.8597	24.9023	48.1574	24.9023	47.8219	24.9023	48.2051	24.9023	47.7915	24.9023	48.2498	24.9023	47.7696	24.9023	48.291	24.9023	47.7569	24.9023	48.3279	24.9023	47.7539	24.9023	48.3594	24.9023	47.7607	24.9023	48.3838	24.9023	47.777	24.9023	48.3994	24.9023	47.8023	24.9023	48.4043	24.9023	47.8357	24.9023	48.3973	24.9023	47.8761	24.9023	48.378	24.9023	47.9222	24.9023	48.3469	24.9023	47.973	24.9023	48.3054	24.9023	48.0275	24.9023	48.2558	24.9023	48.0845	24.9023	48.2008	24.9023	48.1429
26.3672	49.0549	26.3672	49.0146	26.3672	49.0945	26.3672	48.9744	26.3672	49.132	26.3672	48.9349	26.3672	49.1661	26.3672	48.8965	26.3672	49.195	26.3672	48.8589	26.3672	49.217	26.3672	48.8219	26.3672	49.2301	26.3672	48.7845	26.3672	49.2329	26.3672	48.7462	26.3672	49.2243	26.3672	48.7066	26.3672	49.2039	26.3672	48.666	26.3672	49.1719	26.3672	48.6259	26.3672	49.1288	26.3672	48.589	26.3672	49.0756	26.3672	48.5589	26.3672	49.0129	26.3672	48.5401	26.3672	48.942	26.3672	48.5369	26.3672	48.8652	26.3672	48.5524	26.3672	48.786	26.3672	48.5878	26.3672	48.7094	26.3672	48.6415
27.832	52.0096	27.832	52.0192	27.832	51.9987	27.832	52.0273	27.832	51.9867	27.832	52.0336	27.832	51.9733	27.832	52.0376	27.832	51.9582	27.832	52.0391	27.832	51.941	27.832	52.0376	27.832	51.9215	27.832	52.0329	27.832	51.8999	27.832	52.0246	27.832	51.8768	27.832	52.0123	27.832	51.8531	27.832	51.9956	27.832	51.83	27.832	51.9741	27.832	51.8089	27.832	51.948	27.832	51.7906	27.832	51.9181	27.832	51.7759	27.832	51.8859	27.832	51.7654	27.832	51.8533	27.832	51.7595	27.832	51.823	27.832	51.7591	27.832	51.7972	27.832	51.7649	27.832	51.7776
29.2969	53.0278	29.2969	53.025	29.2969	53.0311	29.2969	53.0231	29.2969	53.0346	29.2969	53.0222	29.2969	53.0381	29.2969	53.023	29.2969	53.0414	29.2969	53.0254	29.2969	53.0445	29.2969	53.0294	29.2969	53.0477	29.2969	53.0344	29.2969	53.0517	29.2969	53.0393	29.2969	53.0572	29.2969	53.0435	29.2969	53.0652	29.2969	53.0466	29.2969	53.0761	29.2969	53.0488	29.2969	53.0892	29.2969	53.0512	29.2969	53.1033	29.2969	53.055	29.2969	53.1161	29.2969	53.0615	29.2969	53.1257	29.2969	53.0711	29.2969	53.1302	29.2969	53.0834	29.2969	53.1288	29.2969	53.0973	29.2969	53.122	29.2969	53.1108
30.7617	53.8461	30.7617	53.8712	30.7617	53.8201	30.7617	53.8946	30.7617	53.7936	30.7617	53.9154	30.7617	53.7669	30.7617	53.9326	30.7617	53.7397	30.7617	53.9451	30.7617	53.7118	30.7617	53.9517	30.7617	53.6828	30.7617	53.9515	30.7617	53.6527	30.7617	53.9433	30.7617	53.6217	30.7617	53.9262	30.7617	53.591	30.7617	53.8998	30.7617	53.5621	30.7617	53.8641	30.7617	53.5367	30.7617	53.8203	30.7617	53.5163	30.7617	53.7706	30.7617	53.5023	30.7617	53.718	30.7617	53.4951	30.7617	53.666	30.7617	53.4953	30.7617	53.618	30.7617	53.5031	30.7617	53.5766	30.7617	53.5189	30.7617	53.5434
32.2266	56.1263	32.2266	56.1235	32.2266	56.117	32.2266	56.1095	32.2266	56.0955	32.2266	56.0856	32.2266	56.0618	32.2266	56.0532	32.2266	56.0166	32.2266	56.0141	32.2266	55.9609	32.2266	55.9698	32.2266	55.8961	32.2266	55.9212	32.2266	55.8243	32.2266	55.8689	32.2266	55.748	32.2266	55.8127	32.2266	55.6698	32.2266	55.7525	32.2266	55.5925	32.2266	55.6882	32.2266	55.5188	32.2266	55.6205	32.2266	55.4512	32.2266	55.551	32.2266	55.3917	32.2266	55.4825	32.2266	55.3427	32.2266	55.4184	32.2266	55.3062	32.2266	55.3627	32.2266	55.2843	32.2266	55.319	32.2266	55.2788	32.2266	55.2905
33.6914	57.7715	33.6914	57.7746	33.6914	57.7608	33.6914	57.7695	33.6914	57.7428	33.6914	57.7561	33.6914	57.7183	33.6914	57.7342	33.6914	57.6878	33.6914	57.7037	33.6914	57.6518	33.6914	57.6649	33.6914	57.6111	33.6914	57.618	33.6914	57.5661	33.6914	57.5635	33.6914	57.5175	33.6914	57.5027	33.6914	57.4659	33.6914	57.4371	33.6914	57.4121	33.6914	57.3691	33.6914	57.3569	33.6914	57.3014	33.6914	57.3016	33.6914	57.2374	33.6914	57.2477	33.6914	57.1805	33.6914	57.1971	33.6914	57.1339	33.6914	57.1522	33.6914	57.1003	33.6914	57.1157	33.6914	57.0816	33.6914	57.0904	33.6914	57.0784
35.1562	59.2163	35.1562	59.22	35.1562	59.2061	35.1562	59.2168	35.1562	59.1898	35.1562	59.2066	35.1562	59.1678	35.1562	59.189	35.1562	59.1401	35.1562	59.1641	35.1562	59.1066	35.1562	59.1322	35.1562	59.0674	35.1562	59.0934	35.1562	59.0224	35.1562	59.0481	35.1562	58.9722	35.1562	58.997	35.1562	58.9175	35.1562	58.9409	35.1562	58.86	35.1562	58.8814	35.1562	58.8016	35.1562	58.8205	35.1562	58.7449	35.1562	58.7607	35.1562	58.6926	35.1562	58.7049	35.1562	58.6471	35.1562	58.6559	35.1562	58.6109	35.1562	58.6166	35.1562	58.5859	35.1562	58.5889	35.1562	58.5734	35.1562	58.5743
36.6211	60.9652	36.6211	60.9602	36.6211	60.9608	36.6211	60.9451	36.6211	60.9479	36.6211	60.9195	36.6211	60.9269	36.6211	60.8833	36.6211	60.8984	36.6211	60.8367	36.6211	60.8623	36.6211	60.7803	36.6211	60.8184	36.6211	60.715	36.6211	60.7661	36.6211	60.6418	36.6211	60.7055	36.6211	60.5623	36.6211	60.6366	36.6211	60.4784	36.6211	60.5607	36.6211	60.3926	36.6211	60.4795	36.6211	60.3082	36.6211	60.3958	36.6211	60.229	36.6211	60.313	36.6211	60.1592	36.6211	60.2348	36.6211	60.1029	36.6211	60.1653	36.6211	60.0637	36.6211	60.1084	36.6211	60.0442	36.6211	60.0676	36.6211	60.0456
38.0859	61.5234	38.0859	61.5337	38.0859	61.5115	38.0859	61.5415	38.0859	61.4989	38.0859	61.546	38.0859	61.4859	38.0859	61.5461	38.0859	61.4726	38.0859	61.5413	38.0859	61.4587	38.0859	61.5311	38.0859	61.4431	38.0859	61.5151	38.0859	61.425	38.0859	61.4936	38.0859	61.4029	38.0859	61.467	38.0859	61.3763	38.0859	61.4362	38.0859	61.3449	38.0859	61.4023	38.0859	61.3098	38.0859	61.3662	38.0859	61.2729	38.0859	61.3291	38.0859	61.2371	38.0859	61.292	38.0859	61.2057	38.0859	61.2562	38.0859	61.182	38.0859	61.2233	38.0859	61.1684	38.0859	61.1957	38.0859	61.1665	38.0859	61.176
39.5508	63.0851	39.5508	63.0855	39.5508	63.0795	39.5508	63.0799	39.5508	63.0696	39.5508	63.0676	39.5508	63.0563	39.5508	63.0483	39.5508	63.0399	39.5508	63.0221	39.5508	63.0209	39.5508	62.9896	39.5508	62.9988	39.5508	62.9519	39.5508	62.973	39.5508	62.9105	39.5508	62.9429	39.5508	62.8674	39.5508	62.908	39.5508	62.8246	39.5508	62.8685	39.5508	62.784	39.5508	62.8253	39.5508	62.7469	39.5508	62.7805	39.5508	62.714	39.5508	62.7365	39.5508	62.6853	39.5508	62.6964	39.5508	62.661	39.5508	62.6631	39.5508	62.6415	39.5508	62.639	39.5508	62.6279	39.5508	62.6252	39.5508	62.6219
41.0156	63.9618	41.0156	63.9608	41.0156	63.9624	41.0156	63.9593	41.0156	63.9625	41.0156	63.9576	41.0156	63.9625	41.0156	63.9561	41.0156	63.9627	41.0156	63.9552	41.0156	63.963	41.0156	63.955	41.0156	63.9635	41.0156	63.9552	41.0156	63.9637	41.0156	63.9553	41.0156	63.9629	41.0156	63.9548	41.0156	63.9601	41.0156	63.953	41.0156	63.9546	41.0156	63.9497	41.0156	63.9459	41.0156	63.9447	41.0156	63.9344	41.0156	63.9379	41.0156	63.9214	41.0156	63.9294	41.0156	63.9086	41.0156	63.9195	41.0156	63.898	41.0156	63.9092	41.0156	63.8914	41.0156	63.8998	41.0156	63.8897	41.0156	63.8928
42.4805	65.111	42.4805	65.1548	42.4805	65.0565	42.4805	65.1862	42.4805	64.9929	42.4805	65.2031	42.4805	64.9217	42.4805	65.204	42.4805	64.8443	42.4805	65.1872	42.4805	64.762	42.4805	65.1519	42.4805	64.6763	42.4805	65.0976	42.4805	64.5892	42.4805	65.0248	42.4805	64.5024	42.4805	64.935	42.4805	64.418	42.4805	64.8312	42.4805	64.3381	42.4805	64.7179	42.4805	64.2646	42.4805	64.6004	42.4805	64.1995	42.4805	64.4849	42.4805	64.1449	42.4805	64.3769	42.4805	64.1029	42.4805	64.2814	42.4805	64.0755	42.4805	64.2015	42.4805	64.0643	42.4805	64.1393	42.4805	64.0708	42.4805	64.0957
43.9453	66.0647	43.9453	66.0798	43.9453	66.0386	43.9453	66.0838	43.9453	66.0021	43.9453	66.0768	43.9453	65.9556	43.9453	66.0591	43.9453	65.9002	43.9453	66.031	43.9453	65.8372	43.9453	65.9932	43.9453	65.7683	43.9453	65.9465	43.9453	65.6955	43.9453	65.8918	43.9453	65.6211	43.9453	65.8304	43.9453	65.5477	43.9453	65.7638	43.9453	65.4778	43.9453	65.694	43.9453	65.4138	43.9453	65.623	43.9453	65.3583	43.9453	65.553	43.9453	65.3133	43.9453	65.4862	43.9453	65.2806	43.9453	65.4245	43.9453	65.2615	43.9453	65.3699	43.9453	65.2567	43.9453	65.3241	43.9453	65.2661	43.9453	65.289
45.4102	67.0431	45.4102	67.0453	45.4102	67.0314	45.4102	67.0381	45.4102	67.0101	45.4102	67.0221	45.4102	66.9799	45.4102	66.9982	45.4102	66.9414	45.4102	66.967	45.4102	66.896	45.4102	66.9296	45.4102	66.8453	45.4102	66.8868	45.4102	66.7911	45.4102	66.8395	45.4102	66.7352	45.4102	66.7888	45.4102	66.6794	45.4102	66.7358	45.4102	66.6255	45.4102	66.6819	45.4102	66.5751	45.4102	66.6287	45.4102	66.5294	45.4102	66.578	45.4102	66.4898	45.4102	66.5315	45.4102	66.4575	45.4102	66.4909	45.4102	66.4335	45.4102	66.4578	45.4102	66.4187	45.4102	66.4334	45.4102	66.4136	45.4102	66.4185
46.875	67.9584	46.875	67.9576	46.875	67.9503	46.875	67.9477	46.875	67.9336	46.875	67.929	46.875	67.909	46.875	67.9021	46.875	67.8774	46.875	67.868	46.875	67.8399	46.875	67.8279	46.875	67.7977	46.875	67.7833	46.875	67.7521	46.875	67.7359	46.875	67.7046	46.875	67.6875	46.875	67.6566	46.875	67.6396	46.875	67.6095	46.875	67.5937	46.875	67.5648	46.875	67.5509	46.875	67.5236	46.875	67.5124	46.875	67.4874	46.875	67.4789	46.875	67.4571	46.875	67.4511	46.875	67.4337	46.875	67.4298	46.875	67.4176	46.875	67.4155	46.875	67.4091	46.875	67.4085
48.3398	68.6035	48.3398	68.6087	48.3398	68.5924	48.3398	68.6075	48.3398	68.5761	48.3398	68.5996	48.3398	68.5555	48.3398	68.5852	48.3398	68.5315	48.3398	68.5648	48.3398	68.5051	48.3398	68.5392	48.3398	68.4771	48.3398	68.5095	48.3398	68.4481	48.3398	68.4769	48.3398	68.4188	48.3398	68.4427	48.3398	68.3898	48.3398	68.4081	48.3398	68.3613	48.3398	68.3741	48.3398	68.3339	48.3398	68.3419	48.3398	68.3081	48.3398	68.3121	48.3398	68.2845	48.3398	68.2857	48.3398	68.2641	48.3398	68.2635	48.3398	68.2476	48.3398	68.2463	48.3398	68.2359	48.3398	68.2347	48.3398	68.2295	48.3398	68.2291
51.2695	69.9552	51.2695	69.9614	51.2695	69.9394	51.2695	69.9581	51.2695	69.9144	51.2695	69.9454	51.2695	69.8809	51.2695	69.9238	51.2695	69.8397	51.2695	69.894	51.2695	69.7919	51.2695	69.8569	51.2695	69.7388	51.2695	69.8138	51.2695	69.682	51.2695	69.7657	51.2695	69.6233	51.2695	69.7141	51.2695	69.5645	51.2695	69.6604	51.2695	69.5076	51.2695	69.6058	51.2695	69.4546	51.2695	69.5517	51.2695	69.4073	51.2695	69.4996	51.2695	69.3676	51.2695	69.4509	51.2695	69.3368	51.2695	69.4069	51.2695	69.3161	51.2695	69.3693	51.2695	69.306	51.2695	69.3393	51.2695	69.3068	51.2695	69.3181
52.7344	70.6026	52.7344	70.6026	52.7344	70.5923	52.7344	70.5924	52.7344	70.5721	52.7344	70.5723	52.7344	70.5426	52.7344	70.5427	52.7344	70.5048	52.7344	70.5047	52.7344	70.4598	52.7344	70.4592	52.7344	70.4089	52.7344	70.4077	52.7344	70.3537	52.7344	70.3517	52.7344	70.2957	52.7344	70.2928	52.7344	70.2366	52.7344	70.2328	52.7344	70.1782	52.7344	70.1736	52.7344	70.1221	52.7344	70.117	52.7344	70.0702	52.7344	70.065	52.7344	70.0239	52.7344	70.0191	52.7344	69.9848	52.7344	69.9808	52.7344	69.9542	52.7344	69.9511	52.7344	69.9329	52.7344	69.9311	52.7344	69.9218	52.7344	69.9212
54.1992	71.0594	54.1992	71.0606	54.1992	71.049	54.1992	71.0527	54.1992	71.03	54.1992	71.0357	54.1992	71.0029	54.1992	71.0101	54.1992	70.9686	54.1992	70.9768	54.1992	70.9284	54.1992	70.9369	54.1992	70.8834	54.1992	70.8915	54.1992	70.8352	54.1992	70.8423	54.1992	70.7851	54.1992	70.7909	54.1992	70.7348	54.1992	70.739	54.1992	70.6858	54.1992	70.6884	54.1992	70.6394	54.1992	70.6407	54.1992	70.5971	54.1992	70.5974	54.1992	70.56	54.1992	70.5598	54.1992	70.5292	54.1992	70.5288	54.1992	70.5055	54.1992	70.5051	54.1992	70.4893	54.1992	70.4891	54.1992	70.4811	54.1992	70.4811
55.6641	71.5168	55.6641	71.5145	55.6641	71.51	55.6641	71.5032	55.6641	71.4943	55.6641	71.4833	55.6641	71.4704	55.6641	71.4554	55.6641	71.4392	55.6641	71.4205	55.6641	71.4018	55.6641	71.3799	55.6641	71.3595	55.6641	71.3351	55.6641	71.3139	55.6641	71.2875	55.6641	71.2664	55.6641	71.2389	55.6641	71.2186	55.6641	71.1908	55.6641	71.1718	55.6641	71.1447	55.6641	71.1274	55.6641	71.1019	55.6641	71.0866	55.6641	71.0638	55.6641	71.0505	55.6641	71.0311	55.6641	71.0202	55.6641	71.0047	55.6641	70.9962	55.6641	70.9851	55.6641	70.9792	55.6641	70.9725	55.6641	70.9696	55.6641	70.9673
58.5938	72.3101	58.5938	72.3064	58.5938	72.3035	58.5938	72.2928	58.5938	72.2871	58.5938	72.2698	58.5938	72.2611	58.5938	72.2381	58.5938	72.2267	58.5938	72.1989	58.5938	72.1849	58.5938	72.1536	58.5938	72.1371	58.5938	72.1038	58.5938	72.085	58.5938	72.0511	58.5938	72.0304	58.5938	71.9974	58.5938	71.9751	58.5938	71.9444	58.5938	71.9209	58.5938	71.8937	58.5938	71.8697	58.5938	71.8468	58.5938	71.823	58.5938	71.8048	58.5938	71.7824	58.5938	71.7688	58.5938	71.7488	58.5938	71.7394	58.5938	71.7231	58.5938	71.7171	58.5938	71.7056	58.5938	71.7023	58.5938	71.6963	58.5938	71.6953
60.0586	72.6979	60.0586	72.6942	60.0586	72.6917	60.0586	72.6809	60.0586	72.6761	60.0586	72.6584	60.0586	72.6515	60.0586	72.6276	60.0586	72.619	60.0586	72.5895	60.0586	72.5797	60.0586	72.5457	60.0586	72.535	60.0586	72.4978	60.0586	72.4863	60.0586	72.4476	60.0586	72.4353	60.0586	72.3968	60.0586	72.3836	60.0586	72.347	60.0586	72.3328	60.0586	72.2999	60.0586	72.2846	60.0586	72.2564	60.0586	72.2405	60.0586	72.2178	60.0586	72.2018	60.0586	72.1847	60.0586	72.1698	60.0586	72.1577	60.0586	72.145	60.0586	72.1373	60.0586	72.128	60.0586	72.1239	60.0586	72.1189	60.0586	72.1176
62.9883	73.4592	62.9883	73.4547	62.9883	73.4536	62.9883	73.4402	62.9883	73.4382	62.9883	73.4162	62.9883	73.4138	62.9883	73.3836	62.9883	73.3814	62.9883	73.3437	62.9883	73.3422	62.9883	73.298	62.9883	73.298	62.9883	73.2483	62.9883	73.2503	62.9883	73.1965	62.9883	73.2009	62.9883	73.1445	62.9883	73.1514	62.9883	73.0941	62.9883	73.1033	62.9883	73.0469	62.9883	73.0579	62.9883	73.0043	62.9883	73.0165	62.9883	72.9674	62.9883	72.9798	62.9883	72.937	62.9883	72.9485	62.9883	72.9135	62.9883	72.9233	62.9883	72.8973	62.9883	72.9044	62.9883	72.8884	62.9883	72.8921	62.9883	72.8867
64.4531	73.7622	64.4531	73.7575	64.4531	73.7567	64.4531	73.7427	64.4531	73.7411	64.4531	73.7183	64.4531	73.7163	64.4531	73.6853	64.4531	73.6832	64.4531	73.645	64.4531	73.6433	64.4531	73.5989	64.4531	73.5982	64.4531	73.5491	64.4531	73.5495	64.4531	73.4973	64.4531	73.4991	64.4531	73.4455	64.4531	73.4488	64.4531	73.3955	64.4531	73.4001	64.4531	73.349	64.4531	73.3544	64.4531	73.307	64.4531	73.313	64.4531	73.2707	64.4531	73.2766	64.4531	73.2407	64.4531	73.246	64.4531	73.2173	64.4531	73.2217	64.4531	73.2008	64.4531	73.2039	64.4531	73.1913	64.4531	73.1928	64.4531	73.1886
67.3828	74.2607	67.3828	74.2548	67.3828	74.2563	67.3828	74.2387	67.3828	74.2418	67.3828	74.2132	67.3828	74.2177	67.3828	74.1791	67.3828	74.185	67.3828	74.138	67.3828	74.1451	67.3828	74.0914	67.3828	74.0995	67.3828	74.0412	67.3828	74.05	67.3828	73.9894	67.3828	73.9985	67.3828	73.9378	67.3828	73.9469	67.3828	73.8883	67.3828	73.8969	67.3828	73.8425	67.3828	73.8502	67.3828	73.8014	67.3828	73.808	67.3828	73.7661	67.3828	73.7713	67.3828	73.737	67.3828	73.7409	67.3828	73.7144	67.3828	73.7171	67.3828	73.6984	67.3828	73.7001	67.3828	73.689	67.3828	73.6897	67.3828	73.6861
68.8477	74.456	68.8477	74.4498	68.8477	74.4516	68.8477	74.4332	68.8477	74.4368	68.8477	74.4069	68.8477	74.4123	68.8477	74.3721	68.8477	74.3792	68.8477	74.3302	68.8477	74.3388	68.8477	74.2831	68.8477	74.2929	68.8477	74.2326	68.8477	74.2434	68.8477	74.1809	68.8477	74.1924	68.8477	74.1301	68.8477	74.1418	68.8477	74.0818	68.8477	74.0933	68.8477	74.0377	68.8477	74.0485	68.8477	73.9989	68.8477	74.0085	68.8477	73.966	68.8477	73.9743	68.8477	73.9395	68.8477	73.9461	68.8477	73.9193	68.8477	73.9243	68.8477	73.9053	68.8477	73.9086	68.8477	73.8974	68.8477	73.899	68.8477	73.8953
