"SPL Horizontal"
"On-Axis"		"10°"		"-10°"		"20°"		"-20°"		"30°"		"-30°"		"40°"		"-40°"		"50°"		"-50°"		"60°"		"-60°"		"70°"		"-70°"		"80°"		"-80°"		"90°"		"-90°"		"100°"		"-100°"		"110°"		"-110°"		"120°"		"-120°"		"130°"		"-130°"		"140°"		"-140°"		"150°"		"-150°"		"160°"		"-160°"		"170°"		"-170°"		"180°"
"Frequency / Hz"	"Sound Pressure Level / dB (re 20 µPa/V)  [2.83  V @ 1. m]"	"Frequency / Hz"	"Sound Pressure Level / dB (re 20 µPa/V)  [2.83  V @ 1. m]"	"Frequency / Hz"	"Sound Pressure Level / dB (re 20 µPa/V)  [2.83  V @ 1. m]"	"Frequency / Hz"	"Sound Pressure Level / dB (re 20 µPa/V)  [2.83  V @ 1. m]"	"Frequency / Hz"	"Sound Pressure Level / dB (re 20 µPa/V)  [2.83  V @ 1. m]"	"Frequency / Hz"	"Sound Pressure Level / dB (re 20 µPa/V)  [2.83  V @ 1. m]"	"Frequency / Hz"	"Sound Pressure Level / dB (re 20 µPa/V)  [2.83  V @ 1. m]"	"Frequency / Hz"	"Sound Pressure Level / dB (re 20 µPa/V)  [2.83  V @ 1. m]"	"Frequency / Hz"	"Sound Pressure Level / dB (re 20 µPa/V)  [2.83  V @ 1. m]"	"Frequency / Hz"	"Sound Pressure Level / dB (re 20 µPa/V)  [2.83  V @ 1. m]"	"Frequency / Hz"	"Sound Pressure Level / dB (re 20 µPa/V)  [2.83  V @ 1. m]"	"Frequency / Hz"	"Sound Pressure Level / dB (re 20 µPa/V)  [2.83  V @ 1. m]"	"Frequency / Hz"	"Sound Pressure Level / dB (re 20 µPa/V)  [2.83  V @ 1. m]"	"Frequency / Hz"	"Sound Pressure Level / dB (re 20 µPa/V)  [2.83  V @ 1. m]"	"Frequency / Hz"	"Sound Pressure Level / dB (re 20 µPa/V)  [2.83  V @ 1. m]"	"Frequency / Hz"	"Sound Pressure Level / dB (re 20 µPa/V)  [2.83  V @ 1. m]"	"Frequency / Hz"	"Sound Pressure Level / dB (re 20 µPa/V)  [2.83  V @ 1. m]"	"Frequency / Hz"	"Sound Pressure Level / dB (re 20 µPa/V)  [2.83  V @ 1. m]"	"Frequency / Hz"	"Sound Pressure Level / dB (re 20 µPa/V)  [2.83  V @ 1. m]"	"Frequency / Hz"	"Sound Pressure Level / dB (re 20 µPa/V)  [2.83  V @ 1. m]"	"Frequency / Hz"	"Sound Pressure Level / dB (re 20 µPa/V)  [2.83  V @ 1. m]"	"Frequency / Hz"	"Sound Pressure Level / dB (re 20 µPa/V)  [2.83  V @ 1. m]"	"Frequency / Hz"	"Sound Pressure Level / dB (re 20 µPa/V)  [2.83  V @ 1. m]"	"Frequency / Hz"	"Sound Pressure Level / dB (re 20 µPa/V)  [2.83  V @ 1. m]"	"Frequency / Hz"	"Sound Pressure Level / dB (re 20 µPa/V)  [2.83  V @ 1. m]"	"Frequency / Hz"	"Sound Pressure Level / dB (re 20 µPa/V)  [2.83  V @ 1. m]"	"Frequency / Hz"	"Sound Pressure Level / dB (re 20 µPa/V)  [2.83  V @ 1. m]"	"Frequency / Hz"	"Sound Pressure Level / dB (re 20 µPa/V)  [2.83  V @ 1. m]"	"Frequency / Hz"	"Sound Pressure Level / dB (re 20 µPa/V)  [2.83  V @ 1. m]"	"Frequency / Hz"	"Sound Pressure Level / dB (re 20 µPa/V)  [2.83  V @ 1. m]"	"Frequency / Hz"	"Sound Pressure Level / dB (re 20 µPa/V)  [2.83  V @ 1. m]"	"Frequency / Hz"	"Sound Pressure Level / dB (re 20 µPa/V)  [2.83  V @ 1. m]"	"Frequency / Hz"	"Sound Pressure Level / dB (re 20 µPa/V)  [2.83  V @ 1. m]"	"Frequency / Hz"	"Sound Pressure Level / dB (re 20 µPa/V)  [2.83  V @ 1. m]"	"Frequency / Hz"	"Sound Pressure Level / dB (re 20 µPa/V)  [2.83  V @ 1. m]"	"Frequency / Hz"	"Sound Pressure Level / dB (re 20 µPa/V)  [2.83  V @ 1. m]"
20.5078	64.1522	20.5078	64.1442	20.5078	64.1468	20.5078	64.1225	20.5078	64.1283	20.5078	64.087	20.5078	64.0973	20.5078	64.038	20.5078	64.0543	20.5078	63.9763	20.5078	64	20.5078	63.9037	20.5078	63.9352	20.5078	63.8228	20.5078	63.861	20.5078	63.7367	20.5078	63.7788	20.5078	63.6488	20.5078	63.6909	20.5078	63.562	20.5078	63.5997	20.5078	63.4785	20.5078	63.5083	20.5078	63.4	20.5078	63.4198	20.5078	63.3276	20.5078	63.3372	20.5078	63.2625	20.5078	63.2638	20.5078	63.2066	20.5078	63.2028	20.5078	63.1625	20.5078	63.1572	20.5078	63.1334	20.5078	63.1298	20.5078	63.1219
21.9727	65.4086	21.9727	65.3957	21.9727	65.4095	21.9727	65.3695	21.9727	65.3995	21.9727	65.3296	21.9727	65.3799	21.9727	65.2764	21.9727	65.3519	21.9727	65.2111	21.9727	65.3162	21.9727	65.1362	21.9727	65.2735	21.9727	65.0549	21.9727	65.2249	21.9727	64.9705	21.9727	65.1714	21.9727	64.8868	21.9727	65.1144	21.9727	64.8071	21.9727	65.0554	21.9727	64.7346	21.9727	64.9961	21.9727	64.6728	21.9727	64.9378	21.9727	64.6246	21.9727	64.8815	21.9727	64.593	21.9727	64.8275	21.9727	64.5796	21.9727	64.7759	21.9727	64.5844	21.9727	64.7265	21.9727	64.6053	21.9727	64.68	21.9727	64.6385
23.4375	65.8322	23.4375	65.8189	23.4375	65.8319	23.4375	65.7917	23.4375	65.8188	23.4375	65.751	23.4375	65.7944	23.4375	65.6978	23.4375	65.7604	23.4375	65.6336	23.4375	65.7188	23.4375	65.5603	23.4375	65.6715	23.4375	65.4807	23.4375	65.6203	23.4375	65.3979	23.4375	65.5671	23.4375	65.3158	23.4375	65.5138	23.4375	65.2385	23.4375	65.4618	23.4375	65.1702	23.4375	65.4119	23.4375	65.1141	23.4375	65.3641	23.4375	65.0726	23.4375	65.3172	23.4375	65.0468	23.4375	65.2701	23.4375	65.0367	23.4375	65.2223	23.4375	65.0416	23.4375	65.1748	23.4375	65.0603	23.4375	65.1298	23.4375	65.0906
24.9023	66.7335	24.9023	66.7243	24.9023	66.731	24.9023	66.7031	24.9023	66.7168	24.9023	66.6697	24.9023	66.6908	24.9023	66.6243	24.9023	66.6533	24.9023	66.5672	24.9023	66.6046	24.9023	66.4991	24.9023	66.5456	24.9023	66.4216	24.9023	66.478	24.9023	66.3367	24.9023	66.4037	24.9023	66.247	24.9023	66.3249	24.9023	66.1555	24.9023	66.2436	24.9023	66.0659	24.9023	66.1616	24.9023	65.9816	24.9023	66.0807	24.9023	65.9061	24.9023	66.0028	24.9023	65.8424	24.9023	65.9302	24.9023	65.7933	24.9023	65.8655	24.9023	65.7607	24.9023	65.8121	24.9023	65.7462	24.9023	65.7728	24.9023	65.7504
26.3672	66.9161	26.3672	66.9065	26.3672	66.9108	26.3672	66.8821	26.3672	66.8913	26.3672	66.8436	26.3672	66.8581	26.3672	66.792	26.3672	66.8121	26.3672	66.729	26.3672	66.7545	26.3672	66.6571	26.3672	66.6864	26.3672	66.5791	26.3672	66.6091	26.3672	66.4977	26.3672	66.5247	26.3672	66.4156	26.3672	66.4355	26.3672	66.3352	26.3672	66.3449	26.3672	66.2581	26.3672	66.2564	26.3672	66.1859	26.3672	66.1737	26.3672	66.12	26.3672	66.1	26.3672	66.0618	26.3672	66.0382	26.3672	66.013	26.3672	65.9903	26.3672	65.975	26.3672	65.9573	26.3672	65.9493	26.3672	65.9396	26.3672	65.9372
27.832	68.632	27.832	68.6207	27.832	68.6283	27.832	68.5948	27.832	68.6096	27.832	68.5551	27.832	68.576	27.832	68.5026	27.832	68.5281	27.832	68.4389	27.832	68.4672	27.832	68.3658	27.832	68.3948	27.832	68.2853	27.832	68.3133	27.832	68.1999	27.832	68.2257	27.832	68.1121	27.832	68.1352	27.832	68.0247	27.832	68.045	27.832	67.9404	27.832	67.9582	27.832	67.8618	27.832	67.8774	27.832	67.7913	27.832	67.8047	27.832	67.7309	27.832	67.7421	27.832	67.6822	27.832	67.691	27.832	67.6468	27.832	67.6529	27.832	67.6258	27.832	67.6288	27.832	67.6197
29.2969	69.5423	29.2969	69.5333	29.2969	69.5376	29.2969	69.5109	29.2969	69.5191	29.2969	69.4757	29.2969	69.4875	29.2969	69.4288	29.2969	69.4435	29.2969	69.3715	29.2969	69.3884	29.2969	69.3053	29.2969	69.3237	29.2969	69.2321	29.2969	69.2515	29.2969	69.1539	29.2969	69.1737	29.2969	69.073	29.2969	69.0928	29.2969	68.9917	29.2969	69.0112	29.2969	68.9128	29.2969	68.9315	29.2969	68.8387	29.2969	68.8563	29.2969	68.7719	29.2969	68.7879	29.2969	68.7147	29.2969	68.7285	29.2969	68.6689	29.2969	68.6799	29.2969	68.6359	29.2969	68.6436	29.2969	68.6166	29.2969	68.6206	29.2969	68.6115
30.7617	70.4031	30.7617	70.3905	30.7617	70.4039	30.7617	70.366	30.7617	70.3936	30.7617	70.3297	30.7617	70.3727	30.7617	70.2822	30.7617	70.3423	30.7617	70.2246	30.7617	70.3033	30.7617	70.1585	30.7617	70.257	30.7617	70.0862	30.7617	70.2047	30.7617	70.0103	30.7617	70.1477	30.7617	69.934	30.7617	70.0872	30.7617	69.8606	30.7617	70.0247	30.7617	69.7932	30.7617	69.9615	30.7617	69.7347	30.7617	69.8993	30.7617	69.6872	30.7617	69.8395	30.7617	69.6519	30.7617	69.784	30.7617	69.6293	30.7617	69.7342	30.7617	69.6192	30.7617	69.6919	30.7617	69.6211	30.7617	69.6582	30.7617	69.6344
32.2266	70.8265	32.2266	70.837	32.2266	70.7994	32.2266	70.8308	32.2266	70.7562	32.2266	70.8083	32.2266	70.6979	32.2266	70.7703	32.2266	70.6261	32.2266	70.718	32.2266	70.5427	32.2266	70.653	32.2266	70.45	32.2266	70.577	32.2266	70.3507	32.2266	70.4918	32.2266	70.2478	32.2266	70.3996	32.2266	70.1445	32.2266	70.3027	32.2266	70.0441	32.2266	70.2038	32.2266	69.9504	32.2266	70.1058	32.2266	69.8666	32.2266	70.0119	32.2266	69.796	32.2266	69.925	32.2266	69.741	32.2266	69.8481	32.2266	69.7033	32.2266	69.7837	32.2266	69.6838	32.2266	69.7337	32.2266	69.6827	32.2266	69.6997
33.6914	71.7507	33.6914	71.7439	33.6914	71.743	33.6914	71.7226	33.6914	71.7209	33.6914	71.6876	33.6914	71.6851	33.6914	71.6399	33.6914	71.6367	33.6914	71.5807	33.6914	71.577	33.6914	71.512	33.6914	71.5077	33.6914	71.4357	33.6914	71.4308	33.6914	71.3539	33.6914	71.3483	33.6914	71.269	33.6914	71.2626	33.6914	71.1834	33.6914	71.1762	33.6914	71.0996	33.6914	71.092	33.6914	71.0201	33.6914	71.0128	33.6914	70.9476	33.6914	70.9413	33.6914	70.8846	33.6914	70.8799	33.6914	70.8333	33.6914	70.8302	33.6914	70.7954	33.6914	70.7938	33.6914	70.7723	33.6914	70.7716	33.6914	70.7643
35.1562	72.4282	35.1562	72.4253	35.1562	72.4153	35.1562	72.4068	35.1562	72.3873	35.1562	72.3732	35.1562	72.3451	35.1562	72.3256	35.1562	72.2901	35.1562	72.2653	35.1562	72.2241	35.1562	72.1944	35.1562	72.1491	35.1562	72.115	35.1562	72.0674	35.1562	72.0298	35.1562	71.9815	35.1562	71.9412	35.1562	71.894	35.1562	71.852	35.1562	71.8073	35.1562	71.7649	35.1562	71.7239	35.1562	71.6824	35.1562	71.6462	35.1562	71.607	35.1562	71.5764	35.1562	71.5412	35.1562	71.5166	35.1562	71.4869	35.1562	71.4686	35.1562	71.446	35.1562	71.4339	35.1562	71.4197	35.1562	71.4137	35.1562	71.4089
36.6211	72.9447	36.6211	72.9444	36.6211	72.9291	36.6211	72.9282	36.6211	72.8981	36.6211	72.8966	36.6211	72.8527	36.6211	72.8506	36.6211	72.7942	36.6211	72.7916	36.6211	72.7246	36.6211	72.7215	36.6211	72.6461	36.6211	72.6428	36.6211	72.5615	36.6211	72.5579	36.6211	72.4735	36.6211	72.4698	36.6211	72.3853	36.6211	72.3812	36.6211	72.2997	36.6211	72.295	36.6211	72.2194	36.6211	72.2139	36.6211	72.1467	36.6211	72.1402	36.6211	72.0833	36.6211	72.076	36.6211	72.0305	36.6211	72.0231	36.6211	71.9894	36.6211	71.9829	36.6211	71.9607	36.6211	71.9563	36.6211	71.9454	36.6211	71.9438
38.0859	73.6153	38.0859	73.614	38.0859	73.6006	38.0859	73.5968	38.0859	73.5702	38.0859	73.5644	38.0859	73.5247	38.0859	73.5178	38.0859	73.4656	38.0859	73.4586	38.0859	73.3945	38.0859	73.3887	38.0859	73.3136	38.0859	73.3103	38.0859	73.2255	38.0859	73.2258	38.0859	73.1331	38.0859	73.1379	38.0859	73.0398	38.0859	73.0492	38.0859	72.9487	38.0859	72.9621	38.0859	72.8628	38.0859	72.8792	38.0859	72.7849	38.0859	72.8026	38.0859	72.7172	38.0859	72.7346	38.0859	72.6616	38.0859	72.677	38.0859	72.6194	38.0859	72.6315	38.0859	72.5917	38.0859	72.5994	38.0859	72.5791	38.0859	72.5817
39.5508	74.2626	39.5508	74.2561	39.5508	74.2516	39.5508	74.2326	39.5508	74.2236	39.5508	74.1927	39.5508	74.1792	39.5508	74.1377	39.5508	74.1198	39.5508	74.0693	39.5508	74.0472	39.5508	73.9899	39.5508	73.9637	39.5508	73.9021	39.5508	73.8721	39.5508	73.8088	39.5508	73.7754	39.5508	73.7132	39.5508	73.6772	39.5508	73.6184	39.5508	73.5807	39.5508	73.5275	39.5508	73.4893	39.5508	73.443	39.5508	73.4058	39.5508	73.3672	39.5508	73.3326	39.5508	73.3018	39.5508	73.2715	39.5508	73.2484	39.5508	73.224	39.5508	73.2079	39.5508	73.1908	39.5508	73.1814	39.5508	73.1726	39.5508	73.1695
41.0156	75.0093	41.0156	75.0069	41.0156	74.995	41.0156	74.988	41.0156	74.9647	41.0156	74.9528	41.0156	74.9192	41.0156	74.9023	41.0156	74.8602	41.0156	74.838	41.0156	74.7893	41.0156	74.7619	41.0156	74.7089	41.0156	74.6763	41.0156	74.6214	41.0156	74.5842	41.0156	74.5294	41.0156	74.4886	41.0156	74.4356	41.0156	74.3927	41.0156	74.3427	41.0156	74.2999	41.0156	74.2535	41.0156	74.2128	41.0156	74.1707	41.0156	74.1341	41.0156	74.0968	41.0156	74.0659	41.0156	74.0342	41.0156	74.0098	41.0156	73.9848	41.0156	73.9674	41.0156	73.9499	41.0156	73.9395	41.0156	73.9306	41.0156	73.9271
42.4805	75.6514	42.4805	75.648	42.4805	75.6385	42.4805	75.6285	42.4805	75.6097	42.4805	75.5933	42.4805	75.5659	42.4805	75.5434	42.4805	75.5083	42.4805	75.4802	42.4805	75.4386	42.4805	75.4056	42.4805	75.3589	42.4805	75.3221	42.4805	75.2715	42.4805	75.2323	42.4805	75.1791	42.4805	75.1394	42.4805	75.0844	42.4805	75.0464	42.4805	74.9903	42.4805	74.9563	42.4805	74.8996	42.4805	74.8716	42.4805	74.8154	42.4805	74.7945	42.4805	74.7406	42.4805	74.7268	42.4805	74.6778	42.4805	74.6699	42.4805	74.6292	42.4805	74.6255	42.4805	74.5961	42.4805	74.5948	42.4805	74.5794	42.4805	74.5791
43.9453	76.2009	43.9453	76.2011	43.9453	76.1847	43.9453	76.1854	43.9453	76.1532	43.9453	76.1542	43.9453	76.1075	43.9453	76.1088	43.9453	76.0492	43.9453	76.0508	43.9453	75.9805	43.9453	75.9823	43.9453	75.9037	43.9453	75.9057	43.9453	75.8216	43.9453	75.8236	43.9453	75.7369	43.9453	75.7389	43.9453	75.6524	43.9453	75.6544	43.9453	75.5706	43.9453	75.5728	43.9453	75.494	43.9453	75.4965	43.9453	75.4246	43.9453	75.4276	43.9453	75.3641	43.9453	75.3676	43.9453	75.3141	43.9453	75.3178	43.9453	75.2758	43.9453	75.2792	43.9453	75.25	43.9453	75.2525	43.9453	75.2376	43.9453	75.2385
45.4102	76.6286	45.4102	76.6312	45.4102	76.6098	45.4102	76.6175	45.4102	76.5753	45.4102	76.5877	45.4102	76.5261	45.4102	76.5428	45.4102	76.4637	45.4102	76.4842	45.4102	76.3899	45.4102	76.4136	45.4102	76.307	45.4102	76.3334	45.4102	76.2174	45.4102	76.2459	45.4102	76.1241	45.4102	76.1538	45.4102	76.03	45.4102	76.0601	45.4102	75.9383	45.4102	75.9674	45.4102	75.8519	45.4102	75.8788	45.4102	75.7734	45.4102	75.7971	45.4102	75.7052	45.4102	75.7248	45.4102	75.6489	45.4102	75.6641	45.4102	75.6061	45.4102	75.6167	45.4102	75.5776	45.4102	75.5839	45.4102	75.5642	45.4102	75.5663
46.875	77.3219	46.875	77.3208	46.875	77.3054	46.875	77.3024	46.875	77.2719	46.875	77.2673	46.875	77.2223	46.875	77.2166	46.875	77.1584	46.875	77.1524	46.875	77.082	46.875	77.0766	46.875	76.9957	46.875	76.992	46.875	76.9021	46.875	76.9012	46.875	76.8042	46.875	76.8071	46.875	76.7052	46.875	76.7123	46.875	76.6082	46.875	76.6195	46.875	76.5162	46.875	76.5309	46.875	76.4324	46.875	76.4489	46.875	76.3592	46.875	76.3759	46.875	76.2987	46.875	76.3138	46.875	76.2528	46.875	76.2647	46.875	76.2225	46.875	76.2301	46.875	76.2086	46.875	76.2112
48.3398	77.8551	48.3398	77.8524	48.3398	77.8409	48.3398	77.8329	48.3398	77.8103	48.3398	77.7973	48.3398	77.7645	48.3398	77.7468	48.3398	77.705	48.3398	77.6832	48.3398	77.6337	48.3398	77.6086	48.3398	77.5529	48.3398	77.5256	48.3398	77.4654	48.3398	77.4369	48.3398	77.3739	48.3398	77.3453	48.3398	77.2812	48.3398	77.2534	48.3398	77.1902	48.3398	77.1638	48.3398	77.1035	48.3398	77.079	48.3398	77.0237	48.3398	77.0015	48.3398	76.953	48.3398	76.9335	48.3398	76.8934	48.3398	76.8772	48.3398	76.8464	48.3398	76.8343	48.3398	76.8135	48.3398	76.806	48.3398	76.7955	48.3398	76.7929
51.2695	78.8007	51.2695	78.8044	51.2695	78.7793	51.2695	78.7903	51.2695	78.7408	51.2695	78.7591	51.2695	78.6867	51.2695	78.712	51.2695	78.6188	51.2695	78.6509	51.2695	78.5398	51.2695	78.5782	51.2695	78.4526	51.2695	78.4969	51.2695	78.3606	51.2695	78.41	51.2695	78.2672	51.2695	78.321	51.2695	78.1759	51.2695	78.2328	51.2695	78.0898	51.2695	78.1483	51.2695	78.0116	51.2695	78.0699	51.2695	77.9435	51.2695	77.9992	51.2695	77.8871	51.2695	77.9377	51.2695	77.8432	51.2695	77.8861	51.2695	77.8123	51.2695	77.8451	51.2695	77.7944	51.2695	77.815	51.2695	77.7892	51.2695	77.7962
52.7344	79.3434	52.7344	79.342	52.7344	79.3245	52.7344	79.3204	52.7344	79.286	52.7344	79.2794	52.7344	79.2292	52.7344	79.2202	52.7344	79.1563	52.7344	79.1452	52.7344	79.0699	52.7344	79.0573	52.7344	78.9732	52.7344	78.96	52.7344	78.8699	52.7344	78.8572	52.7344	78.7637	52.7344	78.7529	52.7344	78.6587	52.7344	78.6511	52.7344	78.5585	52.7344	78.555	52.7344	78.4664	52.7344	78.4673	52.7344	78.385	52.7344	78.39	52.7344	78.3163	52.7344	78.3242	52.7344	78.2614	52.7344	78.2706	52.7344	78.221	52.7344	78.2294	52.7344	78.1951	52.7344	78.201	52.7344	78.1834	52.7344	78.1855
54.1992	79.8095	54.1992	79.8024	54.1992	79.7959	54.1992	79.7748	54.1992	79.7623	54.1992	79.7277	54.1992	79.71	54.1992	79.6625	54.1992	79.641	54.1992	79.5817	54.1992	79.5581	54.1992	79.4882	54.1992	79.4644	54.1992	79.3854	54.1992	79.3634	54.1992	79.2771	54.1992	79.2588	54.1992	79.1675	54.1992	79.1543	54.1992	79.0605	54.1992	79.0532	54.1992	78.96	54.1992	78.9586	54.1992	78.8692	54.1992	78.873	54.1992	78.7906	54.1992	78.7982	54.1992	78.7259	54.1992	78.7355	54.1992	78.676	54.1992	78.6856	54.1992	78.6414	54.1992	78.649	54.1992	78.6218	54.1992	78.6259	54.1992	78.6168
55.6641	80.235	55.6641	80.2301	55.6641	80.2188	55.6641	80.2048	55.6641	80.1818	55.6641	80.16	55.6641	80.1248	55.6641	80.0976	55.6641	80.0494	55.6641	80.0195	55.6641	79.9582	55.6641	79.9284	55.6641	79.8544	55.6641	79.8273	55.6641	79.7419	55.6641	79.7193	55.6641	79.6251	55.6641	79.608	55.6641	79.5086	55.6641	79.4971	55.6641	79.397	55.6641	79.39	55.6641	79.2942	55.6641	79.2902	55.6641	79.2035	55.6641	79.2008	55.6641	79.1268	55.6641	79.1243	55.6641	79.0652	55.6641	79.0624	55.6641	79.0191	55.6641	79.0162	55.6641	78.9882	55.6641	78.986	55.6641	78.9723	55.6641	78.9715
58.5938	81.0681	58.5938	81.0585	58.5938	81.0579	58.5938	81.0295	58.5938	81.0286	58.5938	80.9817	58.5938	80.9812	58.5938	80.9166	58.5938	80.9175	58.5938	80.8363	58.5938	80.8397	58.5938	80.7436	58.5938	80.7503	58.5938	80.6417	58.5938	80.6523	58.5938	80.5341	58.5938	80.5489	58.5938	80.4246	58.5938	80.4432	58.5938	80.3169	58.5938	80.3385	58.5938	80.2146	58.5938	80.2377	58.5938	80.1208	58.5938	80.1436	58.5938	80.0381	58.5938	80.0589	58.5938	79.9684	58.5938	79.9859	58.5938	79.9132	58.5938	79.9266	58.5938	79.8736	58.5938	79.8826	58.5938	79.8504	58.5938	79.8549	58.5938	79.8441
60.0586	81.4246	60.0586	81.4214	60.0586	81.4104	60.0586	81.4008	60.0586	81.3794	60.0586	81.3635	60.0586	81.3328	60.0586	81.3111	60.0586	81.2725	60.0586	81.2455	60.0586	81.201	60.0586	81.1693	60.0586	81.1208	60.0586	81.0852	60.0586	81.035	60.0586	80.9965	60.0586	80.9466	60.0586	80.9062	60.0586	80.8586	60.0586	80.8175	60.0586	80.7734	60.0586	80.7331	60.0586	80.6936	60.0586	80.6555	60.0586	80.6213	60.0586	80.5866	60.0586	80.558	60.0586	80.528	60.0586	80.5051	60.0586	80.4809	60.0586	80.4637	60.0586	80.4459	60.0586	80.4345	60.0586	80.4236	60.0586	80.4179	60.0586	80.4143
62.9883	82.2442	62.9883	82.2365	62.9883	82.2327	62.9883	82.21	62.9883	82.2024	62.9883	82.1655	62.9883	82.1546	62.9883	82.105	62.9883	82.0911	62.9883	82.0309	62.9883	82.0145	62.9883	81.9459	62.9883	81.9279	62.9883	81.8537	62.9883	81.8349	62.9883	81.7577	62.9883	81.7392	62.9883	81.6617	62.9883	81.6445	62.9883	81.5691	62.9883	81.5542	62.9883	81.4831	62.9883	81.471	62.9883	81.4062	62.9883	81.3972	62.9883	81.34	62.9883	81.3339	62.9883	81.2857	62.9883	81.282	62.9883	81.2436	62.9883	81.2417	62.9883	81.2138	62.9883	81.213	62.9883	81.1961	62.9883	81.1959	62.9883	81.1902
64.4531	82.5647	64.4531	82.5575	64.4531	82.5521	64.4531	82.5307	64.4531	82.5199	64.4531	82.4856	64.4531	82.4693	64.4531	82.4242	64.4531	82.4023	64.4531	82.3491	64.4531	82.3216	64.4531	82.2635	64.4531	82.2306	64.4531	82.1709	64.4531	82.1329	64.4531	82.0751	64.4531	82.0326	64.4531	81.9794	64.4531	81.9337	64.4531	81.8874	64.4531	81.84	64.4531	81.8017	64.4531	81.7544	64.4531	81.7245	64.4531	81.6795	64.4531	81.6574	64.4531	81.6167	64.4531	81.6014	64.4531	81.5667	64.4531	81.5568	64.4531	81.5297	64.4531	81.5238	64.4531	81.5052	64.4531	81.5022	64.4531	81.4927	64.4531	81.4918
67.3828	83.1962	67.3828	83.1821	67.3828	83.1911	67.3828	83.1493	67.3828	83.1671	67.3828	83.0992	67.3828	83.1253	67.3828	83.0337	67.3828	83.0676	67.3828	82.9559	67.3828	82.9963	67.3828	82.8689	67.3828	82.9144	67.3828	82.7767	67.3828	82.8252	67.3828	82.6831	67.3828	82.7324	67.3828	82.5917	67.3828	82.6395	67.3828	82.5057	67.3828	82.5501	67.3828	82.4278	67.3828	82.4675	67.3828	82.3599	67.3828	82.394	67.3828	82.3031	67.3828	82.3315	67.3828	82.258	67.3828	82.2806	67.3828	82.2246	67.3828	82.2415	67.3828	82.2022	67.3828	82.2136	67.3828	82.1904	67.3828	82.1961	67.3828	82.1884
