"SPL Vertical"
"On-Axis"		"10°"		"-10°"		"20°"		"-20°"		"30°"		"-30°"		"40°"		"-40°"		"50°"		"-50°"		"60°"		"-60°"		"70°"		"-70°"		"80°"		"-80°"		"90°"		"-90°"		"100°"		"-100°"		"110°"		"-110°"		"120°"		"-120°"		"130°"		"-130°"		"140°"		"-140°"		"150°"		"-150°"		"160°"		"-160°"		"170°"		"-170°"		"180°"
"Frequency / Hz"	"Sound Pressure Level / dB (re 20 µPa/V)  [2.83  V @ 1. m]"	"Frequency / Hz"	"Sound Pressure Level / dB (re 20 µPa/V)  [2.83  V @ 1. m]"	"Frequency / Hz"	"Sound Pressure Level / dB (re 20 µPa/V)  [2.83  V @ 1. m]"	"Frequency / Hz"	"Sound Pressure Level / dB (re 20 µPa/V)  [2.83  V @ 1. m]"	"Frequency / Hz"	"Sound Pressure Level / dB (re 20 µPa/V)  [2.83  V @ 1. m]"	"Frequency / Hz"	"Sound Pressure Level / dB (re 20 µPa/V)  [2.83  V @ 1. m]"	"Frequency / Hz"	"Sound Pressure Level / dB (re 20 µPa/V)  [2.83  V @ 1. m]"	"Frequency / Hz"	"Sound Pressure Level / dB (re 20 µPa/V)  [2.83  V @ 1. m]"	"Frequency / Hz"	"Sound Pressure Level / dB (re 20 µPa/V)  [2.83  V @ 1. m]"	"Frequency / Hz"	"Sound Pressure Level / dB (re 20 µPa/V)  [2.83  V @ 1. m]"	"Frequency / Hz"	"Sound Pressure Level / dB (re 20 µPa/V)  [2.83  V @ 1. m]"	"Frequency / Hz"	"Sound Pressure Level / dB (re 20 µPa/V)  [2.83  V @ 1. m]"	"Frequency / Hz"	"Sound Pressure Level / dB (re 20 µPa/V)  [2.83  V @ 1. m]"	"Frequency / Hz"	"Sound Pressure Level / dB (re 20 µPa/V)  [2.83  V @ 1. m]"	"Frequency / Hz"	"Sound Pressure Level / dB (re 20 µPa/V)  [2.83  V @ 1. m]"	"Frequency / Hz"	"Sound Pressure Level / dB (re 20 µPa/V)  [2.83  V @ 1. m]"	"Frequency / Hz"	"Sound Pressure Level / dB (re 20 µPa/V)  [2.83  V @ 1. m]"	"Frequency / Hz"	"Sound Pressure Level / dB (re 20 µPa/V)  [2.83  V @ 1. m]"	"Frequency / Hz"	"Sound Pressure Level / dB (re 20 µPa/V)  [2.83  V @ 1. m]"	"Frequency / Hz"	"Sound Pressure Level / dB (re 20 µPa/V)  [2.83  V @ 1. m]"	"Frequency / Hz"	"Sound Pressure Level / dB (re 20 µPa/V)  [2.83  V @ 1. m]"	"Frequency / Hz"	"Sound Pressure Level / dB (re 20 µPa/V)  [2.83  V @ 1. m]"	"Frequency / Hz"	"Sound Pressure Level / dB (re 20 µPa/V)  [2.83  V @ 1. m]"	"Frequency / Hz"	"Sound Pressure Level / dB (re 20 µPa/V)  [2.83  V @ 1. m]"	"Frequency / Hz"	"Sound Pressure Level / dB (re 20 µPa/V)  [2.83  V @ 1. m]"	"Frequency / Hz"	"Sound Pressure Level / dB (re 20 µPa/V)  [2.83  V @ 1. m]"	"Frequency / Hz"	"Sound Pressure Level / dB (re 20 µPa/V)  [2.83  V @ 1. m]"	"Frequency / Hz"	"Sound Pressure Level / dB (re 20 µPa/V)  [2.83  V @ 1. m]"	"Frequency / Hz"	"Sound Pressure Level / dB (re 20 µPa/V)  [2.83  V @ 1. m]"	"Frequency / Hz"	"Sound Pressure Level / dB (re 20 µPa/V)  [2.83  V @ 1. m]"	"Frequency / Hz"	"Sound Pressure Level / dB (re 20 µPa/V)  [2.83  V @ 1. m]"	"Frequency / Hz"	"Sound Pressure Level / dB (re 20 µPa/V)  [2.83  V @ 1. m]"	"Frequency / Hz"	"Sound Pressure Level / dB (re 20 µPa/V)  [2.83  V @ 1. m]"	"Frequency / Hz"	"Sound Pressure Level / dB (re 20 µPa/V)  [2.83  V @ 1. m]"	"Frequency / Hz"	"Sound Pressure Level / dB (re 20 µPa/V)  [2.83  V @ 1. m]"	"Frequency / Hz"	"Sound Pressure Level / dB (re 20 µPa/V)  [2.83  V @ 1. m]"
20.5078	64.1522	20.5078	63.968	20.5078	64.3281	20.5078	63.7804	20.5078	64.4903	20.5078	63.5939	20.5078	64.6331	20.5078	63.4124	20.5078	64.7505	20.5078	63.24	20.5078	64.8364	20.5078	63.0803	20.5078	64.8859	20.5078	62.9367	20.5078	64.8951	20.5078	62.8126	20.5078	64.8621	20.5078	62.7112	20.5078	64.7874	20.5078	62.6351	20.5078	64.6735	20.5078	62.5869	20.5078	64.5253	20.5078	62.5687	20.5078	64.3489	20.5078	62.582	20.5078	64.1517	20.5078	62.6278	20.5078	63.9415	20.5078	62.7063	20.5078	63.726	20.5078	62.8163	20.5078	63.513	20.5078	62.956	20.5078	63.3094	20.5078	63.1219
21.9727	65.4086	21.9727	65.236	21.9727	65.5746	21.9727	65.0617	21.9727	65.7288	21.9727	64.8902	21.9727	65.8655	21.9727	64.7256	21.9727	65.9792	21.9727	64.5717	21.9727	66.0644	21.9727	64.4321	21.9727	66.1165	21.9727	64.3103	21.9727	66.1322	21.9727	64.2092	21.9727	66.1098	21.9727	64.1316	21.9727	66.05	21.9727	64.08	21.9727	65.9554	21.9727	64.0559	21.9727	65.8308	21.9727	64.0605	21.9727	65.682	21.9727	64.0939	21.9727	65.5158	21.9727	64.1553	21.9727	65.3389	21.9727	64.2432	21.9727	65.1576	21.9727	64.3551	21.9727	64.9774	21.9727	64.488	21.9727	64.8029	21.9727	64.6385
23.4375	65.8322	23.4375	65.63	23.4375	66.0263	23.4375	65.4264	23.4375	66.2055	23.4375	65.2272	23.4375	66.3629	23.4375	65.0381	23.4375	66.4923	23.4375	64.8641	23.4375	66.5881	23.4375	64.7094	23.4375	66.646	23.4375	64.5782	23.4375	66.6635	23.4375	64.4737	23.4375	66.6402	23.4375	64.3988	23.4375	66.5774	23.4375	64.3557	23.4375	66.4789	23.4375	64.3454	23.4375	66.35	23.4375	64.3684	23.4375	66.1968	23.4375	64.4239	23.4375	66.0257	23.4375	64.5099	23.4375	65.8429	23.4375	64.6236	23.4375	65.6536	23.4375	64.7612	23.4375	65.4624	23.4375	64.9183	23.4375	65.2733	23.4375	65.0906
24.9023	66.7335	24.9023	66.554	24.9023	66.9027	24.9023	66.3693	24.9023	67.0561	24.9023	66.1847	24.9023	67.1885	24.9023	66.005	24.9023	67.2948	24.9023	65.8349	24.9023	67.3703	24.9023	65.6785	24.9023	67.4112	24.9023	65.5396	24.9023	67.4147	24.9023	65.4216	24.9023	67.3795	24.9023	65.3273	24.9023	67.3063	24.9023	65.2591	24.9023	67.1976	24.9023	65.219	24.9023	67.0579	24.9023	65.2081	24.9023	66.8929	24.9023	65.2271	24.9023	66.709	24.9023	65.2762	24.9023	66.5134	24.9023	65.3548	24.9023	66.3131	24.9023	65.4615	24.9023	66.115	24.9023	65.5944	24.9023	65.9255	24.9023	65.7504
26.3672	66.9161	26.3672	66.7445	26.3672	67.0805	26.3672	66.5708	26.3672	67.232	26.3672	66.3996	26.3672	67.3645	26.3672	66.2348	26.3672	67.4716	26.3672	66.0797	26.3672	67.5474	26.3672	65.9375	26.3672	67.5869	26.3672	65.8108	26.3672	67.5867	26.3672	65.702	26.3672	67.5455	26.3672	65.6134	26.3672	67.4646	26.3672	65.547	26.3672	67.3476	26.3672	65.5044	26.3672	67.2005	26.3672	65.4871	26.3672	67.0302	26.3672	65.496	26.3672	66.8446	26.3672	65.5318	26.3672	66.6516	26.3672	65.5947	26.3672	66.4582	26.3672	65.6842	26.3672	66.2711	26.3672	65.799	26.3672	66.0959	26.3672	65.9372
27.832	68.632	27.832	68.4743	27.832	68.7808	27.832	68.3124	27.832	68.9156	27.832	68.1507	27.832	69.0309	27.832	67.9933	27.832	69.1214	27.832	67.8435	27.832	69.1819	27.832	67.7046	27.832	69.2083	27.832	67.5795	27.832	69.1978	27.832	67.4707	27.832	69.1496	27.832	67.3805	27.832	69.065	27.832	67.3109	27.832	68.9479	27.832	67.2635	27.832	68.8037	27.832	67.2396	27.832	68.6395	27.832	67.2403	27.832	68.4624	27.832	67.2662	27.832	68.2799	27.832	67.3177	27.832	68.0988	27.832	67.3945	27.832	67.9251	27.832	67.4957	27.832	67.7639	27.832	67.6197
29.2969	69.5423	29.2969	69.3831	29.2969	69.6935	29.2969	69.221	29.2969	69.8309	29.2969	69.0608	29.2969	69.9488	29.2969	68.9067	29.2969	70.0415	29.2969	68.7622	29.2969	70.104	29.2969	68.6305	29.2969	70.132	29.2969	68.514	29.2969	70.1232	29.2969	68.4149	29.2969	70.0769	29.2969	68.335	29.2969	69.9948	29.2969	68.2757	29.2969	69.8809	29.2969	68.2381	29.2969	69.7412	29.2969	68.223	29.2969	69.5826	29.2969	68.231	29.2969	69.4125	29.2969	68.2622	29.2969	69.2382	29.2969	68.3166	29.2969	69.066	29.2969	68.3937	29.2969	68.9014	29.2969	68.4925	29.2969	68.7487	29.2969	68.6115
30.7617	70.4031	30.7617	70.2377	30.7617	70.5625	30.7617	70.0714	30.7617	70.7103	30.7617	69.9088	30.7617	70.8406	30.7617	69.7541	30.7617	70.9479	30.7617	69.6109	30.7617	71.0266	30.7617	69.4822	30.7617	71.0724	30.7617	69.3706	30.7617	71.0823	30.7617	69.2785	30.7617	71.0554	30.7617	69.2075	30.7617	70.9927	30.7617	69.1591	30.7617	70.8975	30.7617	69.1343	30.7617	70.7743	30.7617	69.134	30.7617	70.6292	30.7617	69.1584	30.7617	70.4684	30.7617	69.2077	30.7617	70.2981	30.7617	69.2814	30.7617	70.1243	30.7617	69.3784	30.7617	69.9524	30.7617	69.4969	30.7617	69.7876	30.7617	69.6344
32.2266	70.8265	32.2266	70.6743	32.2266	70.9665	32.2266	70.5152	32.2266	71.0888	32.2266	70.3542	32.2266	71.188	32.2266	70.1959	32.2266	71.2593	32.2266	70.0444	32.2266	71.2985	32.2266	69.9032	32.2266	71.3027	32.2266	69.7753	32.2266	71.2705	32.2266	69.6633	32.2266	71.2024	32.2266	69.5692	32.2266	71.101	32.2266	69.4948	32.2266	70.9708	32.2266	69.4413	32.2266	70.8181	32.2266	69.4098	32.2266	70.6501	32.2266	69.4008	32.2266	70.4745	32.2266	69.4147	32.2266	70.2984	32.2266	69.4517	32.2266	70.1281	32.2266	69.5119	32.2266	69.9689	32.2266	69.5948	32.2266	69.8251	32.2266	69.6997
33.6914	71.7507	33.6914	71.5987	33.6914	71.8921	33.6914	71.441	33.6914	72.0177	33.6914	71.2825	33.6914	72.1223	33.6914	71.1277	33.6914	72.2013	33.6914	70.9806	33.6914	72.2503	33.6914	70.8448	33.6914	72.2662	33.6914	70.7235	33.6914	72.247	33.6914	70.6191	33.6914	72.1929	33.6914	70.5339	33.6914	72.1059	33.6914	70.4694	33.6914	71.9903	33.6914	70.4269	33.6914	71.8516	33.6914	70.4071	33.6914	71.6965	33.6914	70.4104	33.6914	71.5318	33.6914	70.4369	33.6914	71.364	33.6914	70.4864	33.6914	71.1987	33.6914	70.5582	33.6914	71.0411	33.6914	70.6513	33.6914	70.8951	33.6914	70.7643
35.1562	72.4282	35.1562	72.2596	35.1562	72.5865	35.1562	72.0866	35.1562	72.7287	35.1562	71.9143	35.1562	72.8487	35.1562	71.7474	35.1562	72.9409	35.1562	71.5902	35.1562	73.0002	35.1562	71.4463	35.1562	73.023	35.1562	71.3189	35.1562	73.0072	35.1562	71.2105	35.1562	72.953	35.1562	71.1231	35.1562	72.8627	35.1562	71.0584	35.1562	72.7407	35.1562	71.0174	35.1562	72.5931	35.1562	71.0007	35.1562	72.4268	35.1562	71.0087	35.1562	72.2491	35.1562	71.0414	35.1562	72.0669	35.1562	71.0986	35.1562	71.8867	35.1562	71.1796	35.1562	71.7139	35.1562	71.2836	35.1562	71.5533	35.1562	71.4089
36.6211	72.9447	36.6211	72.7781	36.6211	73.1011	36.6211	72.6069	36.6211	73.2412	36.6211	72.4363	36.6211	73.3592	36.6211	72.271	36.6211	73.4495	36.6211	72.1155	36.6211	73.5073	36.6211	71.9733	36.6211	73.529	36.6211	71.8476	36.6211	73.5125	36.6211	71.741	36.6211	73.458	36.6211	71.6556	36.6211	73.3678	36.6211	71.5929	36.6211	73.2465	36.6211	71.5538	36.6211	73.1002	36.6211	71.539	36.6211	72.936	36.6211	71.5485	36.6211	72.7614	36.6211	71.5822	36.6211	72.5832	36.6211	71.6396	36.6211	72.4076	36.6211	71.7198	36.6211	72.2398	36.6211	71.8217	36.6211	72.084	36.6211	71.9438
38.0859	73.6153	38.0859	73.4503	38.0859	73.7696	38.0859	73.2802	38.0859	73.9074	38.0859	73.1103	38.0859	74.0228	38.0859	72.9452	38.0859	74.1105	38.0859	72.7892	38.0859	74.1655	38.0859	72.6461	38.0859	74.1842	38.0859	72.5189	38.0859	74.1649	38.0859	72.4104	38.0859	74.1075	38.0859	72.3226	38.0859	74.0146	38.0859	72.257	38.0859	73.8906	38.0859	72.2147	38.0859	73.7419	38.0859	72.1965	38.0859	73.5755	38.0859	72.2024	38.0859	73.3991	38.0859	72.2324	38.0859	73.2195	38.0859	72.2861	38.0859	73.0432	38.0859	72.363	38.0859	72.8753	38.0859	72.4619	38.0859	72.7204	38.0859	72.5817
39.5508	74.2626	39.5508	74.0946	39.5508	74.4192	39.5508	73.9211	39.5508	74.5584	39.5508	73.7474	39.5508	74.6741	39.5508	73.5785	39.5508	74.7608	39.5508	73.4187	39.5508	74.8135	39.5508	73.2718	39.5508	74.8287	39.5508	73.1411	39.5508	74.8046	39.5508	73.029	39.5508	74.7414	39.5508	72.9378	39.5508	74.6418	39.5508	72.8689	39.5508	74.5106	39.5508	72.8234	39.5508	74.3545	39.5508	72.8019	39.5508	74.181	39.5508	72.8046	39.5508	73.998	39.5508	72.8313	39.5508	73.8131	39.5508	72.8818	39.5508	73.6329	39.5508	72.9555	39.5508	73.4628	39.5508	73.0517	39.5508	73.3073	39.5508	73.1695
41.0156	75.0093	41.0156	74.8417	41.0156	75.1656	41.0156	74.6686	41.0156	75.3047	41.0156	74.4957	41.0156	75.4204	41.0156	74.3277	41.0156	75.5073	41.0156	74.1689	41.0156	75.5604	41.0156	74.0232	41.0156	75.5764	41.0156	73.8937	41.0156	75.5535	41.0156	73.7829	41.0156	75.4919	41.0156	73.6928	41.0156	75.3943	41.0156	73.6248	41.0156	75.2653	41.0156	73.58	41.0156	75.1113	41.0156	73.5587	41.0156	74.9395	41.0156	73.5614	41.0156	74.7578	41.0156	73.588	41.0156	74.5734	41.0156	73.6383	41.0156	74.393	41.0156	73.7121	41.0156	74.2222	41.0156	73.8087	41.0156	74.0658	41.0156	73.9271
42.4805	75.6514	42.4805	75.4856	42.4805	75.8058	42.4805	75.314	42.4805	75.943	42.4805	75.142	42.4805	76.0572	42.4805	74.9745	42.4805	76.1428	42.4805	74.8158	42.4805	76.1953	42.4805	74.6698	42.4805	76.211	42.4805	74.5397	42.4805	76.1884	42.4805	74.4283	42.4805	76.1275	42.4805	74.3377	42.4805	76.0311	42.4805	74.2694	42.4805	75.9037	42.4805	74.2246	42.4805	75.7517	42.4805	74.2038	42.4805	75.5823	42.4805	74.2073	42.4805	75.403	42.4805	74.2351	42.4805	75.221	42.4805	74.2869	42.4805	75.0427	42.4805	74.3621	42.4805	74.8735	42.4805	74.4599	42.4805	74.7178	42.4805	74.5791
43.9453	76.2009	43.9453	76.0386	43.9453	76.3525	43.9453	75.8713	43.9453	76.4876	43.9453	75.7042	43.9453	76.6006	43.9453	75.5423	43.9453	76.6862	43.9453	75.3899	43.9453	76.7398	43.9453	75.2508	43.9453	76.7583	43.9453	75.1283	43.9453	76.74	43.9453	75.0249	43.9453	76.6853	43.9453	74.9428	43.9453	76.5968	43.9453	74.8833	43.9453	76.4793	43.9453	74.8473	43.9453	76.3387	43.9453	74.8353	43.9453	76.1819	43.9453	74.8472	43.9453	76.016	43.9453	74.8826	43.9453	75.8471	43.9453	74.9406	43.9453	75.6808	43.9453	75.0203	43.9453	75.5216	43.9453	75.1202	43.9453	75.3731	43.9453	75.2385
45.4102	76.6286	45.4102	76.4613	45.4102	76.785	45.4102	76.2888	45.4102	76.9243	45.4102	76.1164	45.4102	77.0407	45.4102	75.9491	45.4102	77.1285	45.4102	75.7911	45.4102	77.1826	45.4102	75.6463	45.4102	77.1994	45.4102	75.518	45.4102	77.177	45.4102	75.4089	45.4102	77.1155	45.4102	75.3208	45.4102	77.0176	45.4102	75.2553	45.4102	76.8881	45.4102	75.2133	45.4102	76.7338	45.4102	75.195	45.4102	76.5622	45.4102	75.2005	45.4102	76.3814	45.4102	75.2293	45.4102	76.199	45.4102	75.281	45.4102	76.0215	45.4102	75.3549	45.4102	75.8543	45.4102	75.4503	45.4102	75.7016	45.4102	75.5663
46.875	77.3219	46.875	77.1557	46.875	77.4768	46.875	76.984	46.875	77.6147	46.875	76.812	46.875	77.7295	46.875	76.6444	46.875	77.8156	46.875	76.4855	46.875	77.8682	46.875	76.3391	46.875	77.8835	46.875	76.2084	46.875	77.8597	46.875	76.0959	46.875	77.7971	46.875	76.0037	46.875	77.6981	46.875	75.9334	46.875	77.5672	46.875	75.8857	46.875	77.4108	46.875	75.8614	46.875	77.2362	46.875	75.8607	46.875	77.0511	46.875	75.8837	46.875	76.8633	46.875	75.9303	46.875	76.6798	46.875	76.0007	46.875	76.5069	46.875	76.0945	46.875	76.3494	46.875	76.2112
48.3398	77.8551	48.3398	77.6909	48.3398	78.0079	48.3398	77.5211	48.3398	78.1437	48.3398	77.3509	48.3398	78.2567	48.3398	77.1852	48.3398	78.3413	48.3398	77.0284	48.3398	78.3932	48.3398	76.8844	48.3398	78.4088	48.3398	76.7564	48.3398	78.3867	48.3398	76.6471	48.3398	78.3273	48.3398	76.5584	48.3398	78.2329	48.3398	76.4918	48.3398	78.1082	48.3398	76.4481	48.3398	77.9589	48.3398	76.4277	48.3398	77.7918	48.3398	76.4308	48.3398	77.6143	48.3398	76.4573	48.3398	77.4331	48.3398	76.507	48.3398	77.2551	48.3398	76.5799	48.3398	77.0859	48.3398	76.6755	48.3398	76.9306	48.3398	76.7929
51.2695	78.8007	51.2695	78.6332	51.2695	78.9551	51.2695	78.4586	51.2695	79.0903	51.2695	78.2829	51.2695	79.2008	51.2695	78.1117	51.2695	79.2817	51.2695	77.9504	51.2695	79.329	51.2695	77.8034	51.2695	79.3401	51.2695	77.6747	51.2695	79.3142	51.2695	77.5672	51.2695	79.2525	51.2695	77.4832	51.2695	79.1581	51.2695	77.4238	51.2695	79.036	51.2695	77.3896	51.2695	78.8926	51.2695	77.3806	51.2695	78.7347	51.2695	77.396	51.2695	78.5686	51.2695	77.4348	51.2695	78.4005	51.2695	77.4957	51.2695	78.2353	51.2695	77.5772	51.2695	78.0774	51.2695	77.6779	51.2695	77.9301	51.2695	77.7962
52.7344	79.3434	52.7344	79.1788	52.7344	79.4916	52.7344	79.0036	52.7344	79.618	52.7344	78.8239	52.7344	79.7175	52.7344	78.6456	52.7344	79.7858	52.7344	78.4742	52.7344	79.8196	52.7344	78.315	52.7344	79.8169	52.7344	78.1724	52.7344	79.7772	52.7344	78.05	52.7344	79.702	52.7344	77.9507	52.7344	79.5949	52.7344	77.8765	52.7344	79.4613	52.7344	77.8284	52.7344	79.3077	52.7344	77.8069	52.7344	79.1412	52.7344	77.8114	52.7344	78.9685	52.7344	77.8413	52.7344	78.7955	52.7344	77.8952	52.7344	78.627	52.7344	77.9717	52.7344	78.4671	52.7344	78.0691	52.7344	78.319	52.7344	78.1855
54.1992	79.8095	54.1992	79.6481	54.1992	79.9547	54.1992	79.4764	54.1992	80.0784	54.1992	79.3001	54.1992	80.1755	54.1992	79.1246	54.1992	80.2412	54.1992	78.9554	54.1992	80.2721	54.1992	78.7973	54.1992	80.2656	54.1992	78.6547	54.1992	80.2213	54.1992	78.5311	54.1992	80.1407	54.1992	78.4294	54.1992	80.0275	54.1992	78.3517	54.1992	79.8879	54.1992	78.2993	54.1992	79.7289	54.1992	78.2726	54.1992	79.5584	54.1992	78.2716	54.1992	79.3837	54.1992	78.2957	54.1992	79.2107	54.1992	78.3437	54.1992	79.0444	54.1992	78.4143	54.1992	78.8882	54.1992	78.5059	54.1992	78.7449	54.1992	78.6168
55.6641	80.235	55.6641	80.0691	55.6641	80.3858	55.6641	79.8939	55.6641	80.5155	55.6641	79.7148	55.6641	80.6183	55.6641	79.5369	55.6641	80.6886	55.6641	79.365	55.6641	80.7216	55.6641	79.2037	55.6641	80.7143	55.6641	79.057	55.6641	80.6656	55.6641	78.9286	55.6641	80.5771	55.6641	78.8215	55.6641	80.453	55.6641	78.738	55.6641	80.3001	55.6641	78.6797	55.6641	80.1269	55.6641	78.6476	55.6641	79.9424	55.6641	78.6417	55.6641	79.7555	55.6641	78.6617	55.6641	79.5732	55.6641	78.7062	55.6641	79.4008	55.6641	78.7739	55.6641	79.2418	55.6641	78.8628	55.6641	79.0982	55.6641	78.9715
58.5938	81.0681	58.5938	80.8975	58.5938	81.2249	58.5938	80.7192	58.5938	81.3618	58.5938	80.539	58.5938	81.4728	58.5938	80.3623	58.5938	81.5525	58.5938	80.1937	58.5938	81.5961	58.5938	80.0377	58.5938	81.6005	58.5938	79.8976	58.5938	81.5642	58.5938	79.7764	58.5938	81.488	58.5938	79.6763	58.5938	81.3751	58.5938	79.5988	58.5938	81.2308	58.5938	79.545	58.5938	81.0621	58.5938	79.5155	58.5938	80.8772	58.5938	79.5104	58.5938	80.6844	58.5938	79.5296	58.5938	80.4918	58.5938	79.573	58.5938	80.3065	58.5938	79.6402	58.5938	80.1342	58.5938	79.7308	58.5938	79.9791	58.5938	79.8441
60.0586	81.4246	60.0586	81.2581	60.0586	81.5793	60.0586	81.0859	60.0586	81.716	60.0586	80.9136	60.0586	81.8288	60.0586	80.7467	60.0586	81.9121	60.0586	80.5901	60.0586	81.9615	60.0586	80.4478	60.0586	81.9738	60.0586	80.3233	60.0586	81.9479	60.0586	80.2193	60.0586	81.8849	60.0586	80.1376	60.0586	81.7879	60.0586	80.0791	60.0586	81.6622	60.0586	80.0443	60.0586	81.5145	60.0586	80.0331	60.0586	81.3519	60.0586	80.0447	60.0586	81.1818	60.0586	80.0784	60.0586	81.0107	60.0586	80.1332	60.0586	80.8444	60.0586	80.2081	60.0586	80.6875	60.0586	80.3021	60.0586	80.5433	60.0586	80.4143
62.9883	82.2442	62.9883	82.0685	62.9883	82.4058	62.9883	81.8854	62.9883	82.5468	62.9883	81.7015	62.9883	82.661	62.9883	81.5228	62.9883	82.7429	62.9883	81.355	62.9883	82.7885	62.9883	81.2029	62.9883	82.7951	62.9883	81.0706	62.9883	82.7622	62.9883	80.9611	62.9883	82.6916	62.9883	80.8764	62.9883	82.5872	62.9883	80.8178	62.9883	82.4549	62.9883	80.7852	62.9883	82.3015	62.9883	80.7781	62.9883	82.1348	62.9883	80.7954	62.9883	81.962	62.9883	80.8354	62.9883	81.7895	62.9883	80.8964	62.9883	81.6227	62.9883	80.9769	62.9883	81.4655	62.9883	81.0752	62.9883	81.3207	62.9883	81.1902
64.4531	82.5647	64.4531	82.3896	64.4531	82.7246	64.4531	82.2059	64.4531	82.8627	64.4531	82.0204	64.4531	82.9732	64.4531	81.8393	64.4531	83.0509	64.4531	81.6686	64.4531	83.0921	64.4531	81.5133	64.4531	83.0946	64.4531	81.3777	64.4531	83.0584	64.4531	81.2652	64.4531	82.9855	64.4531	81.1779	64.4531	82.88	64.4531	81.117	64.4531	82.7477	64.4531	81.0828	64.4531	82.5955	64.4531	81.0747	64.4531	82.4307	64.4531	81.0917	64.4531	82.2602	64.4531	81.132	64.4531	82.0898	64.4531	81.1939	64.4531	81.9246	64.4531	81.2756	64.4531	81.7682	64.4531	81.3754	64.4531	81.6232	64.4531	81.4918
67.3828	83.1962	67.3828	83.02	67.3828	83.3578	67.3828	82.8359	67.3828	83.4983	67.3828	82.6506	67.3828	83.6118	67.3828	82.4705	67.3828	83.6932	67.3828	82.3018	67.3828	83.7388	67.3828	82.1495	67.3828	83.7464	67.3828	82.0179	67.3828	83.7157	67.3828	81.9103	67.3828	83.6486	67.3828	81.8288	67.3828	83.549	67.3828	81.7742	67.3828	83.4225	67.3828	81.7468	67.3828	83.2758	67.3828	81.7454	67.3828	83.116	67.3828	81.7688	67.3828	82.9496	67.3828	81.815	67.3828	82.7826	67.3828	81.8819	67.3828	82.6198	67.3828	81.9676	67.3828	82.4649	67.3828	82.0703	67.3828	82.3204	67.3828	82.1884
