"SPL Horizontal"
"On-Axis"		"10°"		"-10°"		"20°"		"-20°"		"30°"		"-30°"		"40°"		"-40°"		"50°"		"-50°"		"60°"		"-60°"		"70°"		"-70°"		"80°"		"-80°"		"90°"		"-90°"		"100°"		"-100°"		"110°"		"-110°"		"120°"		"-120°"		"130°"		"-130°"		"140°"		"-140°"		"150°"		"-150°"		"160°"		"-160°"		"170°"		"-170°"		"180°"
"Frequency [Hz]"	"Sound Pessure Level [dB]  / [2.83V 1m] "	"Frequency [Hz]"	"Sound Pessure Level [dB]  / [2.83V 1m] "	"Frequency [Hz]"	"Sound Pessure Level [dB]  / [2.83V 1m] "	"Frequency [Hz]"	"Sound Pessure Level [dB]  / [2.83V 1m] "	"Frequency [Hz]"	"Sound Pessure Level [dB]  / [2.83V 1m] "	"Frequency [Hz]"	"Sound Pessure Level [dB]  / [2.83V 1m] "	"Frequency [Hz]"	"Sound Pessure Level [dB]  / [2.83V 1m] "	"Frequency [Hz]"	"Sound Pessure Level [dB]  / [2.83V 1m] "	"Frequency [Hz]"	"Sound Pessure Level [dB]  / [2.83V 1m] "	"Frequency [Hz]"	"Sound Pessure Level [dB]  / [2.83V 1m] "	"Frequency [Hz]"	"Sound Pessure Level [dB]  / [2.83V 1m] "	"Frequency [Hz]"	"Sound Pessure Level [dB]  / [2.83V 1m] "	"Frequency [Hz]"	"Sound Pessure Level [dB]  / [2.83V 1m] "	"Frequency [Hz]"	"Sound Pessure Level [dB]  / [2.83V 1m] "	"Frequency [Hz]"	"Sound Pessure Level [dB]  / [2.83V 1m] "	"Frequency [Hz]"	"Sound Pessure Level [dB]  / [2.83V 1m] "	"Frequency [Hz]"	"Sound Pessure Level [dB]  / [2.83V 1m] "	"Frequency [Hz]"	"Sound Pessure Level [dB]  / [2.83V 1m] "	"Frequency [Hz]"	"Sound Pessure Level [dB]  / [2.83V 1m] "	"Frequency [Hz]"	"Sound Pessure Level [dB]  / [2.83V 1m] "	"Frequency [Hz]"	"Sound Pessure Level [dB]  / [2.83V 1m] "	"Frequency [Hz]"	"Sound Pessure Level [dB]  / [2.83V 1m] "	"Frequency [Hz]"	"Sound Pessure Level [dB]  / [2.83V 1m] "	"Frequency [Hz]"	"Sound Pessure Level [dB]  / [2.83V 1m] "	"Frequency [Hz]"	"Sound Pessure Level [dB]  / [2.83V 1m] "	"Frequency [Hz]"	"Sound Pessure Level [dB]  / [2.83V 1m] "	"Frequency [Hz]"	"Sound Pessure Level [dB]  / [2.83V 1m] "	"Frequency [Hz]"	"Sound Pessure Level [dB]  / [2.83V 1m] "	"Frequency [Hz]"	"Sound Pessure Level [dB]  / [2.83V 1m] "	"Frequency [Hz]"	"Sound Pessure Level [dB]  / [2.83V 1m] "	"Frequency [Hz]"	"Sound Pessure Level [dB]  / [2.83V 1m] "	"Frequency [Hz]"	"Sound Pessure Level [dB]  / [2.83V 1m] "	"Frequency [Hz]"	"Sound Pessure Level [dB]  / [2.83V 1m] "	"Frequency [Hz]"	"Sound Pessure Level [dB]  / [2.83V 1m] "	"Frequency [Hz]"	"Sound Pessure Level [dB]  / [2.83V 1m] "	"Frequency [Hz]"	"Sound Pessure Level [dB]  / [2.83V 1m] "
20.5078	57.3719	20.5078	57.3218	20.5078	57.4564	20.5078	57.3056	20.5078	57.5818	20.5078	57.3284	20.5078	57.7593	20.5078	57.4003	20.5078	58.0034	20.5078	57.5354	20.5078	58.3271	20.5078	57.7485	20.5078	58.7367	20.5078	58.0516	20.5078	59.2262	20.5078	58.4493	20.5078	59.7772	20.5078	58.9362	20.5078	60.3618	20.5078	59.4973	20.5078	60.9488	20.5078	60.1093	20.5078	61.5099	20.5078	60.7434	20.5078	62.0224	20.5078	61.3678	20.5078	62.4697	20.5078	61.9495	20.5078	62.8394	20.5078	62.4582	20.5078	63.1211	20.5078	62.8686	20.5078	63.3043	20.5078	63.1632	20.5078	63.3782	20.5078	63.3332
21.9727	53.5345	21.9727	53.5474	21.9727	53.6063	21.9727	53.6433	21.9727	53.7764	21.9727	53.8338	21.9727	54.0657	21.9727	54.1403	21.9727	54.4932	21.9727	54.5856	21.9727	55.0652	21.9727	55.1837	21.9727	55.7687	21.9727	55.9291	21.9727	56.5714	21.9727	56.7949	21.9727	57.4301	21.9727	57.7369	21.9727	58.3007	21.9727	58.7047	21.9727	59.147	21.9727	59.6495	21.9727	59.9438	21.9727	60.5298	21.9727	60.6757	21.9727	61.3123	21.9727	61.333	21.9727	61.9717	21.9727	61.907	21.9727	62.4896	21.9727	62.3865	21.9727	62.8543	21.9727	62.757	21.9727	63.0601	21.9727	63.0024	21.9727	63.1073
23.4375	57.1557	23.4375	57.042	23.4375	57.2728	23.4375	56.9406	23.4375	57.3975	23.4375	56.8748	23.4375	57.5452	23.4375	56.8822	23.4375	57.7389	23.4375	57.0083	23.4375	58.0046	23.4375	57.2943	23.4375	58.363	23.4375	57.7602	23.4375	58.8227	23.4375	58.3934	23.4375	59.3756	23.4375	59.1522	23.4375	59.9996	23.4375	59.98	23.4375	60.6645	23.4375	60.8207	23.4375	61.3379	23.4375	61.6264	23.4375	61.9901	23.4375	62.3598	23.4375	62.5949	23.4375	62.9927	23.4375	63.1292	23.4375	63.5038	23.4375	63.5726	23.4375	63.8779	23.4375	63.9064	23.4375	64.1057	23.4375	64.1144	23.4375	64.1836
24.9023	60.0597	24.9023	60.0277	24.9023	60.0909	24.9023	59.9991	24.9023	60.1261	24.9023	59.9865	24.9023	60.178	24.9023	60.0111	24.9023	60.2667	24.9023	60.1012	24.9023	60.4167	24.9023	60.2873	24.9023	60.6519	24.9023	60.5943	24.9023	60.9878	24.9023	61.0317	24.9023	61.4257	24.9023	61.5886	24.9023	61.9507	24.9023	62.2343	24.9023	62.5356	24.9023	62.9265	24.9023	63.1482	24.9023	63.6198	24.9023	63.7568	24.9023	64.2722	24.9023	64.333	24.9023	64.848	24.9023	64.8517	24.9023	65.3188	24.9023	65.2903	24.9023	65.6634	24.9023	65.6276	24.9023	65.8686	24.9023	65.8453	24.9023	65.9286
26.3672	59.6621	26.3672	59.6138	26.3672	59.6741	26.3672	59.5385	26.3672	59.6557	26.3672	59.461	26.3672	59.6281	26.3672	59.4229	26.3672	59.6282	26.3672	59.4795	26.3672	59.7061	26.3672	59.6892	26.3672	59.9156	26.3672	60.0935	26.3672	60.2967	26.3672	60.6975	26.3672	60.8572	26.3672	61.4652	26.3672	61.5675	26.3672	62.3342	26.3672	62.3727	26.3672	63.2362	26.3672	63.2121	26.3672	64.1113	26.3672	64.0324	26.3672	64.912	26.3672	64.7927	26.3672	65.6024	26.3672	65.4627	26.3672	66.1555	26.3672	66.0197	26.3672	66.5522	26.3672	66.4445	26.3672	66.7805	26.3672	66.721	26.3672	66.836
27.832	62.7263	27.832	62.7184	27.832	62.7236	27.832	62.7076	27.832	62.7136	27.832	62.7125	27.832	62.7108	27.832	62.7614	27.832	62.7403	27.832	62.8891	27.832	62.8358	27.832	63.1297	27.832	63.0331	27.832	63.5068	27.832	63.3604	27.832	64.0239	27.832	63.8268	27.832	64.6611	27.832	64.4179	27.832	65.3798	27.832	65.0991	27.832	66.1323	27.832	65.8262	27.832	66.8709	27.832	66.5549	27.832	67.5539	27.832	67.2465	27.832	68.1471	27.832	67.8684	27.832	68.6238	27.832	68.3939	27.832	68.9645	27.832	68.8005	27.832	69.1559	27.832	69.0705	27.832	69.1912
29.2969	64.0316	29.2969	64.0141	29.2969	64.0279	29.2969	63.9817	29.2969	64.0074	29.2969	63.9518	29.2969	63.9854	29.2969	63.953	29.2969	63.9883	29.2969	64.0226	29.2969	64.0524	29.2969	64.2011	29.2969	64.2179	29.2969	64.5211	29.2969	64.5184	29.2969	64.9945	29.2969	64.9682	29.2969	65.6061	29.2969	65.5545	29.2969	66.3169	29.2969	66.2407	29.2969	67.0756	29.2969	66.9783	29.2969	67.83	29.2969	67.7177	29.2969	68.5347	29.2969	68.4161	29.2969	69.1528	29.2969	69.0385	29.2969	69.656	29.2969	69.5574	29.2969	70.0236	29.2969	69.951	29.2969	70.2412	29.2969	70.2027	29.2969	70.3012
30.7617	66.3007	30.7617	66.277	30.7617	66.3302	30.7617	66.265	30.7617	66.3685	30.7617	66.2801	30.7617	66.4281	30.7617	66.3454	30.7617	66.5286	30.7617	66.4891	30.7617	66.6947	30.7617	66.7383	30.7617	66.9509	30.7617	67.111	30.7617	67.3142	30.7617	67.609	30.7617	67.7879	30.7617	68.2144	30.7617	68.3589	30.7617	68.8941	30.7617	68.9999	30.7617	69.6065	30.7617	69.6751	30.7617	70.3096	30.7617	70.3469	30.7617	70.9659	30.7617	70.9798	30.7617	71.544	30.7617	71.543	30.7617	72.0186	30.7617	72.0104	30.7617	72.3705	30.7617	72.3612	30.7617	72.5856	30.7617	72.5798	30.7617	72.6561
32.2266	68.2327	32.2266	68.2256	32.2266	68.2415	32.2266	68.2272	32.2266	68.253	32.2266	68.2523	32.2266	68.2762	32.2266	68.3219	32.2266	68.328	32.2266	68.4608	32.2266	68.4309	32.2266	68.692	32.2266	68.6105	32.2266	69.0304	32.2266	68.8887	32.2266	69.4774	32.2266	69.2771	32.2266	70.0191	32.2266	69.7715	32.2266	70.6286	32.2266	70.3509	32.2266	71.2721	32.2266	70.9823	32.2266	71.9135	32.2266	71.6273	32.2266	72.5175	32.2266	72.2485	32.2266	73.0521	32.2266	72.8129	32.2266	73.489	32.2266	73.2927	32.2266	73.8055	32.2266	73.6652	32.2266	73.9858	32.2266	73.9124	32.2266	74.0216
33.6914	70.6712	33.6914	70.676	33.6914	70.6774	33.6914	70.6968	33.6914	70.6955	33.6914	70.7443	33.6914	70.733	33.6914	70.8337	33.6914	70.8027	33.6914	70.9824	33.6914	70.9222	33.6914	71.2072	33.6914	71.1109	33.6914	71.5199	33.6914	71.3852	33.6914	71.9232	33.6914	71.7535	33.6914	72.409	33.6914	72.212	33.6914	72.9576	33.6914	72.7436	33.6914	73.5412	33.6914	73.3214	33.6914	74.1272	33.6914	73.9128	33.6914	74.6827	33.6914	74.4843	33.6914	75.1771	33.6914	75.0046	33.6914	75.5842	33.6914	75.4464	33.6914	75.8828	33.6914	75.7868	33.6914	76.0579	33.6914	76.0086	33.6914	76.1005
35.1562	73.0227	35.1562	73.0267	35.1562	73.0298	35.1562	73.0458	35.1562	73.0495	35.1562	73.0887	35.1562	73.0879	35.1562	73.168	35.1562	73.1562	35.1562	73.2986	35.1562	73.2687	35.1562	73.4954	35.1562	73.4411	35.1562	73.7694	35.1562	73.6868	35.1562	74.1245	35.1562	74.0131	35.1562	74.5549	35.1562	74.418	35.1562	75.0446	35.1562	74.8888	35.1562	75.5696	35.1562	75.4037	35.1562	76.101	35.1562	75.9346	35.1562	76.6087	35.1562	76.4514	35.1562	77.0638	35.1562	76.9248	35.1562	77.4409	35.1562	77.3285	35.1562	77.7194	35.1562	77.6403	35.1562	77.8841	35.1562	77.8432	35.1562	77.926
36.6211	75.2273	36.6211	75.233	36.6211	75.2342	36.6211	75.2545	36.6211	75.2547	36.6211	75.2991	36.6211	75.294	36.6211	75.3771	36.6211	75.3611	36.6211	75.5014	36.6211	75.4676	36.6211	75.6842	36.6211	75.6266	36.6211	75.9354	36.6211	75.8495	36.6211	76.2588	36.6211	76.1433	36.6211	76.65	36.6211	76.5075	36.6211	77.0962	36.6211	76.9329	36.6211	77.5768	36.6211	77.4016	36.6211	78.066	36.6211	77.8895	36.6211	78.5362	36.6211	78.3689	36.6211	78.9598	36.6211	78.812	36.6211	79.3121	36.6211	79.1927	36.6211	79.5726	36.6211	79.4888	36.6211	79.7261	36.6211	79.6829	36.6211	79.7635
38.0859	77.3592	38.0859	77.3649	38.0859	77.3687	38.0859	77.3885	38.0859	77.3938	38.0859	77.4356	38.0859	77.4385	38.0859	77.5148	38.0859	77.5096	38.0859	77.6357	38.0859	77.6161	38.0859	77.808	38.0859	77.7681	38.0859	78.0394	38.0859	77.9747	38.0859	78.3328	38.0859	78.2417	38.0859	78.6853	38.0859	78.5695	38.0859	79.0867	38.0859	78.9512	38.0859	79.5201	38.0859	79.3723	38.0859	79.9635	38.0859	79.8123	38.0859	80.392	38.0859	80.2469	38.0859	80.7801	38.0859	80.6505	38.0859	81.1044	38.0859	80.9987	38.0859	81.345	38.0859	81.2703	38.0859	81.4873	38.0859	81.4485	38.0859	81.5224
39.5508	79.2089	39.5508	79.2161	39.5508	79.2184	39.5508	79.2423	39.5508	79.245	39.5508	79.2921	39.5508	79.2918	39.5508	79.3723	39.5508	79.364	39.5508	79.4906	39.5508	79.4689	39.5508	79.6546	39.5508	79.6143	39.5508	79.8705	39.5508	79.8072	39.5508	80.1408	39.5508	80.0523	39.5508	80.463	39.5508	80.3501	39.5508	80.8288	39.5508	80.6952	39.5508	81.2238	39.5508	81.0761	39.5508	81.6288	39.5508	81.4758	39.5508	82.0216	39.5508	81.8729	39.5508	82.3786	39.5508	82.2445	39.5508	82.6777	39.5508	82.5676	39.5508	82.8998	39.5508	82.8216	39.5508	83.0305	39.5508	82.9899	39.5508	83.0611
41.0156	80.8649	41.0156	80.8731	41.0156	80.8724	41.0156	80.8988	41.0156	80.8958	41.0156	80.9459	41.0156	80.9374	41.0156	81.02	41.0156	81.0012	41.0156	81.1274	41.0156	81.0931	41.0156	81.2748	41.0156	81.2195	41.0156	81.4673	41.0156	81.3866	41.0156	81.708	41.0156	81.5992	41.0156	81.9954	41.0156	81.8591	41.0156	82.3234	41.0156	82.1632	41.0156	82.68	41.0156	82.5032	41.0156	83.0484	41.0156	82.8648	41.0156	83.4081	41.0156	83.2292	41.0156	83.7369	41.0156	83.5749	41.0156	84.0131	41.0156	83.8795	41.0156	84.2177	41.0156	84.1224	41.0156	84.336	41.0156	84.2864	41.0156	84.3594
42.4805	81.8863	42.4805	81.9045	42.4805	81.8832	42.4805	81.9396	42.4805	81.8955	42.4805	81.9949	42.4805	81.9251	42.4805	82.075	42.4805	81.9757	42.4805	82.1855	42.4805	82.0523	42.4805	82.3319	42.4805	82.1609	42.4805	82.5188	42.4805	82.3074	42.4805	82.7485	42.4805	82.4967	42.4805	83.0195	42.4805	82.7308	42.4805	83.3259	42.4805	83.0077	42.4805	83.6566	42.4805	83.3208	42.4805	83.996	42.4805	83.6578	42.4805	84.3249	42.4805	84.0024	42.4805	84.6227	42.4805	84.3349	42.4805	84.8687	42.4805	84.6339	42.4805	85.0451	42.4805	84.879	42.4805	85.1383	42.4805	85.0523	42.4805	85.1409
43.9453	82.5317	43.9453	82.5524	43.9453	82.526	43.9453	82.5895	43.9453	82.5353	43.9453	82.6458	43.9453	82.5611	43.9453	82.725	43.9453	82.6063	43.9453	82.8314	43.9453	82.6752	43.9453	82.9696	43.9453	82.773	43.9453	83.1431	43.9453	82.905	43.9453	83.3539	43.9453	83.0757	43.9453	83.6007	43.9453	83.2874	43.9453	83.879	43.9453	83.5393	43.9453	84.1794	43.9453	83.8262	43.9453	84.4887	43.9453	84.1381	43.9453	84.7899	43.9453	84.4602	43.9453	85.0642	43.9453	84.7738	43.9453	85.2922	43.9453	85.0582	43.9453	85.4564	43.9453	85.2926	43.9453	85.5432	43.9453	85.459	43.9453	85.5445
45.4102	82.7979	45.4102	82.8226	45.4102	82.7903	45.4102	82.8653	45.4102	82.8	45.4102	82.9278	45.4102	82.8287	45.4102	83.0127	45.4102	82.8788	45.4102	83.1231	45.4102	82.9539	45.4102	83.2621	45.4102	83.0578	45.4102	83.4319	45.4102	83.1946	45.4102	83.6337	45.4102	83.3673	45.4102	83.8661	45.4102	83.577	45.4102	84.1251	45.4102	83.8221	45.4102	84.4029	45.4102	84.0971	45.4102	84.6883	45.4102	84.3926	45.4102	84.9667	45.4102	84.6947	45.4102	85.2215	45.4102	84.9863	45.4102	85.4351	45.4102	85.2482	45.4102	85.5913	45.4102	85.4617	45.4102	85.677	45.4102	85.6107	45.4102	85.6841
46.875	83.1012	46.875	83.1242	46.875	83.0967	46.875	83.1659	46.875	83.1109	46.875	83.2274	46.875	83.145	46.875	83.3101	46.875	83.2007	46.875	83.416	46.875	83.2802	46.875	83.547	46.875	83.3859	46.875	83.7046	46.875	83.5201	46.875	83.8894	46.875	83.6846	46.875	84.1004	46.875	83.8794	46.875	84.3342	46.875	84.1028	46.875	84.5845	46.875	84.3502	46.875	84.8417	46.875	84.6135	46.875	85.0933	46.875	84.8814	46.875	85.3244	46.875	85.1391	46.875	85.5192	46.875	85.3703	46.875	85.6628	46.875	85.5585	46.875	85.7429	46.875	85.6892	46.875	85.7522
48.3398	83.0906	48.3398	83.1064	48.3398	83.0931	48.3398	83.1408	48.3398	83.1141	48.3398	83.1943	48.3398	83.1541	48.3398	83.2679	48.3398	83.2139	48.3398	83.3626	48.3398	83.2949	48.3398	83.4797	48.3398	83.3983	48.3398	83.62	48.3398	83.5254	48.3398	83.784	48.3398	83.677	48.3398	83.9707	48.3398	83.8532	48.3398	84.1778	48.3398	84.0521	48.3398	84.4002	48.3398	84.2701	48.3398	84.6301	48.3398	84.5006	48.3398	84.857	48.3398	84.7341	48.3398	85.0677	48.3398	84.9581	48.3398	85.2479	48.3398	85.1583	48.3398	85.3835	48.3398	85.3199	48.3398	85.463	48.3398	85.43	48.3398	85.4791
51.2695	82.9246	51.2695	82.9452	51.2695	82.9221	51.2695	82.9838	51.2695	82.9379	51.2695	83.0404	51.2695	82.9721	51.2695	83.1151	51.2695	83.0248	51.2695	83.2077	51.2695	83.0963	51.2695	83.3182	51.2695	83.1869	51.2695	83.4464	51.2695	83.2967	51.2695	83.5917	51.2695	83.4257	51.2695	83.7529	51.2695	83.5734	51.2695	83.9277	51.2695	83.7387	51.2695	84.1121	51.2695	83.919	51.2695	84.3003	51.2695	84.1101	51.2695	84.4841	51.2695	84.3054	51.2695	84.6534	51.2695	84.4955	51.2695	84.7966	51.2695	84.6687	51.2695	84.9021	51.2695	84.8121	51.2695	84.9601	51.2695	84.9137	51.2695	84.9644
52.7344	82.9279	52.7344	82.9544	52.7344	82.9201	52.7344	82.9993	52.7344	82.9313	52.7344	83.0618	52.7344	82.9612	52.7344	83.1413	52.7344	83.0098	52.7344	83.2369	52.7344	83.0765	52.7344	83.3475	52.7344	83.1611	52.7344	83.4721	52.7344	83.2629	52.7344	83.6095	52.7344	83.3816	52.7344	83.7583	52.7344	83.5164	52.7344	83.9162	52.7344	83.6661	52.7344	84.0799	52.7344	83.8289	52.7344	84.2448	52.7344	84.0016	52.7344	84.4041	52.7344	84.1788	52.7344	84.5494	52.7344	84.3527	52.7344	84.6708	52.7344	84.5129	52.7344	84.7582	52.7344	84.6477	52.7344	84.8027	52.7344	84.7459	52.7344	84.7989
54.1992	82.9286	54.1992	82.9574	54.1992	82.9184	54.1992	83.0042	54.1992	82.927	54.1992	83.0681	54.1992	82.954	54.1992	83.1479	54.1992	82.999	54.1992	83.2421	54.1992	83.0612	54.1992	83.3491	54.1992	83.1398	54.1992	83.4673	54.1992	83.2338	54.1992	83.5951	54.1992	83.3424	54.1992	83.7308	54.1992	83.4645	54.1992	83.8727	54.1992	83.5992	54.1992	84.018	54.1992	83.7452	54.1992	84.1632	54.1992	83.9003	54.1992	84.303	54.1992	84.0604	54.1992	84.43	54.1992	84.2191	54.1992	84.5357	54.1992	84.367	54.1992	84.6108	54.1992	84.4931	54.1992	84.6471	54.1992	84.5867	54.1992	84.6394
55.6641	82.9089	55.6641	82.9313	55.6641	82.9056	55.6641	82.9723	55.6641	82.9218	55.6641	83.0305	55.6641	82.957	55.6641	83.1044	55.6641	83.0103	55.6641	83.192	55.6641	83.0805	55.6641	83.2914	55.6641	83.1662	55.6641	83.4006	55.6641	83.2657	55.6641	83.518	55.6641	83.3773	55.6641	83.6419	55.6641	83.4994	55.6641	83.7706	55.6641	83.6302	55.6641	83.9021	55.6641	83.7676	55.6641	84.0333	55.6641	83.9089	55.6641	84.1603	55.6641	84.0497	55.6641	84.2771	55.6641	84.184	55.6641	84.3769	55.6641	84.3042	55.6641	84.4518	55.6641	84.4019	55.6641	84.4948	55.6641	84.4695	55.6641	84.5012
58.5938	83.1404	58.5938	83.1516	58.5938	83.1473	58.5938	83.1804	58.5938	83.1724	58.5938	83.2255	58.5938	83.2151	58.5938	83.285	58.5938	83.2738	58.5938	83.3568	58.5938	83.3467	58.5938	83.4386	58.5938	83.4316	58.5938	83.5281	58.5938	83.526	58.5938	83.6232	58.5938	83.6272	58.5938	83.7221	58.5938	83.7329	58.5938	83.8232	58.5938	83.8406	58.5938	83.925	58.5938	83.9481	58.5938	84.026	58.5938	84.0528	58.5938	84.1238	58.5938	84.1517	58.5938	84.215	58.5938	84.2411	58.5938	84.2949	58.5938	84.3167	58.5938	84.3585	58.5938	84.3739	58.5938	84.4007	58.5938	84.4087	58.5938	84.4179
60.0586	83.2331	60.0586	83.2417	60.0586	83.2425	60.0586	83.2677	60.0586	83.2697	60.0586	83.3099	60.0586	83.3137	60.0586	83.3661	60.0586	83.3728	60.0586	83.4339	60.0586	83.4447	60.0586	83.5106	60.0586	83.5268	60.0586	83.5934	60.0586	83.6164	60.0586	83.6799	60.0586	83.7106	60.0586	83.7683	60.0586	83.8068	60.0586	83.8571	60.0586	83.9028	60.0586	83.9455	60.0586	83.9963	60.0586	84.0325	60.0586	84.0854	60.0586	84.1167	60.0586	84.168	60.0586	84.1957	60.0586	84.2414	60.0586	84.2658	60.0586	84.3027	60.0586	84.3224	60.0586	84.3481	60.0586	84.3613	60.0586	84.3744	60.0586	84.3791
62.9883	83.4392	62.9883	83.4443	62.9883	83.451	62.9883	83.4657	62.9883	83.4794	62.9883	83.5019	62.9883	83.5232	62.9883	83.5508	62.9883	83.5802	62.9883	83.6096	62.9883	83.6477	62.9883	83.6754	62.9883	83.7226	62.9883	83.7452	62.9883	83.8015	62.9883	83.8164	62.9883	83.8813	62.9883	83.8869	62.9883	83.959	62.9883	83.9553	62.9883	84.0323	62.9883	84.0209	62.9883	84.0996	62.9883	84.0831	62.9883	84.1598	62.9883	84.1417	62.9883	84.2122	62.9883	84.1958	62.9883	84.2563	62.9883	84.2437	62.9883	84.2912	62.9883	84.283	62.9883	84.3156	62.9883	84.3113	62.9883	84.3278	62.9883	84.3265
64.4531	83.5599	64.4531	83.5636	64.4531	83.5726	64.4531	83.5829	64.4531	83.6012	64.4531	83.6163	64.4531	83.6444	64.4531	83.6615	64.4531	83.7	64.4531	83.7155	64.4531	83.7651	64.4531	83.7751	64.4531	83.8364	64.4531	83.8371	64.4531	83.9101	64.4531	83.8986	64.4531	83.9829	64.4531	83.9572	64.4531	84.0517	64.4531	84.0115	64.4531	84.1138	64.4531	84.0611	64.4531	84.1677	64.4531	84.1061	64.4531	84.2123	64.4531	84.1474	64.4531	84.2475	64.4531	84.1853	64.4531	84.2737	64.4531	84.2198	64.4531	84.291	64.4531	84.2499	64.4531	84.2998	64.4531	84.2742	64.4531	84.2999	64.4531	84.2912
67.3828	83.8161	67.3828	83.8169	67.3828	83.8295	67.3828	83.8314	67.3828	83.8566	67.3828	83.8582	67.3828	83.8958	67.3828	83.8948	67.3828	83.9446	67.3828	83.9381	67.3828	83.9999	67.3828	83.9849	67.3828	84.058	67.3828	84.0314	67.3828	84.1153	67.3828	84.0747	67.3828	84.1679	67.3828	84.1123	67.3828	84.2128	67.3828	84.1427	67.3828	84.2476	67.3828	84.1655	67.3828	84.271	67.3828	84.1815	67.3828	84.2831	67.3828	84.1924	67.3828	84.2852	67.3828	84.2001	67.3828	84.2797	67.3828	84.2068	67.3828	84.2694	67.3828	84.2138	67.3828	84.2568	67.3828	84.2222	67.3828	84.244	67.3828	84.2323
68.8477	83.9724	68.8477	83.9715	68.8477	83.9878	68.8477	83.9845	68.8477	84.0171	68.8477	84.0099	68.8477	84.0586	68.8477	84.0451	68.8477	84.1099	68.8477	84.0869	68.8477	84.1674	68.8477	84.1317	68.8477	84.2273	68.8477	84.1758	68.8477	84.2856	68.8477	84.2159	68.8477	84.3382	68.8477	84.2494	68.8477	84.3816	68.8477	84.2747	68.8477	84.4131	68.8477	84.2914	68.8477	84.4314	68.8477	84.3005	68.8477	84.4364	68.8477	84.3042	68.8477	84.4297	68.8477	84.305	68.8477	84.414	68.8477	84.306	68.8477	84.393	68.8477	84.3097	68.8477	84.3701	68.8477	84.3176	68.8477	84.3486	68.8477	84.3307
