"SPL Horizontal"
"On-Axis"		"10°"		"-10°"		"20°"		"-20°"		"30°"		"-30°"		"40°"		"-40°"		"50°"		"-50°"		"60°"		"-60°"		"70°"		"-70°"		"80°"		"-80°"		"90°"		"-90°"		"100°"		"-100°"		"110°"		"-110°"		"120°"		"-120°"		"130°"		"-130°"		"140°"		"-140°"		"150°"		"-150°"		"160°"		"-160°"		"170°"		"-170°"		"180°"
"Frequency [Hz]"	"Sound Pessure Level [dB]  / [2.83V 1m] "	"Frequency [Hz]"	"Sound Pessure Level [dB]  / [2.83V 1m] "	"Frequency [Hz]"	"Sound Pessure Level [dB]  / [2.83V 1m] "	"Frequency [Hz]"	"Sound Pessure Level [dB]  / [2.83V 1m] "	"Frequency [Hz]"	"Sound Pessure Level [dB]  / [2.83V 1m] "	"Frequency [Hz]"	"Sound Pessure Level [dB]  / [2.83V 1m] "	"Frequency [Hz]"	"Sound Pessure Level [dB]  / [2.83V 1m] "	"Frequency [Hz]"	"Sound Pessure Level [dB]  / [2.83V 1m] "	"Frequency [Hz]"	"Sound Pessure Level [dB]  / [2.83V 1m] "	"Frequency [Hz]"	"Sound Pessure Level [dB]  / [2.83V 1m] "	"Frequency [Hz]"	"Sound Pessure Level [dB]  / [2.83V 1m] "	"Frequency [Hz]"	"Sound Pessure Level [dB]  / [2.83V 1m] "	"Frequency [Hz]"	"Sound Pessure Level [dB]  / [2.83V 1m] "	"Frequency [Hz]"	"Sound Pessure Level [dB]  / [2.83V 1m] "	"Frequency [Hz]"	"Sound Pessure Level [dB]  / [2.83V 1m] "	"Frequency [Hz]"	"Sound Pessure Level [dB]  / [2.83V 1m] "	"Frequency [Hz]"	"Sound Pessure Level [dB]  / [2.83V 1m] "	"Frequency [Hz]"	"Sound Pessure Level [dB]  / [2.83V 1m] "	"Frequency [Hz]"	"Sound Pessure Level [dB]  / [2.83V 1m] "	"Frequency [Hz]"	"Sound Pessure Level [dB]  / [2.83V 1m] "	"Frequency [Hz]"	"Sound Pessure Level [dB]  / [2.83V 1m] "	"Frequency [Hz]"	"Sound Pessure Level [dB]  / [2.83V 1m] "	"Frequency [Hz]"	"Sound Pessure Level [dB]  / [2.83V 1m] "	"Frequency [Hz]"	"Sound Pessure Level [dB]  / [2.83V 1m] "	"Frequency [Hz]"	"Sound Pessure Level [dB]  / [2.83V 1m] "	"Frequency [Hz]"	"Sound Pessure Level [dB]  / [2.83V 1m] "	"Frequency [Hz]"	"Sound Pessure Level [dB]  / [2.83V 1m] "	"Frequency [Hz]"	"Sound Pessure Level [dB]  / [2.83V 1m] "	"Frequency [Hz]"	"Sound Pessure Level [dB]  / [2.83V 1m] "	"Frequency [Hz]"	"Sound Pessure Level [dB]  / [2.83V 1m] "	"Frequency [Hz]"	"Sound Pessure Level [dB]  / [2.83V 1m] "	"Frequency [Hz]"	"Sound Pessure Level [dB]  / [2.83V 1m] "	"Frequency [Hz]"	"Sound Pessure Level [dB]  / [2.83V 1m] "	"Frequency [Hz]"	"Sound Pessure Level [dB]  / [2.83V 1m] "	"Frequency [Hz]"	"Sound Pessure Level [dB]  / [2.83V 1m] "	"Frequency [Hz]"	"Sound Pessure Level [dB]  / [2.83V 1m] "
20.5078	67.1952	20.5078	66.9148	20.5078	67.464	20.5078	66.6305	20.5078	67.7123	20.5078	66.3484	20.5078	67.9298	20.5078	66.0735	20.5078	68.1039	20.5078	65.8092	20.5078	68.2198	20.5078	65.5567	20.5078	68.2597	20.5078	65.3141	20.5078	68.2054	20.5078	65.0753	20.5078	68.0406	20.5078	64.8306	20.5078	67.7558	20.5078	64.5691	20.5078	67.351	20.5078	64.283	20.5078	66.8363	20.5078	63.972	20.5078	66.2316	20.5078	63.6477	20.5078	65.5652	20.5078	63.3337	20.5078	64.8751	20.5078	63.0637	20.5078	64.2099	20.5078	62.8767	20.5078	63.6269	20.5078	62.8128	20.5078	63.1807	20.5078	62.9073
21.9727	57.34	21.9727	57.4887	21.9727	57.3228	21.9727	57.746	21.9727	57.4495	21.9727	58.0862	21.9727	57.715	21.9727	58.4852	21.9727	58.0959	21.9727	58.9222	21.9727	58.5603	21.9727	59.3802	21.9727	59.0814	21.9727	59.8479	21.9727	59.6443	21.9727	60.3203	21.9727	60.243	21.9727	60.7995	21.9727	60.8715	21.9727	61.293	21.9727	61.5169	21.9727	61.8093	21.9727	62.1585	21.9727	62.3501	21.9727	62.7726	21.9727	62.9043	21.9727	63.3361	21.9727	63.4446	21.9727	63.8286	21.9727	63.9324	21.9727	64.2311	21.9727	64.3269	21.9727	64.5252	21.9727	64.5953	21.9727	64.6926	21.9727	64.7186
23.4375	68.0267	23.4375	67.9787	23.4375	68.0846	23.4375	67.9438	23.4375	68.1484	23.4375	67.9241	23.4375	68.2144	23.4375	67.9202	23.4375	68.2795	23.4375	67.932	23.4375	68.3424	23.4375	67.9587	23.4375	68.4039	23.4375	67.9995	23.4375	68.4674	23.4375	68.0538	23.4375	68.5374	23.4375	68.1205	23.4375	68.6176	23.4375	68.1991	23.4375	68.708	23.4375	68.29	23.4375	68.804	23.4375	68.3946	23.4375	68.8981	23.4375	68.514	23.4375	68.9824	23.4375	68.6457	23.4375	69.0508	23.4375	68.7816	23.4375	69.0991	23.4375	68.9085	23.4375	69.1237	23.4375	69.0126	23.4375	69.1204	23.4375	69.0842
24.9023	70.0753	24.9023	69.9519	24.9023	70.2096	24.9023	69.8422	24.9023	70.3518	24.9023	69.7492	24.9023	70.4985	24.9023	69.6761	24.9023	70.6454	24.9023	69.6267	24.9023	70.7867	24.9023	69.6058	24.9023	70.9164	24.9023	69.6183	24.9023	71.0294	24.9023	69.6694	24.9023	71.1246	24.9023	69.7636	24.9023	71.2057	24.9023	69.9047	24.9023	71.2808	24.9023	70.0934	24.9023	71.3585	24.9023	70.3255	24.9023	71.4441	24.9023	70.5901	24.9023	71.5367	24.9023	70.8693	24.9023	71.6287	24.9023	71.1407	24.9023	71.7068	24.9023	71.3811	24.9023	71.7547	24.9023	71.5704	24.9023	71.7556	24.9023	71.6963
26.3672	68.0051	26.3672	67.9055	26.3672	68.111	26.3672	67.8172	26.3672	68.2189	26.3672	67.7458	26.3672	68.326	26.3672	67.6975	26.3672	68.4316	26.3672	67.6791	26.3672	68.5371	26.3672	67.6987	26.3672	68.6465	26.3672	67.7647	26.3672	68.7661	26.3672	67.8851	26.3672	68.9028	26.3672	68.0653	26.3672	69.0634	26.3672	68.3065	26.3672	69.2522	26.3672	68.6038	26.3672	69.4689	26.3672	68.9454	26.3672	69.7079	26.3672	69.3126	26.3672	69.9572	26.3672	69.6811	26.3672	70.1991	26.3672	70.0232	26.3672	70.4108	26.3672	70.3107	26.3672	70.5677	26.3672	70.5195	26.3672	70.6473	26.3672	70.6334
27.832	66.3826	27.832	66.4972	27.832	66.28	27.832	66.6226	27.832	66.1936	27.832	66.7589	27.832	66.1312	27.832	66.9071	27.832	66.1037	27.832	67.0693	27.832	66.1245	27.832	67.2483	27.832	66.2064	27.832	67.4475	27.832	66.3591	27.832	67.6706	27.832	66.5876	27.832	67.9203	27.832	66.8911	27.832	68.1976	27.832	67.2627	27.832	68.5008	27.832	67.6893	27.832	68.824	27.832	68.1523	27.832	69.1557	27.832	68.6274	27.832	69.4779	27.832	69.0853	27.832	69.7659	27.832	69.4941	27.832	69.9911	27.832	69.8226	27.832	70.1254	27.832	70.0454	27.832	70.1472
29.2969	69.0035	29.2969	68.9808	29.2969	69.0104	29.2969	68.9461	29.2969	68.9998	29.2969	68.9037	29.2969	68.972	29.2969	68.8586	29.2969	68.9302	29.2969	68.8157	29.2969	68.8798	29.2969	68.7798	29.2969	68.8276	29.2969	68.7556	29.2969	68.781	29.2969	68.747	29.2969	68.7469	29.2969	68.7566	29.2969	68.7316	29.2969	68.7855	29.2969	68.741	29.2969	68.8336	29.2969	68.7789	29.2969	68.8995	29.2969	68.8463	29.2969	68.9806	29.2969	68.9392	29.2969	69.0725	29.2969	69.0481	29.2969	69.167	29.2969	69.1584	29.2969	69.2519	29.2969	69.2529	29.2969	69.3127	29.2969	69.3157	29.2969	69.3362
30.7617	69.3572	30.7617	69.3656	30.7617	69.3279	30.7617	69.354	30.7617	69.2776	30.7617	69.3245	30.7617	69.208	30.7617	69.2794	30.7617	69.1222	30.7617	69.2218	30.7617	69.025	30.7617	69.1546	30.7617	68.9212	30.7617	69.0814	30.7617	68.8162	30.7617	69.0055	30.7617	68.7151	30.7617	68.9304	30.7617	68.6231	30.7617	68.8587	30.7617	68.5454	30.7617	68.7924	30.7617	68.486	30.7617	68.7324	30.7617	68.4464	30.7617	68.6786	30.7617	68.4254	30.7617	68.6304	30.7617	68.4199	30.7617	68.5874	30.7617	68.4258	30.7617	68.549	30.7617	68.4399	30.7617	68.515	30.7617	68.4601	30.7617	68.4853
32.2266	73.7771	32.2266	73.8011	32.2266	73.7382	32.2266	73.8102	32.2266	73.6855	32.2266	73.8051	32.2266	73.6209	32.2266	73.7869	32.2266	73.5476	32.2266	73.7571	32.2266	73.4696	32.2266	73.7171	32.2266	73.3915	32.2266	73.668	32.2266	73.3179	32.2266	73.6108	32.2266	73.2526	32.2266	73.5464	32.2266	73.1977	32.2266	73.4766	32.2266	73.1542	32.2266	73.4045	32.2266	73.1214	32.2266	73.3339	32.2266	73.0978	32.2266	73.2688	32.2266	73.0818	32.2266	73.2121	32.2266	73.0715	32.2266	73.1649	32.2266	73.0659	32.2266	73.1276	32.2266	73.0648	32.2266	73.0995	32.2266	73.0691	32.2266	73.0802
33.6914	75.5853	33.6914	75.598	33.6914	75.5636	33.6914	75.6019	33.6914	75.5333	33.6914	75.5974	33.6914	75.4959	33.6914	75.585	33.6914	75.454	33.6914	75.5649	33.6914	75.4116	33.6914	75.5377	33.6914	75.3728	33.6914	75.5038	33.6914	75.3419	33.6914	75.4643	33.6914	75.3211	33.6914	75.421	33.6914	75.3104	33.6914	75.3765	33.6914	75.3073	33.6914	75.334	33.6914	75.3079	33.6914	75.2966	33.6914	75.3081	33.6914	75.2669	33.6914	75.3054	33.6914	75.2462	33.6914	75.2985	33.6914	75.2346	33.6914	75.2875	33.6914	75.2313	33.6914	75.2736	33.6914	75.2353	33.6914	75.2586	33.6914	75.2451
35.1562	76.612	35.1562	76.6353	35.1562	76.5927	35.1562	76.6624	35.1562	76.5779	35.1562	76.6938	35.1562	76.5695	35.1562	76.73	35.1562	76.5703	35.1562	76.7717	35.1562	76.5842	35.1562	76.8194	35.1562	76.6155	35.1562	76.8735	35.1562	76.6681	35.1562	76.9345	35.1562	76.744	35.1562	77.0025	35.1562	76.8421	35.1562	77.0772	35.1562	76.9577	35.1562	77.1578	35.1562	77.0838	35.1562	77.2427	35.1562	77.2116	35.1562	77.329	35.1562	77.3329	35.1562	77.413	35.1562	77.4401	35.1562	77.4899	35.1562	77.5266	35.1562	77.5542	35.1562	77.5875	35.1562	77.6004	35.1562	77.62	35.1562	77.6237
36.6211	78.5246	36.6211	78.4998	36.6211	78.548	36.6211	78.4741	36.6211	78.5698	36.6211	78.4488	36.6211	78.5903	36.6211	78.4256	36.6211	78.6103	36.6211	78.4063	36.6211	78.631	36.6211	78.3928	36.6211	78.6532	36.6211	78.3869	36.6211	78.6778	36.6211	78.3898	36.6211	78.705	36.6211	78.4023	36.6211	78.7346	36.6211	78.4246	36.6211	78.7657	36.6211	78.4564	36.6211	78.7969	36.6211	78.4976	36.6211	78.8265	36.6211	78.5472	36.6211	78.8522	36.6211	78.6039	36.6211	78.8713	36.6211	78.6648	36.6211	78.8809	36.6211	78.7257	36.6211	78.8779	36.6211	78.7816	36.6211	78.8603	36.6211	78.8277
38.0859	80.5572	38.0859	80.5652	38.0859	80.5371	38.0859	80.5615	38.0859	80.5053	38.0859	80.547	38.0859	80.4631	38.0859	80.5232	38.0859	80.4124	38.0859	80.4923	38.0859	80.356	38.0859	80.4564	38.0859	80.2974	38.0859	80.418	38.0859	80.2408	38.0859	80.3793	38.0859	80.1903	38.0859	80.3424	38.0859	80.1497	38.0859	80.3094	38.0859	80.1214	38.0859	80.2823	38.0859	80.1068	38.0859	80.2628	38.0859	80.1062	38.0859	80.2519	38.0859	80.1187	38.0859	80.2491	38.0859	80.1418	38.0859	80.2518	38.0859	80.1715	38.0859	80.2555	38.0859	80.2023	38.0859	80.2552	38.0859	80.2287	38.0859	80.2468
39.5508	82.4338	39.5508	82.4334	39.5508	82.4174	39.5508	82.4169	39.5508	82.3842	39.5508	82.3852	39.5508	82.3344	39.5508	82.3393	39.5508	82.2689	39.5508	82.281	39.5508	82.189	39.5508	82.2119	39.5508	82.0971	39.5508	82.1342	39.5508	81.9965	39.5508	82.0499	39.5508	81.8914	39.5508	81.9614	39.5508	81.7864	39.5508	81.8709	39.5508	81.6862	39.5508	81.7812	39.5508	81.595	39.5508	81.6948	39.5508	81.5164	39.5508	81.6147	39.5508	81.4533	39.5508	81.5435	39.5508	81.407	39.5508	81.483	39.5508	81.3773	39.5508	81.4345	39.5508	81.363	39.5508	81.3983	39.5508	81.3624	39.5508	81.3743
41.0156	83.9315	41.0156	83.9297	41.0156	83.9287	41.0156	83.9228	41.0156	83.922	41.0156	83.9101	41.0156	83.9117	41.0156	83.8915	41.0156	83.8977	41.0156	83.867	41.0156	83.8792	41.0156	83.8368	41.0156	83.8551	41.0156	83.8013	41.0156	83.8246	41.0156	83.7605	41.0156	83.7873	41.0156	83.7149	41.0156	83.7441	41.0156	83.6651	41.0156	83.6964	41.0156	83.6121	41.0156	83.6461	41.0156	83.5572	41.0156	83.595	41.0156	83.5025	41.0156	83.5442	41.0156	83.4508	41.0156	83.4947	41.0156	83.4063	41.0156	83.4479	41.0156	83.3735	41.0156	83.4067	41.0156	83.3564	41.0156	83.375	41.0156	83.3572
42.4805	85.2263	42.4805	85.243	42.4805	85.2042	42.4805	85.2539	42.4805	85.1778	42.4805	85.2587	42.4805	85.1482	42.4805	85.2576	42.4805	85.1169	42.4805	85.2512	42.4805	85.0852	42.4805	85.2403	42.4805	85.0548	42.4805	85.2257	42.4805	85.0273	42.4805	85.2081	42.4805	85.0041	42.4805	85.1884	42.4805	84.9862	42.4805	85.1672	42.4805	84.9743	42.4805	85.1454	42.4805	84.9683	42.4805	85.1239	42.4805	84.9677	42.4805	85.1034	42.4805	84.9714	42.4805	85.0845	42.4805	84.9785	42.4805	85.0672	42.4805	84.9878	42.4805	85.0513	42.4805	84.9987	42.4805	85.0368	42.4805	85.0106	42.4805	85.0233
43.9453	86.5834	43.9453	86.5972	43.9453	86.5634	43.9453	86.6041	43.9453	86.5379	43.9453	86.604	43.9453	86.5078	43.9453	86.5968	43.9453	86.4743	43.9453	86.5832	43.9453	86.4383	43.9453	86.5637	43.9453	86.4012	43.9453	86.5393	43.9453	86.3644	43.9453	86.5112	43.9453	86.3295	43.9453	86.4807	43.9453	86.2983	43.9453	86.4493	43.9453	86.2724	43.9453	86.4186	43.9453	86.2533	43.9453	86.3899	43.9453	86.2415	43.9453	86.3639	43.9453	86.237	43.9453	86.3412	43.9453	86.2389	43.9453	86.3218	43.9453	86.2455	43.9453	86.3053	43.9453	86.2552	43.9453	86.2911	43.9453	86.2664	43.9453	86.2784
45.4102	87.8195	45.4102	87.8338	45.4102	87.7965	45.4102	87.8389	45.4102	87.7655	45.4102	87.8348	45.4102	87.7273	45.4102	87.8216	45.4102	87.6828	45.4102	87.7999	45.4102	87.6331	45.4102	87.7704	45.4102	87.5794	45.4102	87.7342	45.4102	87.5234	45.4102	87.6924	45.4102	87.467	45.4102	87.6463	45.4102	87.4127	45.4102	87.5975	45.4102	87.3629	45.4102	87.5476	45.4102	87.3199	45.4102	87.4986	45.4102	87.2858	45.4102	87.4519	45.4102	87.262	45.4102	87.409	45.4102	87.2489	45.4102	87.3707	45.4102	87.2462	45.4102	87.3373	45.4102	87.2524	45.4102	87.3088	45.4102	87.2659	45.4102	87.2849
46.875	89.1301	46.875	89.1347	46.875	89.1155	46.875	89.129	46.875	89.0912	46.875	89.1131	46.875	89.0577	46.875	89.0873	46.875	89.0156	46.875	89.0521	46.875	88.9657	46.875	89.0084	46.875	88.9092	46.875	88.9572	46.875	88.8474	46.875	88.9001	46.875	88.7822	46.875	88.8387	46.875	88.7159	46.875	88.7752	46.875	88.6509	46.875	88.7117	46.875	88.5898	46.875	88.6505	46.875	88.5352	46.875	88.5935	46.875	88.4892	46.875	88.5424	46.875	88.4534	46.875	88.4987	46.875	88.4287	46.875	88.4633	46.875	88.4152	46.875	88.4369	46.875	88.4124	46.875	88.4198
48.3398	90.4074	48.3398	90.4043	48.3398	90.4007	48.3398	90.3915	48.3398	90.3842	48.3398	90.3695	48.3398	90.3582	48.3398	90.3389	48.3398	90.3232	48.3398	90.3004	48.3398	90.28	48.3398	90.255	48.3398	90.2294	48.3398	90.2039	48.3398	90.1729	48.3398	90.1481	48.3398	90.1123	48.3398	90.0892	48.3398	90.0496	48.3398	90.0286	48.3398	89.987	48.3398	89.9682	48.3398	89.9268	48.3398	89.9099	48.3398	89.8712	48.3398	89.8557	48.3398	89.8218	48.3398	89.8078	48.3398	89.7803	48.3398	89.7681	48.3398	89.7477	48.3398	89.738	48.3398	89.7248	48.3398	89.7185	48.3398	89.7121	48.3398	89.7099
51.2695	92.634	51.2695	92.6321	51.2695	92.6273	51.2695	92.6216	51.2695	92.6122	51.2695	92.6028	51.2695	92.5889	51.2695	92.5764	51.2695	92.558	51.2695	92.5434	51.2695	92.5203	51.2695	92.5047	51.2695	92.4766	51.2695	92.4616	51.2695	92.428	51.2695	92.4154	51.2695	92.3758	51.2695	92.3673	51.2695	92.3219	51.2695	92.3187	51.2695	92.2682	51.2695	92.2706	51.2695	92.217	51.2695	92.2243	51.2695	92.1703	51.2695	92.181	51.2695	92.1299	51.2695	92.1418	51.2695	92.097	51.2695	92.108	51.2695	92.0723	51.2695	92.0808	51.2695	92.0562	51.2695	92.0615	51.2695	92.049	51.2695	92.0508
52.7344	93.674	52.7344	93.6696	52.7344	93.669	52.7344	93.656	52.7344	93.6548	52.7344	93.6337	52.7344	93.6317	52.7344	93.6033	52.7344	93.6002	52.7344	93.566	52.7344	93.5613	52.7344	93.523	52.7344	93.516	52.7344	93.4759	52.7344	93.4655	52.7344	93.426	52.7344	93.4115	52.7344	93.3748	52.7344	93.3558	52.7344	93.3237	52.7344	93.3005	52.7344	93.2742	52.7344	93.2477	52.7344	93.2275	52.7344	93.1993	52.7344	93.1848	52.7344	93.157	52.7344	93.1473	52.7344	93.1221	52.7344	93.1159	52.7344	93.0953	52.7344	93.0917	52.7344	93.0771	52.7344	93.0752	52.7344	93.0678	52.7344	93.0672
54.1992	94.6677	54.1992	94.6613	54.1992	94.6646	54.1992	94.6458	54.1992	94.652	54.1992	94.6217	54.1992	94.6304	54.1992	94.5899	54.1992	94.6002	54.1992	94.5515	54.1992	94.5624	54.1992	94.5079	54.1992	94.5182	54.1992	94.4605	54.1992	94.469	54.1992	94.411	54.1992	94.4167	54.1992	94.361	54.1992	94.3631	54.1992	94.3119	54.1992	94.3102	54.1992	94.2654	54.1992	94.26	54.1992	94.2226	54.1992	94.2144	54.1992	94.1848	54.1992	94.175	54.1992	94.1527	54.1992	94.1428	54.1992	94.127	54.1992	94.1184	54.1992	94.1081	54.1992	94.1019	54.1992	94.0961	54.1992	94.0929	54.1992	94.091
55.6641	95.5845	55.6641	95.5758	55.6641	95.584	55.6641	95.5584	55.6641	95.5742	55.6641	95.5331	55.6641	95.5555	55.6641	95.5008	55.6641	95.5283	55.6641	95.4631	55.6641	95.4938	55.6641	95.4214	55.6641	95.4533	55.6641	95.3774	55.6641	95.4085	55.6641	95.3328	55.6641	95.3614	55.6641	95.2895	55.6641	95.3142	55.6641	95.2488	55.6641	95.2687	55.6641	95.2122	55.6641	95.2268	55.6641	95.1804	55.6641	95.1899	55.6641	95.154	55.6641	95.1591	55.6641	95.133	55.6641	95.1349	55.6641	95.1172	55.6641	95.1173	55.6641	95.1062	55.6641	95.1057	55.6641	95.0998	55.6641	95.0993	55.6641	95.0975
58.5938	97.3251	58.5938	97.3124	58.5938	97.3273	58.5938	97.2895	58.5938	97.3187	58.5938	97.2573	58.5938	97.2999	58.5938	97.2169	58.5938	97.2715	58.5938	97.1699	58.5938	97.2347	58.5938	97.118	58.5938	97.1909	58.5938	97.0631	58.5938	97.1419	58.5938	97.0074	58.5938	97.0895	58.5938	96.9528	58.5938	97.0358	58.5938	96.9013	58.5938	96.9828	58.5938	96.8547	58.5938	96.9324	58.5938	96.8145	58.5938	96.8862	58.5938	96.7816	58.5938	96.8455	58.5938	96.7566	58.5938	96.8109	58.5938	96.7399	58.5938	96.7827	58.5938	96.7309	58.5938	96.7607	58.5938	96.7292	58.5938	96.7445	58.5938	96.7339
60.0586	98.0198	60.0586	98.0107	60.0586	98.0174	60.0586	97.9907	60.0586	98.0037	60.0586	97.9604	60.0586	97.9791	60.0586	97.9212	60.0586	97.9445	60.0586	97.8745	60.0586	97.9014	60.0586	97.8222	60.0586	97.8512	60.0586	97.7662	60.0586	97.7962	60.0586	97.7087	60.0586	97.7383	60.0586	97.6518	60.0586	97.6801	60.0586	97.5976	60.0586	97.6236	60.0586	97.5477	60.0586	97.571	60.0586	97.5035	60.0586	97.524	60.0586	97.4662	60.0586	97.4839	60.0586	97.4363	60.0586	97.4513	60.0586	97.4142	60.0586	97.4262	60.0586	97.3996	60.0586	97.4082	60.0586	97.3922	60.0586	97.3967	60.0586	97.3914
62.9883	99.1976	62.9883	99.1881	62.9883	99.1954	62.9883	99.1673	62.9883	99.1816	62.9883	99.136	62.9883	99.1568	62.9883	99.0955	62.9883	99.1219	62.9883	99.0475	62.9883	99.0784	62.9883	98.9939	62.9883	99.0281	62.9883	98.9369	62.9883	98.9731	62.9883	98.8787	62.9883	98.9157	62.9883	98.8215	62.9883	98.8581	62.9883	98.7674	62.9883	98.8024	62.9883	98.7181	62.9883	98.7506	62.9883	98.6749	62.9883	98.7043	62.9883	98.6388	62.9883	98.6646	62.9883	98.6103	62.9883	98.6321	62.9883	98.5896	62.9883	98.6068	62.9883	98.5764	62.9883	98.5884	62.9883	98.5701	62.9883	98.5763	62.9883	98.5702
64.4531	99.6872	64.4531	99.6775	64.4531	99.6848	64.4531	99.6562	64.4531	99.6704	64.4531	99.6242	64.4531	99.6447	64.4531	99.5828	64.4531	99.6087	64.4531	99.5337	64.4531	99.5639	64.4531	99.4791	64.4531	99.5123	64.4531	99.4211	64.4531	99.456	64.4531	99.3622	64.4531	99.3975	64.4531	99.3045	64.4531	99.3392	64.4531	99.2502	64.4531	99.2831	64.4531	99.201	64.4531	99.2314	64.4531	99.1581	64.4531	99.1854	64.4531	99.1225	64.4531	99.1462	64.4531	99.0945	64.4531	99.1143	64.4531	99.0741	64.4531	99.0897	64.4531	99.0611	64.4531	99.0719	64.4531	99.0548	64.4531	99.0604	64.4531	99.0547
67.3828	100.431	67.3828	100.42	67.3828	100.43	67.3828	100.396	67.3828	100.415	67.3828	100.36	67.3828	100.388	67.3828	100.315	67.3828	100.35	67.3828	100.261	67.3828	100.302	67.3828	100.202	67.3828	100.247	67.3828	100.139	67.3828	100.188	67.3828	100.076	67.3828	100.125	67.3828	100.014	67.3828	100.064	67.3828	99.9574	67.3828	100.004	67.3828	99.9064	67.3828	99.9496	67.3828	99.8628	67.3828	99.9009	67.3828	99.827	67.3828	99.859	67.3828	99.799	67.3828	99.8245	67.3828	99.7787	67.3828	99.7974	67.3828	99.7654	67.3828	99.7776	67.3828	99.7588	67.3828	99.7648	67.3828	99.7586
68.8477	100.707	68.8477	100.696	68.8477	100.705	68.8477	100.672	68.8477	100.689	68.8477	100.636	68.8477	100.662	68.8477	100.59	68.8477	100.624	68.8477	100.536	68.8477	100.576	68.8477	100.476	68.8477	100.521	68.8477	100.412	68.8477	100.462	68.8477	100.348	68.8477	100.401	68.8477	100.286	68.8477	100.34	68.8477	100.228	68.8477	100.282	68.8477	100.177	68.8477	100.229	68.8477	100.134	68.8477	100.181	68.8477	100.099	68.8477	100.139	68.8477	100.072	68.8477	100.105	68.8477	100.053	68.8477	100.077	68.8477	100.041	68.8477	100.057	68.8477	100.035	68.8477	100.044	68.8477	100.036
